PE FL                   SPECTRUM    ASCII       PEDS        1.60        
  -1
SA9BA9~1.SP
24/04/12
15:52:02.00
24/04/12
15:52:02.00
Jan

897.500000
1









LS55
405.00
5.00
5.00
SCAN
1
20
100
100
0
400
0
1
0
1
5
ON
450 405 
1 0 0
#HDR
-1
-1
#GR
NM

0.00002384185791015625
0.0
450.000000
0.500000
896
8
364.398401
-0.676000
#DATA
450.000000	-0.676000  
450.500000	-0.010946  
451.000000	0.293522   
451.500000	0.311083   
452.000000	0.318878   
452.500000	0.351954   
453.000000	0.320727   
453.500000	0.201015   
454.000000	0.167795   
454.500000	0.196787   
455.000000	0.271151   
455.500000	0.263439   
456.000000	0.191840   
456.500000	0.046916   
457.000000	-0.034159  
457.500000	-0.019825  
458.000000	0.079727   
458.500000	0.056500   
459.000000	0.014371   
459.500000	0.005734   
460.000000	0.208007   
460.500000	0.340325   
461.000000	0.417416   
461.500000	0.220833   
462.000000	0.074590   
462.500000	-0.096840  
463.000000	-0.116265  
463.500000	-0.131878  
464.000000	0.026015   
464.500000	0.208689   
465.000000	0.370303   
465.500000	0.307628   
466.000000	0.072598   
466.500000	-0.180931  
467.000000	-0.262037  
467.500000	-0.116856  
468.000000	0.123992   
468.500000	0.287287   
469.000000	0.279598   
469.500000	0.194840   
470.000000	0.042583   
470.500000	-0.010446  
471.000000	0.063098   
471.500000	0.084696   
472.000000	0.014106   
472.500000	-0.081022  
473.000000	0.043257   
473.500000	0.170098   
474.000000	0.297234   
474.500000	0.315151   
475.000000	0.357075   
475.500000	0.210893   
476.000000	0.169113   
476.500000	0.186598   
477.000000	0.242848   
477.500000	0.161492   
478.000000	0.034848   
478.500000	-0.017568  
479.000000	0.000636   
479.500000	0.053681   
480.000000	0.124234   
480.500000	0.071871   
481.000000	-0.050053  
481.500000	-0.119651  
482.000000	-0.015931  
482.500000	0.173613   
483.000000	0.304719   
483.500000	0.356462   
484.000000	0.429636   
484.500000	0.468219   
485.000000	0.336780   
485.500000	0.191340   
486.000000	0.042340   
486.500000	-0.092780  
487.000000	-0.234469  
487.500000	-0.197257  
488.000000	0.110484   
488.500000	0.309159   
489.000000	0.294128   
489.500000	0.201674   
490.000000	0.291242   
490.500000	0.377477   
491.000000	0.459712   
491.500000	0.393696   
492.000000	0.402553   
492.500000	0.403007   
493.000000	0.458356   
493.500000	0.326954   
494.000000	0.241681   
494.500000	0.347393   
495.000000	0.614409   
495.500000	0.688977   
496.000000	0.497128   
496.500000	0.280765   
497.000000	0.139242   
497.500000	0.121371   
498.000000	0.139848   
498.500000	0.352325   
499.000000	0.489393   
499.500000	0.430878   
500.000000	0.336409   
500.500000	0.411249   
501.000000	0.565818   
501.500000	0.583348   
502.000000	0.519500   
502.500000	0.446181   
503.000000	0.447272   
503.500000	0.399537   
504.000000	0.425651   
504.500000	0.427598   
505.000000	0.420075   
505.500000	0.482424   
506.000000	0.651424   
506.500000	0.808378   
507.000000	0.805969   
507.500000	0.724848   
508.000000	0.650106   
508.500000	0.736143   
509.000000	0.842984   
509.500000	0.940689   
510.000000	0.860583   
510.500000	0.781265   
511.000000	0.829484   
511.500000	1.129901   
512.000000	1.546992   
512.500000	1.802742   
513.000000	1.753393   
513.500000	1.428689   
514.000000	1.151795   
514.500000	1.231507   
515.000000	1.518651   
515.500000	1.660280   
516.000000	1.510174   
516.500000	1.399325   
517.000000	1.443363   
517.500000	1.691742   
518.000000	1.906515   
518.500000	2.046318   
519.000000	2.027916   
519.500000	1.889280   
520.000000	1.843166   
520.500000	1.888083   
521.000000	1.883393   
521.500000	1.782098   
522.000000	1.787295   
522.500000	1.939325   
523.000000	2.223583   
523.500000	2.456924   
524.000000	2.629787   
524.500000	2.778227   
525.000000	2.907575   
525.500000	2.908515   
526.000000	2.934507   
526.500000	3.005871   
527.000000	3.224196   
527.500000	3.603643   
528.000000	3.970090   
528.500000	3.974643   
529.000000	3.666628   
529.500000	3.557272   
530.000000	4.004613   
530.500000	4.567000   
531.000000	4.939325   
531.500000	5.009575   
532.000000	5.255234   
532.500000	5.438136   
533.000000	5.611310   
533.500000	5.509825   
534.000000	5.600530   
534.500000	5.763106   
535.000000	6.291075   
535.500000	6.834484   
536.000000	7.322878   
536.500000	7.569810   
537.000000	7.947651   
537.500000	8.348227   
538.000000	8.754507   
538.500000	9.083772   
539.000000	9.404090   
539.500000	9.677840   
540.000000	9.730181   
540.500000	10.155045  
541.000000	10.778719  
541.500000	11.226954  
542.000000	10.951318  
542.500000	10.717303  
543.000000	10.929000  
543.500000	11.396590  
544.000000	11.770272  
544.500000	11.865250  
545.000000	11.850507  
545.500000	11.521515  
546.000000	11.272363  
546.500000	11.110924  
547.000000	11.231310  
547.500000	11.296325  
548.000000	11.760325  
548.500000	12.338143  
549.000000	12.591113  
549.500000	12.050015  
550.000000	11.644500  
550.500000	11.751113  
551.000000	12.111098  
551.500000	12.043280  
552.000000	11.806833  
552.500000	11.707500  
553.000000	11.843212  
553.500000	12.259234  
554.000000	13.142295  
554.500000	13.937060  
555.000000	14.106712  
555.500000	13.576446  
556.000000	13.289674  
556.500000	13.264583  
557.000000	13.463151  
557.500000	13.454780  
558.000000	13.720689  
558.500000	14.089106  
559.000000	14.504628  
559.500000	14.469037  
560.000000	14.424371  
560.500000	14.583250  
561.000000	15.217204  
561.500000	16.055530  
562.000000	16.674068  
562.500000	16.948795  
563.000000	16.926553  
563.500000	16.928401  
564.000000	17.283227  
564.500000	17.888924  
565.000000	18.477325  
565.500000	18.812553  
566.000000	19.477704  
566.500000	20.385318  
567.000000	21.185636  
567.500000	21.573916  
568.000000	22.153265  
568.500000	22.694825  
569.000000	23.091439  
569.500000	23.564575  
570.000000	24.431787  
570.500000	25.171545  
571.000000	25.427106  
571.500000	25.490553  
572.000000	26.192886  
572.500000	26.851916  
573.000000	27.525045  
573.500000	28.290962  
574.000000	29.357484  
574.500000	29.948265  
575.000000	30.069174  
575.500000	29.917522  
576.000000	30.402151  
576.500000	31.537325  
577.000000	32.628628  
577.500000	33.452984  
578.000000	33.984606  
578.500000	34.560575  
579.000000	34.851825  
579.500000	35.069515  
580.000000	35.567242  
580.500000	36.665946  
581.000000	37.589037  
581.500000	38.312068  
582.000000	38.793712  
582.500000	39.392272  
583.000000	39.732250  
583.500000	40.146303  
584.000000	40.742992  
584.500000	41.623333  
585.000000	42.706454  
585.500000	43.986174  
586.000000	45.395272  
586.500000	46.501818  
587.000000	47.552704  
587.500000	48.213719  
588.000000	48.934136  
588.500000	49.403613  
589.000000	50.383022  
589.500000	51.277810  
590.000000	52.213515  
590.500000	53.236863  
591.000000	54.751651  
591.500000	56.254098  
592.000000	57.705621  
592.500000	58.962795  
593.000000	59.826871  
593.500000	60.698583  
594.000000	61.990053  
594.500000	64.157090  
595.000000	65.639477  
595.500000	66.165431  
596.000000	66.976196  
596.500000	68.765045  
597.000000	70.470734  
597.500000	71.168151  
598.000000	71.700196  
598.500000	73.002636  
599.000000	75.310659  
599.500000	77.256780  
600.000000	78.693196  
600.500000	80.299886  
601.000000	82.009000  
601.500000	83.563227  
602.000000	84.463265  
602.500000	85.842219  
603.000000	87.994613  
603.500000	90.843856  
604.000000	93.447409  
604.500000	96.141340  
605.000000	98.222666  
605.500000	100.001590 
606.000000	101.403803 
606.500000	102.772166 
607.000000	104.174295 
607.500000	106.125287 
608.000000	108.523439 
608.500000	110.597583 
609.000000	111.262962 
609.500000	112.075780 
610.000000	114.561348 
610.500000	118.576886 
611.000000	121.513242 
611.500000	122.986196 
612.000000	123.685356 
612.500000	126.146840 
613.000000	129.527734 
613.500000	132.907424 
614.000000	135.041659 
614.500000	136.528833 
615.000000	138.080272 
615.500000	140.236765 
616.000000	143.396962 
616.500000	147.030575 
617.000000	150.563666 
617.500000	153.292136 
618.000000	156.177969 
618.500000	159.968772 
619.000000	163.644833 
619.500000	166.881333 
620.000000	169.112666 
620.500000	173.042007 
621.000000	177.358765 
621.500000	181.932575 
622.000000	184.625674 
622.500000	187.090734 
623.000000	189.218848 
623.500000	191.901712 
624.000000	195.343893 
624.500000	199.346371 
625.000000	204.018795 
625.500000	207.418401 
626.000000	210.820522 
626.500000	214.509681 
627.000000	218.934621 
627.500000	222.416272 
628.000000	224.788848 
628.500000	227.158530 
629.000000	231.549583 
629.500000	236.909340 
630.000000	241.236431 
630.500000	243.293598 
631.000000	246.914666 
631.500000	252.471901 
632.000000	257.992363 
632.500000	261.454712 
633.000000	263.826537 
633.500000	267.213530 
634.000000	271.090189 
634.500000	276.363681 
635.000000	281.220575 
635.500000	286.363424 
636.000000	289.562265 
636.500000	291.526136 
637.000000	291.802075 
637.500000	293.594946 
638.000000	298.331598 
638.500000	304.382689 
639.000000	308.365098 
639.500000	310.821780 
640.000000	313.610810 
640.500000	317.839272 
641.000000	320.465742 
641.500000	323.044151 
642.000000	325.058719 
642.500000	329.837143 
643.000000	334.871280 
643.500000	339.724553 
644.000000	340.988265 
644.500000	342.511568 
645.000000	344.528174 
645.500000	348.242022 
646.000000	350.483909 
646.500000	350.669242 
647.000000	350.528863 
647.500000	352.260681 
648.000000	354.754000 
648.500000	355.044545 
649.000000	355.035431 
649.500000	356.483507 
650.000000	358.067924 
650.500000	358.437007 
651.000000	358.674310 
651.500000	361.530560 
652.000000	364.255689 
652.500000	364.398401 
653.000000	361.875386 
653.500000	360.282856 
654.000000	360.688803 
654.500000	362.239674 
655.000000	363.846613 
655.500000	364.029340 
656.000000	363.830780 
656.500000	361.961757 
657.000000	359.392310 
657.500000	356.842909 
658.000000	356.061446 
658.500000	356.300128 
659.000000	356.604371 
659.500000	355.778280 
660.000000	353.276007 
660.500000	349.746833 
661.000000	346.715560 
661.500000	344.563106 
662.000000	341.479090 
662.500000	336.733477 
663.000000	331.722212 
663.500000	329.007863 
664.000000	329.074530 
664.500000	328.909227 
665.000000	325.766878 
665.500000	320.129113 
666.000000	315.193909 
666.500000	311.996598 
667.000000	308.883060 
667.500000	303.386537 
668.000000	297.527712 
668.500000	293.233462 
669.000000	290.193924 
669.500000	286.260022 
670.000000	282.065568 
670.500000	278.076560 
671.000000	274.180424 
671.500000	268.204840 
672.000000	260.982833 
672.500000	254.091106 
673.000000	249.541272 
673.500000	245.404007 
674.000000	241.909159 
674.500000	237.474469 
675.000000	233.292000 
675.500000	227.982537 
676.000000	222.149916 
676.500000	215.705969 
677.000000	209.987613 
677.500000	204.575939 
678.000000	199.491643 
678.500000	194.236636 
679.000000	189.371000 
679.500000	184.639409 
680.000000	179.752674 
680.500000	174.222863 
681.000000	169.222924 
681.500000	164.690621 
682.000000	160.891310 
682.500000	157.336537 
683.000000	153.989901 
683.500000	150.696431 
684.000000	146.348287 
684.500000	142.015227 
685.000000	137.758643 
685.500000	133.865287 
686.000000	128.837083 
686.500000	123.669553 
687.000000	119.283469 
687.500000	116.447469 
688.000000	112.979371 
688.500000	108.319659 
689.000000	103.851386 
689.500000	101.283840 
690.000000	99.738250  
690.500000	97.952272  
691.000000	95.098787  
691.500000	91.541242  
692.000000	87.441060  
692.500000	84.716893  
693.000000	83.039196  
693.500000	81.484787  
694.000000	78.300333  
694.500000	75.200681  
695.000000	72.964022  
695.500000	71.588992  
696.000000	69.757515  
696.500000	67.002090  
697.000000	64.071977  
697.500000	61.570931  
698.000000	60.270825  
698.500000	58.495666  
699.000000	55.910909  
699.500000	53.052856  
700.000000	52.126196  
700.500000	51.599500  
701.000000	50.463037  
701.500000	48.169613  
702.000000	46.789060  
702.500000	45.996143  
703.000000	45.353393  
703.500000	44.191530  
704.000000	43.042803  
704.500000	41.721840  
705.000000	40.358969  
705.500000	39.302734  
706.000000	38.497515  
706.500000	37.937136  
707.000000	37.131022  
707.500000	35.939295  
708.000000	34.603196  
708.500000	33.463500  
709.000000	32.684287  
709.500000	31.708757  
710.000000	30.818954  
710.500000	29.882977  
711.000000	29.338833  
711.500000	28.747333  
712.000000	28.562734  
712.500000	28.258984  
713.000000	27.381939  
713.500000	25.824333  
714.000000	24.415689  
714.500000	23.480484  
715.000000	22.991787  
715.500000	22.643643  
716.000000	22.475098  
716.500000	22.192681  
717.000000	21.942507  
717.500000	21.562507  
718.000000	21.009333  
718.500000	20.240848  
719.000000	19.628174  
719.500000	19.588181  
720.000000	19.571227  
720.500000	19.232022  
721.000000	18.338977  
721.500000	17.842401  
722.000000	17.290409  
722.500000	16.969090  
723.000000	16.465689  
723.500000	16.078560  
724.000000	15.407909  
724.500000	14.894575  
725.000000	14.659113  
725.500000	14.956856  
726.000000	14.952901  
726.500000	14.401227  
727.000000	13.805424  
727.500000	13.763287  
728.000000	13.687643  
728.500000	12.943143  
729.000000	11.906939  
729.500000	11.616931  
730.000000	12.069522  
730.500000	12.293446  
731.000000	12.003068  
731.500000	11.746636  
732.000000	11.668151  
732.500000	11.521962  
733.000000	11.255272  
733.500000	11.155022  
734.000000	11.241537  
734.500000	11.245931  
735.000000	11.036007  
735.500000	10.706560  
736.000000	10.421166  
736.500000	9.912613   
737.000000	9.443280   
737.500000	9.092696   
738.000000	9.068704   
738.500000	9.026916   
739.000000	8.836590   
739.500000	8.603803   
740.000000	8.544151   
740.500000	8.537969   
741.000000	8.371204   
741.500000	8.076424   
742.000000	8.048037   
742.500000	8.155219   
743.000000	8.004000   
743.500000	7.469068   
744.000000	7.231696   
744.500000	7.412060   
745.000000	7.611371   
745.500000	7.432500   
746.000000	7.129560   
746.500000	6.881053   
747.000000	6.753113   
747.500000	6.714795   
748.000000	6.700840   
748.500000	6.672424   
749.000000	6.479833   
749.500000	6.248333   
750.000000	6.039886   
750.500000	6.198272   
751.000000	6.235674   
751.500000	6.160575   
752.000000	5.826151   
752.500000	5.906295   
753.000000	5.954530   
753.500000	5.756606   
754.000000	5.356780   
754.500000	5.152825   
755.000000	5.154787   
755.500000	5.098886   
756.000000	5.036295   
756.500000	4.975015   
757.000000	4.935681   
757.500000	4.837439   
758.000000	4.863999   
758.500000	5.098651   
759.000000	5.235265   
759.500000	5.208598   
760.000000	5.086901   
760.500000	5.114053   
761.000000	5.149462   
761.500000	4.932583   
762.000000	4.616280   
762.500000	4.484060   
763.000000	4.651901   
763.500000	4.845659   
764.000000	4.791507   
764.500000	4.620727   
765.000000	4.542772   
765.500000	4.618522   
766.000000	4.424901   
766.500000	4.111590   
767.000000	3.876962   
767.500000	4.005265   
768.000000	4.085325   
768.500000	4.016136   
769.000000	3.782386   
769.500000	3.620984   
770.000000	3.475280   
770.500000	3.606181   
771.000000	3.888666   
771.500000	4.089090   
772.000000	3.844772   
772.500000	3.510113   
773.000000	3.408507   
773.500000	3.518666   
774.000000	3.505106   
774.500000	3.408810   
775.000000	3.366257   
775.500000	3.383265   
776.000000	3.326946   
776.500000	3.259310   
777.000000	3.218022   
777.500000	3.199666   
778.000000	3.202946   
778.500000	3.201598   
779.000000	3.247250   
779.500000	3.277916   
780.000000	3.446522   
780.500000	3.593295   
781.000000	3.609727   
781.500000	3.392522   
782.000000	3.151712   
782.500000	3.034537   
783.000000	2.975772   
783.500000	2.929810   
784.000000	2.940878   
784.500000	3.036750   
785.000000	3.142840   
785.500000	3.144734   
786.000000	3.154121   
786.500000	2.947946   
787.000000	2.708575   
787.500000	2.512439   
788.000000	2.759045   
788.500000	2.860272   
789.000000	2.729363   
789.500000	2.385674   
790.000000	2.438886   
790.500000	2.643734   
791.000000	2.854628   
791.500000	2.874204   
792.000000	2.880628   
792.500000	2.859977   
793.000000	2.798393   
793.500000	2.802227   
794.000000	2.670568   
794.500000	2.565393   
795.000000	2.504045   
795.500000	2.717734   
796.000000	2.893204   
796.500000	3.010431   
797.000000	2.910106   
797.500000	2.690674   
798.000000	2.543356   
798.500000	2.538446   
799.000000	2.612469   
799.500000	2.502954   
800.000000	2.295181   
800.500000	2.128946   
801.000000	2.104340   
801.500000	2.194303   
802.000000	2.362969   
802.500000	2.564121   
803.000000	2.473515   
803.500000	2.186280   
804.000000	1.883507   
804.500000	1.751106   
805.000000	1.803636   
805.500000	2.052924   
806.000000	2.220371   
806.500000	2.194340   
807.000000	2.061106   
807.500000	1.965962   
808.000000	1.878257   
808.500000	1.588977   
809.000000	1.502333   
809.500000	1.662378   
810.000000	2.004651   
810.500000	1.963984   
811.000000	1.966931   
811.500000	1.833250   
812.000000	1.813810   
812.500000	1.719727   
813.000000	1.999871   
813.500000	2.260250   
814.000000	2.208469   
814.500000	1.859121   
815.000000	1.597810   
815.500000	1.576946   
816.000000	1.495386   
816.500000	1.479833   
817.000000	1.573878   
817.500000	1.709454   
818.000000	1.704825   
818.500000	1.736196   
819.000000	1.799015   
819.500000	1.825340   
820.000000	1.827325   
820.500000	1.897969   
821.000000	2.213780   
821.500000	2.416742   
822.000000	2.383310   
822.500000	2.126939   
823.000000	2.070159   
823.500000	2.176530   
824.000000	2.405750   
824.500000	2.414151   
825.000000	2.436189   
825.500000	2.406151   
826.000000	2.377909   
826.500000	2.243227   
827.000000	2.229348   
827.500000	2.178219   
828.000000	2.161227   
828.500000	1.966143   
829.000000	1.821606   
829.500000	1.781924   
830.000000	1.867916   
830.500000	1.781636   
831.000000	1.547265   
831.500000	1.260765   
832.000000	1.149530   
832.500000	1.131242   
833.000000	1.097287   
833.500000	1.030439   
834.000000	1.083674   
834.500000	1.262704   
835.000000	1.460560   
835.500000	1.446166   
836.000000	1.250454   
836.500000	1.091931   
837.000000	1.059454   
837.500000	1.036189   
838.000000	0.975651   
838.500000	0.960143   
839.000000	1.061825   
839.500000	1.094424   
840.000000	1.013606   
840.500000	0.800590   
841.000000	0.668606   
841.500000	0.635386   
842.000000	0.744393   
842.500000	0.690166   
843.000000	0.563590   
843.500000	0.418196   
844.000000	0.585333   
844.500000	0.787727   
845.000000	0.867977   
845.500000	0.665113   
846.000000	0.491507   
846.500000	0.389765   
847.000000	0.425613   
847.500000	0.467212   
848.000000	0.512795   
848.500000	0.504606   
849.000000	0.449409   
849.500000	0.389606   
850.000000	0.437409   
850.500000	0.399469   
851.000000	0.284893   
851.500000	0.146189   
852.000000	0.280909   
852.500000	0.398242   
853.000000	0.366000   
853.500000	0.109257   
854.000000	-0.005818  
854.500000	0.056734   
855.000000	0.177477   
855.500000	0.277083   
856.000000	0.251575   
856.500000	0.230969   
857.000000	0.107553   
857.500000	0.083053   
858.000000	-0.085242  
858.500000	-0.092704  
859.000000	-0.062439  
859.500000	0.127765   
860.000000	0.068969   
860.500000	-0.051757  
861.000000	-0.180227  
861.500000	-0.101772  
862.000000	-0.017431  
862.500000	0.039977   
863.000000	0.067522   
863.500000	0.123795   
864.000000	0.168045   
864.500000	0.213318   
865.000000	0.144530   
865.500000	-0.063249  
866.000000	-0.256696  
866.500000	-0.183060  
867.000000	0.029227   
867.500000	0.145310   
868.000000	0.064613   
868.500000	-0.025022  
869.000000	-0.057143  
869.500000	-0.057015  
870.000000	-0.051446  
870.500000	0.083500   
871.000000	0.164613   
871.500000	0.174757   
872.000000	0.053166   
872.500000	0.019946   
873.000000	0.008606   
873.500000	0.028219   
874.000000	0.004613   
874.500000	-0.026772  
875.000000	0.052537   
875.500000	0.116712   
876.000000	0.202280   
876.500000	0.176818   
877.000000	0.199121   
877.500000	0.199795   
878.000000	0.238128   
878.500000	0.168439   
879.000000	0.083833   
879.500000	0.037787   
880.000000	0.069522   
880.500000	0.094068   
881.000000	0.064325   
881.500000	-0.030939  
882.000000	-0.118704  
882.500000	-0.105689  
883.000000	-0.014734  
883.500000	0.072954   
884.000000	0.055916   
884.500000	-0.004931  
885.000000	-0.042871  
885.500000	-0.027621  
886.000000	-0.065136  
886.500000	-0.123143  
887.000000	-0.166575  
887.500000	-0.148257  
888.000000	-0.070757  
888.500000	0.014174   
889.000000	-0.023022  
889.500000	-0.141939  
890.000000	-0.187659  
890.500000	-0.122416  
891.000000	-0.007037  
891.500000	0.033265   
892.000000	0.028068   
892.500000	-0.082030  
893.000000	-0.210810  
893.500000	-0.279143  
894.000000	-0.159848  
894.500000	-0.111212  
895.000000	-0.212303  
895.500000	-0.252189  
896.000000	-0.059075  
896.500000	0.147871   
897.000000	0.111068   
897.500000	-0.020053  

