PE FL                   SPECTRUM    ASCII       PEDS        1.60        
  -1
SA9B85~1.SP
24/04/12
16:29:07.00
24/04/12
16:29:07.00
Jan

897.500000
1









LS55
405.00
5.00
5.00
SCAN
1
20
100
100
0
400
0
1
0
1
5
ON
450 405 
1 0 0
#HDR
-1
-1
#GR
NM

0.00002384185791015625
0.0
450.000000
0.500000
896
8
280.882121
-0.339098
#DATA
450.000000	-0.066999  
450.500000	-0.048242  
451.000000	0.022818   
451.500000	0.059924   
452.000000	0.015833   
452.500000	-0.116734  
453.000000	-0.138810  
453.500000	-0.003499  
454.000000	0.109212   
454.500000	0.109371   
455.000000	0.027848   
455.500000	0.005280   
456.000000	0.013075   
456.500000	0.094265   
457.000000	-0.002166  
457.500000	-0.026416  
458.000000	-0.030575  
458.500000	0.135386   
459.000000	0.148522   
459.500000	0.096234   
460.000000	-0.023340  
460.500000	-0.137969  
461.000000	-0.328446  
461.500000	-0.339098  
462.000000	-0.218840  
462.500000	-0.105484  
463.000000	-0.065696  
463.500000	-0.011954  
464.000000	0.075681   
464.500000	-0.029545  
465.000000	-0.129893  
465.500000	-0.208848  
466.000000	-0.063022  
466.500000	-0.048515  
467.000000	-0.015083  
467.500000	-0.141734  
468.000000	-0.058545  
468.500000	0.013234   
469.000000	0.082416   
469.500000	-0.014053  
470.000000	-0.026280  
470.500000	0.082878   
471.000000	0.233333   
471.500000	0.342303   
472.000000	0.302568   
472.500000	0.136386   
473.000000	-0.011575  
473.500000	0.018492   
474.000000	0.214734   
474.500000	0.276401   
475.000000	0.126477   
475.500000	-0.100568  
476.000000	-0.194356  
476.500000	-0.113257  
477.000000	0.004628   
477.500000	0.069681   
478.000000	-0.016068  
478.500000	-0.083946  
479.000000	-0.105189  
479.500000	-0.016856  
480.000000	-0.008053  
480.500000	-0.042825  
481.000000	0.038515   
481.500000	0.236454   
482.000000	0.275750   
482.500000	0.059765   
483.000000	-0.109250  
483.500000	-0.088621  
484.000000	-0.041598  
484.500000	0.004106   
485.000000	0.181590   
485.500000	0.374810   
486.000000	0.372530   
486.500000	0.219083   
487.000000	0.087840   
487.500000	0.069780   
488.000000	-0.048356  
488.500000	-0.092628  
489.000000	-0.092704  
489.500000	0.032500   
490.000000	0.084295   
490.500000	0.072166   
491.000000	-0.039265  
491.500000	0.055507   
492.000000	0.195462   
492.500000	0.186272   
493.000000	0.072340   
493.500000	0.089727   
494.000000	0.180901   
494.500000	0.268727   
495.000000	0.304651   
495.500000	0.381318   
496.000000	0.373068   
496.500000	0.188712   
497.000000	0.131643   
497.500000	0.252863   
498.000000	0.360863   
498.500000	0.408060   
499.000000	0.493318   
499.500000	0.628409   
500.000000	0.785257   
500.500000	0.701537   
501.000000	0.482037   
501.500000	0.308083   
502.000000	0.342984   
502.500000	0.464409   
503.000000	0.522939   
503.500000	0.441848   
504.000000	0.464795   
504.500000	0.605621   
505.000000	0.746151   
505.500000	0.843666   
506.000000	0.937303   
506.500000	0.898424   
507.000000	0.770893   
507.500000	0.609651   
508.000000	0.677969   
508.500000	0.839598   
509.000000	0.990098   
509.500000	0.995825   
510.000000	1.050992   
510.500000	1.039075   
511.000000	1.026621   
511.500000	1.052143   
512.000000	1.168863   
512.500000	1.289242   
513.000000	1.370196   
513.500000	1.365363   
514.000000	1.270446   
514.500000	1.221553   
515.000000	1.251439   
515.500000	1.476446   
516.000000	1.748295   
516.500000	1.910393   
517.000000	1.915696   
517.500000	1.853924   
518.000000	1.833174   
518.500000	1.877712   
519.000000	2.140310   
519.500000	2.485696   
520.000000	2.651840   
520.500000	2.318727   
521.000000	1.858113   
521.500000	1.729613   
522.000000	2.144166   
522.500000	2.271181   
523.000000	2.058613   
523.500000	1.736272   
524.000000	2.096159   
524.500000	2.470606   
525.000000	2.725462   
525.500000	2.615977   
526.000000	2.787863   
526.500000	3.069371   
527.000000	3.322348   
527.500000	3.394333   
528.000000	3.562583   
528.500000	3.844659   
529.000000	4.144363   
529.500000	4.395446   
530.000000	4.721863   
530.500000	4.970121   
531.000000	5.045696   
531.500000	4.846136   
532.000000	4.988757   
532.500000	5.373992   
533.000000	5.781227   
533.500000	5.766598   
534.000000	5.767401   
534.500000	5.925628   
535.000000	6.535681   
535.500000	7.138083   
536.000000	7.513909   
536.500000	7.585530   
537.000000	7.774553   
537.500000	8.064977   
538.000000	8.250181   
538.500000	8.241825   
539.000000	8.636287   
539.500000	9.562356   
540.000000	10.388378  
540.500000	10.760515  
541.000000	10.712560  
541.500000	10.696666  
542.000000	10.757787  
542.500000	11.195719  
543.000000	11.806015  
543.500000	12.203901  
544.000000	11.809325  
544.500000	11.419606  
545.000000	11.496303  
545.500000	11.810628  
546.000000	11.857196  
546.500000	11.537174  
547.000000	11.320416  
547.500000	11.166712  
548.000000	11.333636  
548.500000	11.655075  
549.000000	12.032954  
549.500000	11.815886  
550.000000	11.679939  
550.500000	11.780075  
551.000000	12.301000  
551.500000	12.400818  
552.000000	11.994901  
552.500000	11.620075  
553.000000	11.587159  
553.500000	11.722537  
554.000000	11.982590  
554.500000	12.361234  
555.000000	12.810189  
555.500000	13.013242  
556.000000	12.988530  
556.500000	12.864946  
557.000000	13.139924  
557.500000	13.300348  
558.000000	13.786522  
558.500000	13.995416  
559.000000	14.346674  
559.500000	14.483742  
560.000000	14.584522  
560.500000	14.411015  
561.000000	14.749227  
561.500000	15.414386  
562.000000	15.994363  
562.500000	16.225939  
563.000000	16.535590  
563.500000	16.998393  
564.000000	16.973969  
564.500000	16.922272  
565.000000	17.376128  
565.500000	18.638386  
566.000000	19.511833  
566.500000	20.182439  
567.000000	20.709833  
567.500000	21.640257  
568.000000	22.357128  
568.500000	23.406568  
569.000000	24.034893  
569.500000	24.469325  
570.000000	24.446575  
570.500000	24.526780  
571.000000	24.314477  
571.500000	24.523189  
572.000000	24.729719  
572.500000	25.355128  
573.000000	25.810712  
573.500000	26.629659  
574.000000	27.615946  
574.500000	28.804606  
575.000000	28.969022  
575.500000	28.898227  
576.000000	28.856181  
576.500000	29.748765  
577.000000	30.819818  
577.500000	31.721863  
578.000000	31.634659  
578.500000	31.649113  
579.000000	31.799696  
579.500000	32.405348  
580.000000	32.884098  
580.500000	33.342840  
581.000000	33.741500  
581.500000	34.454303  
582.000000	35.393318  
582.500000	36.081303  
583.000000	36.485984  
583.500000	36.675946  
584.000000	37.469795  
584.500000	38.369098  
585.000000	39.276924  
585.500000	40.134318  
586.000000	41.660856  
586.500000	43.211227  
587.000000	44.229901  
587.500000	44.696810  
588.000000	45.264204  
588.500000	46.282651  
589.000000	47.852174  
589.500000	49.701871  
590.000000	51.026227  
590.500000	51.226590  
591.000000	51.091704  
591.500000	52.063007  
592.000000	53.920636  
592.500000	55.523340  
593.000000	56.175704  
593.500000	56.630598  
594.000000	57.466946  
594.500000	58.888742  
595.000000	60.388583  
595.500000	61.649287  
596.000000	62.530742  
596.500000	63.798931  
597.000000	65.055416  
597.500000	66.391909  
598.000000	66.930446  
598.500000	67.864553  
599.000000	68.923143  
599.500000	70.909159  
600.000000	71.944143  
600.500000	72.940909  
601.000000	73.840863  
601.500000	76.017159  
602.000000	78.078363  
602.500000	78.861833  
603.000000	78.957621  
603.500000	80.095856  
604.000000	82.472787  
604.500000	85.392507  
605.000000	87.514287  
605.500000	88.573106  
606.000000	89.553136  
606.500000	91.523977  
607.000000	93.882712  
607.500000	95.959053  
608.000000	96.806015  
608.500000	98.210628  
609.000000	99.765560  
609.500000	101.359106 
610.000000	102.578424 
610.500000	105.235431 
611.000000	108.101090 
611.500000	110.575946 
612.000000	111.789530 
612.500000	113.724454 
613.000000	116.416128 
613.500000	118.904530 
614.000000	120.457750 
614.500000	122.278393 
615.000000	125.256643 
615.500000	128.785530 
616.000000	131.173871 
616.500000	131.660030 
617.000000	131.920431 
617.500000	134.291954 
618.000000	138.155856 
618.500000	141.622613 
619.000000	143.737613 
619.500000	146.113227 
620.000000	148.977325 
620.500000	151.678674 
621.000000	153.603727 
621.500000	155.958787 
622.000000	159.363712 
622.500000	162.808477 
623.000000	165.926151 
623.500000	168.670106 
624.000000	171.946356 
624.500000	174.378053 
625.000000	176.379643 
625.500000	177.991643 
626.000000	181.439356 
626.500000	184.463303 
627.000000	187.922924 
627.500000	190.595734 
628.000000	194.711689 
628.500000	196.729696 
629.000000	198.437363 
629.500000	199.407083 
630.000000	203.158159 
630.500000	207.234750 
631.000000	211.821340 
631.500000	215.243075 
632.000000	219.003159 
632.500000	221.470666 
633.000000	223.861598 
633.500000	226.054484 
634.000000	229.012674 
634.500000	230.278507 
635.000000	232.157810 
635.500000	234.803431 
636.000000	239.072651 
636.500000	241.981015 
637.000000	244.775583 
637.500000	247.233166 
638.000000	250.253659 
638.500000	252.923893 
639.000000	254.984295 
639.500000	256.007893 
640.000000	256.740068 
640.500000	257.454848 
641.000000	259.527522 
641.500000	261.617257 
642.000000	263.897227 
642.500000	265.741530 
643.000000	267.987522 
643.500000	269.258098 
644.000000	271.509606 
644.500000	273.466371 
645.000000	275.519348 
645.500000	276.322454 
646.000000	276.950712 
646.500000	276.494999 
647.000000	277.490999 
647.500000	277.815992 
648.000000	279.108992 
648.500000	278.276674 
649.000000	277.134984 
649.500000	276.593545 
650.000000	279.128727 
650.500000	280.882121 
651.000000	280.862772 
651.500000	279.041712 
652.000000	278.033734 
652.500000	277.675492 
653.000000	277.227386 
653.500000	275.897075 
654.000000	275.437325 
654.500000	276.654765 
655.000000	278.299795 
655.500000	277.344628 
656.000000	273.344537 
656.500000	269.701446 
657.000000	267.542227 
657.500000	267.071537 
658.000000	265.667075 
658.500000	264.090174 
659.000000	262.041401 
659.500000	260.957053 
660.000000	260.024795 
660.500000	259.189181 
661.000000	256.561113 
661.500000	253.329303 
662.000000	249.910242 
662.500000	247.796901 
663.000000	245.494053 
663.500000	242.443356 
664.000000	238.153212 
664.500000	235.099757 
665.000000	231.889787 
665.500000	228.323750 
666.000000	223.978060 
666.500000	220.846143 
667.000000	217.323621 
667.500000	213.070818 
668.000000	208.079181 
668.500000	204.456219 
669.000000	200.698136 
669.500000	196.124992 
670.000000	190.691053 
670.500000	187.090022 
671.000000	183.966712 
671.500000	180.696909 
672.000000	176.350446 
672.500000	172.575681 
673.000000	169.442348 
673.500000	165.730310 
674.000000	161.276477 
674.500000	156.850454 
675.000000	152.999424 
675.500000	149.000909 
676.000000	144.420250 
676.500000	140.257204 
677.000000	136.927477 
677.500000	134.221310 
678.000000	130.692757 
678.500000	126.424212 
679.000000	121.717037 
679.500000	117.964515 
680.000000	115.152318 
680.500000	112.232174 
681.000000	108.760303 
681.500000	105.308477 
682.000000	102.407363 
682.500000	100.416015 
683.000000	97.036719  
683.500000	93.588583  
684.000000	90.050053  
684.500000	87.578681  
685.000000	84.918196  
685.500000	82.368909  
686.000000	79.555060  
686.500000	77.445643  
687.000000	75.486469  
687.500000	73.675984  
688.000000	72.249590  
688.500000	70.600719  
689.000000	67.992371  
689.500000	64.964856  
690.000000	62.442128  
690.500000	60.575886  
691.000000	58.502621  
691.500000	56.312840  
692.000000	54.761560  
692.500000	53.615901  
693.000000	52.363628  
693.500000	50.953931  
694.000000	49.355666  
694.500000	47.740545  
695.000000	46.048719  
695.500000	44.282340  
696.000000	42.832613  
696.500000	41.681045  
697.000000	41.085371  
697.500000	40.048719  
698.000000	38.714583  
698.500000	37.054030  
699.000000	35.964030  
699.500000	34.814621  
700.000000	34.015356  
700.500000	33.071075  
701.000000	32.150689  
701.500000	31.247401  
702.000000	30.581363  
702.500000	29.717848  
703.000000	28.714674  
703.500000	27.647174  
704.000000	26.772242  
704.500000	26.375045  
705.000000	26.094106  
705.500000	25.626772  
706.000000	24.393522  
706.500000	23.483545  
707.000000	23.173780  
707.500000	23.385174  
708.000000	22.700916  
708.500000	21.372750  
709.000000	20.213060  
709.500000	19.831393  
710.000000	19.665621  
710.500000	19.284424  
711.000000	18.913340  
711.500000	18.483984  
712.000000	17.949265  
712.500000	17.701787  
713.000000	17.924939  
713.500000	18.402363  
714.000000	17.937234  
714.500000	17.268560  
715.000000	16.814507  
715.500000	16.702871  
716.000000	15.827363  
716.500000	15.121780  
717.000000	14.488840  
717.500000	14.423507  
718.000000	13.953000  
718.500000	13.478977  
719.000000	12.916295  
719.500000	12.666818  
720.000000	12.480416  
720.500000	12.487954  
721.000000	12.326856  
721.500000	12.038015  
722.000000	11.749871  
722.500000	11.465909  
723.000000	11.106325  
723.500000	10.836257  
724.000000	10.504750  
724.500000	10.398681  
725.000000	10.517068  
725.500000	10.697386  
726.000000	10.452893  
726.500000	9.819969   
727.000000	9.454340   
727.500000	9.452992   
728.000000	9.572719   
728.500000	9.051310   
729.000000	8.581242   
729.500000	8.325795   
730.000000	8.672757   
730.500000	8.750643   
731.000000	8.684621   
731.500000	8.512143   
732.000000	8.629628   
732.500000	8.714212   
733.000000	8.525439   
733.500000	8.110568   
734.000000	7.775712   
734.500000	7.469727   
735.000000	7.344363   
735.500000	7.357878   
736.000000	7.573651   
736.500000	7.494340   
737.000000	7.417500   
737.500000	7.157795   
738.000000	7.388401   
738.500000	7.337446   
739.000000	7.096250   
739.500000	6.422916   
740.000000	6.102371   
740.500000	6.213598   
741.000000	6.533303   
741.500000	6.497833   
742.000000	6.128030   
742.500000	5.747371   
743.000000	5.661515   
743.500000	5.990787   
744.000000	6.253439   
744.500000	6.326878   
745.000000	5.994696   
745.500000	5.790151   
746.000000	5.739204   
746.500000	5.816780   
747.000000	5.604628   
747.500000	5.576295   
748.000000	5.399969   
748.500000	5.359651   
749.000000	5.149954   
749.500000	5.126886   
750.000000	5.045537   
750.500000	4.809840   
751.000000	4.519022   
751.500000	4.458742   
752.000000	4.549780   
752.500000	4.632136   
753.000000	4.690250   
753.500000	4.812174   
754.000000	4.978659   
754.500000	5.024280   
755.000000	4.706553   
755.500000	4.177159   
756.000000	3.885295   
756.500000	4.010712   
757.000000	4.195136   
757.500000	4.057409   
758.000000	3.997840   
758.500000	4.123060   
759.000000	4.259916   
759.500000	4.242863   
760.000000	4.215530   
760.500000	4.239053   
761.000000	4.187742   
761.500000	4.218083   
762.000000	4.247128   
762.500000	4.328053   
763.000000	4.072068   
763.500000	3.782659   
764.000000	3.679356   
764.500000	3.767257   
765.000000	3.812787   
765.500000	3.725909   
766.000000	3.471287   
766.500000	3.510954   
767.000000	3.820674   
767.500000	4.135840   
768.000000	3.965318   
768.500000	3.616681   
769.000000	3.225242   
769.500000	3.180083   
770.000000	2.995924   
770.500000	3.050250   
771.000000	3.237242   
771.500000	3.582128   
772.000000	3.574681   
772.500000	3.472886   
773.000000	3.281916   
773.500000	3.390340   
774.000000	3.548946   
774.500000	3.673378   
775.000000	3.504378   
775.500000	3.245060   
776.000000	3.037227   
776.500000	3.083719   
777.000000	3.203363   
777.500000	3.213090   
778.000000	3.089780   
778.500000	2.904371   
779.000000	2.810583   
779.500000	2.799333   
780.000000	2.933098   
780.500000	2.896439   
781.000000	2.935969   
781.500000	2.963765   
782.000000	3.055477   
782.500000	2.916242   
783.000000	2.858000   
783.500000	2.920045   
784.000000	3.086393   
784.500000	3.010977   
785.000000	2.823871   
785.500000	2.682515   
786.000000	2.729060   
786.500000	2.805871   
787.000000	2.863863   
787.500000	2.801568   
788.000000	2.946924   
788.500000	2.920825   
789.000000	2.663469   
789.500000	2.226356   
790.000000	2.209689   
790.500000	2.468181   
791.000000	2.791045   
791.500000	2.869795   
792.000000	2.851984   
792.500000	2.703477   
793.000000	2.471401   
793.500000	2.236916   
794.000000	2.202257   
794.500000	2.283984   
795.000000	2.347818   
795.500000	2.287734   
796.000000	2.383909   
796.500000	2.645303   
797.000000	2.801068   
797.500000	2.593810   
798.000000	2.255166   
798.500000	2.045772   
799.000000	2.009424   
799.500000	2.140924   
800.000000	2.271651   
800.500000	2.441303   
801.000000	2.427151   
801.500000	2.221325   
802.000000	1.858704   
802.500000	1.714287   
803.000000	1.839666   
803.500000	2.015696   
804.000000	2.060704   
804.500000	2.037106   
805.000000	2.028643   
805.500000	1.854181   
806.000000	1.610454   
806.500000	1.543363   
807.000000	1.734189   
807.500000	1.990204   
808.000000	2.125242   
808.500000	2.026234   
809.000000	1.782287   
809.500000	1.625651   
810.000000	1.675727   
810.500000	1.844924   
811.000000	1.824113   
811.500000	1.595106   
812.000000	1.565090   
812.500000	1.716712   
813.000000	1.769303   
813.500000	1.643810   
814.000000	1.624621   
814.500000	1.647651   
815.000000	1.670856   
815.500000	1.474954   
816.000000	1.474689   
816.500000	1.470439   
817.000000	1.492416   
817.500000	1.348189   
818.000000	1.442606   
818.500000	1.469651   
819.000000	1.623136   
819.500000	1.536462   
820.000000	1.577780   
820.500000	1.595454   
821.000000	1.826575   
821.500000	1.974250   
822.000000	2.227750   
822.500000	2.372537   
823.000000	2.432272   
823.500000	2.284977   
824.000000	2.238946   
824.500000	2.343189   
825.000000	2.569424   
825.500000	2.621340   
826.000000	2.488416   
826.500000	2.303568   
827.000000	2.288333   
827.500000	2.284250   
828.000000	2.223575   
828.500000	1.965439   
829.000000	1.660666   
829.500000	1.444613   
830.000000	1.403492   
830.500000	1.426030   
831.000000	1.430007   
831.500000	1.349303   
832.000000	1.257356   
832.500000	1.132969   
833.000000	0.998022   
833.500000	0.986946   
834.000000	1.090606   
834.500000	1.253287   
835.000000	1.313454   
835.500000	1.299212   
836.000000	1.138856   
836.500000	0.992916   
837.000000	0.841189   
837.500000	0.797318   
838.000000	0.739265   
838.500000	0.823030   
839.000000	0.987893   
839.500000	1.103537   
840.000000	1.074439   
840.500000	0.942840   
841.000000	0.831825   
841.500000	0.736484   
842.000000	0.691886   
842.500000	0.746568   
843.000000	0.878143   
843.500000	0.843780   
844.000000	0.624999   
844.500000	0.370401   
845.000000	0.171136   
845.500000	0.079060   
846.000000	0.042575   
846.500000	0.178696   
847.000000	0.426598   
847.500000	0.630166   
848.000000	0.562696   
848.500000	0.265174   
849.000000	0.027719   
849.500000	0.078401   
850.000000	0.311848   
850.500000	0.348742   
851.000000	0.271083   
851.500000	0.272696   
852.000000	0.401409   
852.500000	0.399356   
853.000000	0.284909   
853.500000	0.235143   
854.000000	0.298750   
854.500000	0.290469   
855.000000	0.184750   
855.500000	0.085545   
856.000000	0.009431   
856.500000	-0.012977  
857.000000	0.018598   
857.500000	0.086590   
858.000000	0.148893   
858.500000	0.240469   
859.000000	0.294575   
859.500000	0.199424   
860.000000	-0.039734  
860.500000	-0.193174  
861.000000	0.030242   
861.500000	0.279651   
862.000000	0.341810   
862.500000	0.162924   
863.000000	0.080575   
863.500000	0.013462   
864.000000	-0.026757  
864.500000	-0.141893  
865.000000	-0.073174  
865.500000	0.027204   
866.000000	0.090901   
866.500000	0.020098   
867.000000	-0.007000  
867.500000	0.014378   
868.000000	0.105037   
868.500000	0.035590   
869.000000	-0.102696  
869.500000	-0.218659  
870.000000	-0.066234  
870.500000	0.030666   
871.000000	-0.025530  
871.500000	-0.247522  
872.000000	-0.246893  
872.500000	-0.057106  
873.000000	0.187780   
873.500000	0.258219   
874.000000	0.179621   
874.500000	0.053931   
875.000000	-0.027522  
875.500000	0.019772   
876.000000	0.013606   
876.500000	-0.054780  
877.000000	-0.139727  
877.500000	-0.145257  
878.000000	-0.140287  
878.500000	-0.175378  
879.000000	-0.216931  
879.500000	-0.136818  
880.000000	-0.015022  
880.500000	0.076598   
881.000000	0.167098   
881.500000	0.252787   
882.000000	0.258727   
882.500000	0.253651   
883.000000	0.189939   
883.500000	0.109545   
884.000000	-0.048659  
884.500000	-0.107840  
885.000000	-0.055265  
885.500000	0.049446   
886.000000	0.036674   
886.500000	-0.033507  
887.000000	-0.057719  
887.500000	-0.024553  
888.000000	0.063318   
888.500000	0.114666   
889.000000	0.165060   
889.500000	0.143772   
890.000000	0.056393   
890.500000	-0.063553  
891.000000	-0.120939  
891.500000	-0.121712  
892.000000	-0.230803  
892.500000	-0.282825  
893.000000	-0.270621  
893.500000	-0.118537  
894.000000	-0.067068  
894.500000	0.000272   
895.000000	-0.032765  
895.500000	-0.036810  
896.000000	-0.071848  
896.500000	-0.062083  
897.000000	-0.113196  
897.500000	-0.225219  

