PE FL                   SPECTRUM    ASCII       PEDS        1.60        
  -1
SAA38D~1.SP
24/04/12
16:56:13.00
24/04/12
16:56:13.00
Jan

897.500000
1









LS55
405.00
5.00
5.00
SCAN
1
20
100
100
0
400
0
1
0
1
5
ON
450 405 
1 0 0
#HDR
-1
-1
#GR
NM

0.00002384185791015625
0.0
450.000000
0.500000
896
8
221.692621
-0.301287
#DATA
450.000000	0.203000   
450.500000	0.302416   
451.000000	0.358007   
451.500000	0.291492   
452.000000	0.215053   
452.500000	0.013090   
453.000000	-0.134757  
453.500000	-0.298704  
454.000000	-0.150484  
454.500000	0.084893   
455.000000	0.260318   
455.500000	0.136742   
456.000000	0.110234   
456.500000	0.205484   
457.000000	0.314636   
457.500000	0.209522   
458.000000	-0.000045  
458.500000	0.007189   
459.000000	0.089628   
459.500000	0.169454   
460.000000	0.172022   
460.500000	0.246545   
461.000000	0.236386   
461.500000	0.220916   
462.000000	0.222560   
462.500000	0.313181   
463.000000	0.334015   
463.500000	0.225909   
464.000000	0.151363   
464.500000	0.123250   
465.000000	0.177636   
465.500000	0.150886   
466.000000	0.139234   
466.500000	0.046151   
467.000000	-0.040106  
467.500000	-0.077378  
468.000000	-0.099166  
468.500000	-0.086325  
469.000000	-0.050946  
469.500000	0.088446   
470.000000	0.164022   
470.500000	0.135909   
471.000000	-0.026962  
471.500000	-0.081712  
472.000000	-0.007840  
472.500000	0.138280   
473.000000	0.233090   
473.500000	0.146553   
474.000000	-0.058083  
474.500000	-0.219636  
475.000000	-0.155333  
475.500000	-0.008318  
476.000000	0.131886   
476.500000	0.195121   
477.000000	0.259484   
477.500000	0.155962   
478.000000	-0.014939  
478.500000	-0.030765  
479.000000	0.150386   
479.500000	0.326962   
480.000000	0.275030   
480.500000	0.129681   
481.000000	-0.098068  
481.500000	-0.195977  
482.000000	-0.224431  
482.500000	-0.188522  
483.000000	-0.207053  
483.500000	-0.177280  
484.000000	0.061871   
484.500000	0.254318   
485.000000	0.294212   
485.500000	0.112651   
486.000000	0.017174   
486.500000	-0.091545  
487.000000	0.006204   
487.500000	0.184659   
488.000000	0.368530   
488.500000	0.371795   
489.000000	0.287477   
489.500000	0.339015   
490.000000	0.376000   
490.500000	0.285431   
491.000000	0.048174   
491.500000	-0.025340  
492.000000	0.115628   
492.500000	0.278446   
493.000000	0.360492   
493.500000	0.310530   
494.000000	0.241886   
494.500000	0.112250   
495.000000	0.125916   
495.500000	0.257272   
496.000000	0.360568   
496.500000	0.325984   
497.000000	0.215151   
497.500000	0.238893   
498.000000	0.272636   
498.500000	0.240818   
499.000000	0.168424   
499.500000	0.201863   
500.000000	0.394954   
500.500000	0.601113   
501.000000	0.735393   
501.500000	0.776765   
502.000000	0.822515   
502.500000	0.800227   
503.000000	0.743287   
503.500000	0.752272   
504.000000	0.828522   
504.500000	0.920848   
505.000000	0.950659   
505.500000	0.940060   
506.000000	0.743484   
506.500000	0.561249   
507.000000	0.520772   
507.500000	0.739166   
508.000000	0.887204   
508.500000	0.842037   
509.000000	0.712765   
509.500000	0.756757   
510.000000	0.946856   
510.500000	1.131856   
511.000000	1.234553   
511.500000	1.283053   
512.000000	1.336818   
512.500000	1.260484   
513.000000	1.192750   
513.500000	1.267128   
514.000000	1.394803   
514.500000	1.383924   
515.000000	1.364727   
515.500000	1.492310   
516.000000	1.683818   
516.500000	1.857954   
517.000000	1.969143   
517.500000	2.106515   
518.000000	2.168242   
518.500000	2.226810   
519.000000	2.348409   
519.500000	2.435962   
520.000000	2.520659   
520.500000	2.542931   
521.000000	2.615075   
521.500000	2.526666   
522.000000	2.499969   
522.500000	2.521181   
523.000000	2.651621   
523.500000	2.629227   
524.000000	2.570992   
524.500000	2.641000   
525.000000	2.908121   
525.500000	3.104272   
526.000000	3.066863   
526.500000	3.116825   
527.000000	3.476916   
527.500000	3.997901   
528.000000	4.382772   
528.500000	4.645969   
529.000000	4.829522   
529.500000	4.947371   
530.000000	4.955022   
530.500000	5.059484   
531.000000	5.284553   
531.500000	5.455075   
532.000000	5.552636   
532.500000	5.843893   
533.000000	6.080242   
533.500000	6.263810   
534.000000	6.287939   
534.500000	6.551378   
535.000000	6.812227   
535.500000	7.246719   
536.000000	7.585840   
536.500000	8.323159   
537.000000	8.823924   
537.500000	9.132378   
538.000000	9.247560   
538.500000	9.494499   
539.000000	9.730227   
539.500000	9.908999   
540.000000	10.292696  
540.500000	10.587787  
541.000000	10.787477  
541.500000	10.650439  
542.000000	11.108219  
542.500000	11.834833  
543.000000	12.396439  
543.500000	12.108825  
544.000000	11.625696  
544.500000	11.356015  
545.000000	11.532939  
545.500000	11.764977  
546.000000	11.838583  
546.500000	11.696121  
547.000000	11.685863  
547.500000	11.748386  
548.000000	11.820651  
548.500000	11.486765  
549.000000	11.165962  
549.500000	11.041825  
550.000000	11.319757  
550.500000	11.564931  
551.000000	11.719015  
551.500000	11.564780  
552.000000	11.324901  
552.500000	11.303401  
553.000000	11.586522  
553.500000	11.962568  
554.000000	11.999901  
554.500000	12.123462  
555.000000	12.309962  
555.500000	12.571825  
556.000000	12.511492  
556.500000	12.508075  
557.000000	12.734787  
557.500000	13.349363  
558.000000	14.085121  
558.500000	14.636083  
559.000000	15.126568  
559.500000	15.249431  
560.000000	15.311727  
560.500000	15.017303  
561.000000	15.277310  
561.500000	15.721295  
562.000000	16.431969  
562.500000	16.712280  
563.000000	16.982924  
563.500000	17.056833  
564.000000	17.173416  
564.500000	17.567878  
565.000000	18.216250  
565.500000	19.067015  
566.000000	19.647378  
566.500000	20.273159  
567.000000	20.780954  
567.500000	21.337462  
568.000000	21.594810  
568.500000	21.773446  
569.000000	22.155303  
569.500000	22.698909  
570.000000	23.055393  
570.500000	23.395409  
571.000000	24.051886  
571.500000	25.103810  
572.000000	25.375143  
572.500000	24.855022  
573.000000	24.373780  
573.500000	25.020916  
574.000000	26.151363  
574.500000	27.151484  
575.000000	27.326371  
575.500000	27.109212  
576.000000	27.192772  
576.500000	27.713613  
577.000000	28.539598  
577.500000	29.244371  
578.000000	29.742219  
578.500000	29.710863  
579.000000	29.839166  
579.500000	30.513499  
580.000000	32.238212  
580.500000	33.360886  
581.000000	33.998386  
581.500000	34.090159  
582.000000	34.592575  
582.500000	34.868886  
583.000000	34.999280  
583.500000	35.171446  
584.000000	36.135954  
584.500000	37.759590  
585.000000	39.617871  
585.500000	40.880189  
586.000000	41.063356  
586.500000	41.642969  
587.000000	42.600242  
587.500000	44.055765  
588.000000	44.826022  
588.500000	45.632469  
589.000000	45.857113  
589.500000	46.650545  
590.000000	47.237833  
590.500000	48.648257  
591.000000	49.888734  
591.500000	51.117583  
592.000000	52.025439  
592.500000	52.847704  
593.000000	53.141106  
593.500000	53.705196  
594.000000	54.525378  
594.500000	55.921386  
595.000000	56.998840  
595.500000	58.108295  
596.000000	58.661613  
596.500000	59.536280  
597.000000	60.438568  
597.500000	61.562265  
598.000000	62.522181  
598.500000	63.214893  
599.000000	64.270893  
599.500000	65.697666  
600.000000	67.904303  
600.500000	69.093734  
601.000000	69.482462  
601.500000	69.582484  
602.000000	71.207121  
602.500000	73.624068  
603.000000	75.453227  
603.500000	76.254462  
604.000000	76.849249  
604.500000	78.381265  
605.000000	79.959659  
605.500000	81.477416  
606.000000	82.664318  
606.500000	84.521803  
607.000000	86.654007  
607.500000	88.484196  
608.000000	89.146916  
608.500000	89.992151  
609.000000	91.731333  
609.500000	94.259151  
610.000000	95.749098  
610.500000	97.216310  
611.000000	98.644704  
611.500000	101.663810 
612.000000	103.582537 
612.500000	104.346893 
613.000000	104.174856 
613.500000	105.949477 
614.000000	109.140143 
614.500000	112.684090 
615.000000	114.764886 
615.500000	115.534575 
616.000000	116.531621 
616.500000	118.408492 
617.000000	121.081666 
617.500000	123.213454 
618.000000	124.526090 
618.500000	126.069446 
619.000000	128.307424 
619.500000	130.302856 
620.000000	131.673340 
620.500000	133.726462 
621.000000	137.137939 
621.500000	140.190477 
622.000000	141.671250 
622.500000	142.977068 
623.000000	145.642666 
623.500000	148.734439 
624.000000	150.025363 
624.500000	150.500575 
625.000000	152.009136 
625.500000	155.423053 
626.000000	158.661060 
626.500000	162.084916 
627.000000	164.978787 
627.500000	166.988166 
628.000000	167.560863 
628.500000	169.357651 
629.000000	172.121037 
629.500000	175.431022 
630.000000	177.836280 
630.500000	179.284333 
631.000000	180.009946 
631.500000	180.417469 
632.000000	181.744939 
632.500000	184.034954 
633.000000	187.173825 
633.500000	190.548553 
634.000000	194.149287 
634.500000	196.793742 
635.000000	197.930310 
635.500000	198.559946 
636.000000	199.379106 
636.500000	201.436689 
637.000000	203.884803 
637.500000	206.572924 
638.000000	208.041621 
638.500000	209.560136 
639.000000	210.197969 
639.500000	210.702689 
640.000000	210.747136 
640.500000	211.855439 
641.000000	213.118818 
641.500000	214.634787 
642.000000	214.967060 
642.500000	215.295363 
643.000000	215.986151 
643.500000	217.511651 
644.000000	218.912446 
644.500000	219.516901 
645.000000	218.431015 
645.500000	217.190553 
646.000000	217.297500 
646.500000	218.878886 
647.000000	220.310143 
647.500000	220.647606 
648.000000	220.446848 
648.500000	220.551545 
649.000000	221.287083 
649.500000	221.692621 
650.000000	220.608780 
650.500000	218.369598 
651.000000	217.400393 
651.500000	217.933848 
652.000000	218.320075 
652.500000	216.926992 
653.000000	214.872901 
653.500000	212.573060 
654.000000	210.697643 
654.500000	209.047159 
655.000000	208.478825 
655.500000	206.926242 
656.000000	204.149416 
656.500000	201.916212 
657.000000	201.319136 
657.500000	201.720181 
658.000000	201.385265 
658.500000	199.561916 
659.000000	196.187250 
659.500000	192.995515 
660.000000	190.352560 
660.500000	188.362431 
661.000000	185.100151 
661.500000	181.330454 
662.000000	178.307886 
662.500000	176.102431 
663.000000	172.753734 
663.500000	168.598439 
664.000000	163.612484 
664.500000	159.605303 
665.000000	156.262469 
665.500000	154.538969 
666.000000	152.325310 
666.500000	149.996969 
667.000000	146.449810 
667.500000	142.776628 
668.000000	137.979666 
668.500000	133.842227 
669.000000	130.188219 
669.500000	127.883098 
670.000000	125.767750 
670.500000	124.707590 
671.000000	123.006659 
671.500000	120.129166 
672.000000	115.554469 
672.500000	110.659946 
673.000000	106.393106 
673.500000	103.085265 
674.000000	100.636257 
674.500000	98.439916  
675.000000	96.058871  
675.500000	93.013583  
676.000000	90.421416  
676.500000	88.229265  
677.000000	85.801083  
677.500000	82.569878  
678.000000	79.546022  
678.500000	77.505083  
679.000000	76.137568  
679.500000	74.417121  
680.000000	72.494136  
680.500000	70.464196  
681.000000	68.225962  
681.500000	66.040840  
682.000000	63.796954  
682.500000	61.891734  
683.000000	59.993325  
683.500000	58.775954  
684.000000	57.506196  
684.500000	55.669992  
685.000000	53.304583  
685.500000	51.173462  
686.000000	49.491901  
686.500000	48.219439  
687.000000	47.019545  
687.500000	45.669734  
688.000000	44.166795  
688.500000	42.724007  
689.000000	41.279560  
689.500000	40.062742  
690.000000	38.873151  
690.500000	38.188878  
691.000000	37.641765  
691.500000	36.789787  
692.000000	35.354545  
692.500000	33.398106  
693.000000	31.596128  
693.500000	30.691530  
694.000000	31.056431  
694.500000	31.175318  
695.000000	30.040598  
695.500000	28.069962  
696.000000	26.450931  
696.500000	25.563727  
697.000000	25.121954  
697.500000	25.049143  
698.000000	24.786053  
698.500000	24.223704  
699.000000	22.987522  
699.500000	21.976015  
700.000000	21.287545  
700.500000	21.209795  
701.000000	20.920022  
701.500000	20.299636  
702.000000	19.715977  
702.500000	19.456833  
703.000000	19.084734  
703.500000	18.139992  
704.000000	17.401136  
704.500000	16.766583  
705.000000	16.252371  
705.500000	15.437848  
706.000000	15.142333  
706.500000	15.217068  
707.000000	15.523424  
707.500000	15.537689  
708.000000	15.184128  
708.500000	14.758318  
709.000000	14.327810  
709.500000	14.131977  
710.000000	13.668348  
710.500000	13.282545  
711.000000	12.818803  
711.500000	12.663772  
712.000000	12.466719  
712.500000	12.494939  
713.000000	12.465757  
713.500000	12.304121  
714.000000	11.713333  
714.500000	11.135931  
715.000000	10.948000  
715.500000	11.088083  
716.000000	10.929977  
716.500000	10.532939  
717.000000	10.268045  
717.500000	10.293598  
718.000000	10.085257  
718.500000	9.657378   
719.000000	9.073469   
719.500000	8.897863   
720.000000	8.916545   
720.500000	9.094340   
721.000000	8.921560   
721.500000	8.642507   
722.000000	8.295363   
722.500000	8.218674   
723.000000	8.100727   
723.500000	7.993075   
724.000000	7.713901   
724.500000	7.549704   
725.000000	7.384098   
725.500000	7.436810   
726.000000	7.297083   
726.500000	7.273916   
727.000000	7.186621   
727.500000	7.215689   
728.000000	7.084727   
728.500000	6.822878   
729.000000	6.631977   
729.500000	6.579363   
730.000000	6.683121   
730.500000	6.601674   
731.000000	6.507212   
731.500000	6.384924   
732.000000	6.335590   
732.500000	6.268863   
733.000000	6.090969   
733.500000	5.891416   
734.000000	5.675568   
734.500000	5.795477   
735.000000	5.966696   
735.500000	6.078856   
736.000000	5.977583   
736.500000	5.949886   
737.000000	5.847022   
737.500000	5.505530   
738.000000	5.249325   
738.500000	5.286356   
739.000000	5.403757   
739.500000	5.294666   
740.000000	5.177272   
740.500000	5.025348   
741.000000	4.934303   
741.500000	4.607810   
742.000000	4.380212   
742.500000	4.459507   
743.000000	4.951712   
743.500000	5.324022   
744.000000	5.305219   
744.500000	4.832121   
745.000000	4.590401   
745.500000	4.528393   
746.000000	4.544234   
746.500000	4.329303   
747.000000	4.349787   
747.500000	4.465537   
748.000000	4.595166   
748.500000	4.556136   
749.000000	4.514856   
749.500000	4.289522   
750.000000	3.961696   
750.500000	3.955416   
751.000000	4.183659   
751.500000	4.266757   
752.000000	3.898037   
752.500000	3.584250   
753.000000	3.565507   
753.500000	3.658696   
754.000000	3.683931   
754.500000	3.719856   
755.000000	3.728727   
755.500000	3.636848   
756.000000	3.646825   
756.500000	3.593878   
757.000000	3.492325   
757.500000	3.413181   
758.000000	3.685484   
758.500000	3.886590   
759.000000	3.881689   
759.500000	3.706287   
760.000000	3.861348   
760.500000	4.073492   
761.000000	4.181643   
761.500000	4.057053   
762.000000	3.981825   
762.500000	3.898704   
763.000000	3.789598   
763.500000	3.653969   
764.000000	3.484621   
764.500000	3.278893   
765.000000	3.114537   
765.500000	3.134143   
766.000000	3.361530   
766.500000	3.555333   
767.000000	3.532984   
767.500000	3.404151   
768.000000	3.318174   
768.500000	3.384083   
769.000000	3.473037   
769.500000	3.491363   
770.000000	3.362439   
770.500000	3.237356   
771.000000	3.128795   
771.500000	3.167045   
772.000000	3.206545   
772.500000	3.224886   
773.000000	3.123537   
773.500000	2.915409   
774.000000	2.853287   
774.500000	3.015560   
775.000000	3.259234   
775.500000	3.265931   
776.000000	3.008204   
776.500000	2.801977   
777.000000	2.728871   
777.500000	2.829590   
778.000000	2.908621   
778.500000	2.861424   
779.000000	2.658159   
779.500000	2.608340   
780.000000	2.695909   
780.500000	2.822439   
781.000000	2.808318   
781.500000	2.722856   
782.000000	2.750916   
782.500000	2.889272   
783.000000	3.000068   
783.500000	2.985310   
784.000000	2.821621   
784.500000	2.775719   
785.000000	2.799863   
785.500000	2.771098   
786.000000	2.572113   
786.500000	2.494674   
787.000000	2.498750   
787.500000	2.618416   
788.000000	2.727575   
788.500000	2.861825   
789.000000	2.855363   
789.500000	2.687439   
790.000000	2.424833   
790.500000	2.214984   
791.000000	2.178227   
791.500000	2.413742   
792.000000	2.791643   
792.500000	2.936401   
793.000000	2.818946   
793.500000	2.621234   
794.000000	2.486295   
794.500000	2.482219   
795.000000	2.549704   
795.500000	2.553689   
796.000000	2.341757   
796.500000	2.013060   
797.000000	1.881848   
797.500000	2.029128   
798.000000	2.293075   
798.500000	2.413969   
799.000000	2.292454   
799.500000	2.022409   
800.000000	1.831045   
800.500000	1.881636   
801.000000	1.931810   
801.500000	1.883250   
802.000000	1.839348   
802.500000	1.903174   
803.000000	1.990696   
803.500000	1.919909   
804.000000	1.872871   
804.500000	1.756803   
805.000000	1.920765   
805.500000	1.989681   
806.000000	2.168719   
806.500000	2.062522   
807.000000	1.906431   
807.500000	1.657075   
808.000000	1.538772   
808.500000	1.560818   
809.000000	1.714356   
809.500000	1.793954   
810.000000	1.862992   
810.500000	1.922280   
811.000000	1.888439   
811.500000	1.708969   
812.000000	1.652674   
812.500000	1.644992   
813.000000	1.640075   
813.500000	1.534530   
814.000000	1.688007   
814.500000	1.809363   
815.000000	1.689371   
815.500000	1.362090   
816.000000	1.279015   
816.500000	1.372939   
817.000000	1.465621   
817.500000	1.492893   
818.000000	1.526606   
818.500000	1.625833   
819.000000	1.647863   
819.500000	1.683060   
820.000000	1.609636   
820.500000	1.601750   
821.000000	1.666469   
821.500000	1.791166   
822.000000	2.003954   
822.500000	2.066280   
823.000000	2.206909   
823.500000	2.159128   
824.000000	2.384719   
824.500000	2.380712   
825.000000	2.365598   
825.500000	2.038181   
826.000000	1.890575   
826.500000	1.840128   
827.000000	1.905287   
827.500000	1.914765   
828.000000	1.842015   
828.500000	1.691295   
829.000000	1.477492   
829.500000	1.433333   
830.000000	1.608848   
830.500000	1.760484   
831.000000	1.670303   
831.500000	1.349356   
832.000000	1.118984   
832.500000	1.038613   
833.000000	1.085553   
833.500000	1.172189   
834.000000	1.228810   
834.500000	1.136045   
835.000000	1.044469   
835.500000	1.070287   
836.000000	1.206871   
836.500000	1.229977   
837.000000	1.141272   
837.500000	1.014780   
838.000000	0.997515   
838.500000	1.036416   
839.000000	1.060204   
839.500000	1.004090   
840.000000	0.853590   
840.500000	0.724568   
841.000000	0.677712   
841.500000	0.692007   
842.000000	0.761742   
842.500000	0.821083   
843.000000	0.787121   
843.500000	0.604962   
844.000000	0.481060   
844.500000	0.482719   
845.000000	0.600113   
845.500000	0.595462   
846.000000	0.575507   
846.500000	0.386424   
847.000000	0.224090   
847.500000	0.118401   
848.000000	0.280825   
848.500000	0.493303   
849.000000	0.638280   
849.500000	0.627189   
850.000000	0.501681   
850.500000	0.356863   
851.000000	0.272803   
851.500000	0.359681   
852.000000	0.332318   
852.500000	0.210204   
853.000000	-0.050242  
853.500000	-0.219477  
854.000000	-0.301287  
854.500000	-0.164303  
855.000000	-0.042522  
855.500000	0.076045   
856.000000	-0.029136  
856.500000	-0.030659  
857.000000	-0.009848  
857.500000	0.126015   
858.000000	0.078780   
858.500000	0.049287   
859.000000	-0.023098  
859.500000	0.029159   
860.000000	0.007727   
860.500000	-0.060636  
861.000000	-0.078431  
861.500000	0.004757   
862.000000	0.086742   
862.500000	0.069378   
863.000000	0.027310   
863.500000	0.037022   
864.000000	0.155727   
864.500000	0.151083   
865.000000	0.019500   
865.500000	-0.133931  
866.000000	-0.154818  
866.500000	-0.026545  
867.000000	0.098159   
867.500000	0.067946   
868.000000	-0.049765  
868.500000	0.013318   
869.000000	0.093159   
869.500000	0.128303   
870.000000	-0.031909  
870.500000	-0.066939  
871.000000	-0.031530  
871.500000	0.028962   
872.000000	-0.016628  
872.500000	-0.011909  
873.000000	-0.027651  
873.500000	-0.052704  
874.000000	-0.060446  
874.500000	-0.020477  
875.000000	-0.018121  
875.500000	-0.034704  
876.000000	-0.091545  
876.500000	-0.122856  
877.000000	-0.160992  
877.500000	-0.084522  
878.000000	0.056393   
878.500000	0.160060   
879.000000	0.060151   
879.500000	-0.031439  
880.000000	-0.008757  
880.500000	0.096446   
881.000000	0.141424   
881.500000	0.101810   
882.000000	0.002757   
882.500000	-0.053856  
883.000000	-0.002734  
883.500000	0.106303   
884.000000	0.144446   
884.500000	0.053348   
885.000000	-0.052545  
885.500000	-0.041303  
886.000000	0.057022   
886.500000	0.156856   
887.000000	0.136113   
887.500000	0.013742   
888.000000	-0.085901  
888.500000	-0.074787  
889.000000	-0.046477  
889.500000	-0.051363  
890.000000	-0.135977  
890.500000	-0.184416  
891.000000	-0.182606  
891.500000	-0.161583  
892.000000	-0.147719  
892.500000	-0.135106  
893.000000	-0.096984  
893.500000	-0.049128  
894.000000	0.019196   
894.500000	0.049174   
895.000000	0.016636   
895.500000	-0.024401  
896.000000	-0.013439  
896.500000	0.027825   
897.000000	-0.053106  
897.500000	-0.154136  

