PE FL                   SPECTRUM    ASCII       PEDS        1.60        
  -1
SA93B9~1.SP
24/04/12
15:53:27.00
24/04/12
15:53:27.00
Jan

897.500000
1









LS55
405.00
5.00
5.00
SCAN
1
20
100
100
0
400
0
1
0
1
5
ON
450 405 
1 0 0
#HDR
-1
-1
#GR
NM

0.00002384185791015625
0.0
450.000000
0.500000
896
8
362.241803
-0.315765
#DATA
450.000000	0.717000   
450.500000	0.359272   
451.000000	0.152424   
451.500000	0.172310   
452.000000	0.210750   
452.500000	0.196318   
453.000000	0.212946   
453.500000	0.335522   
454.000000	0.392462   
454.500000	0.279916   
455.000000	0.129143   
455.500000	0.226393   
456.000000	0.322257   
456.500000	0.246030   
457.000000	0.060181   
457.500000	-0.051416  
458.000000	-0.069348  
458.500000	-0.058053  
459.000000	-0.116507  
459.500000	-0.087507  
460.000000	-0.037712  
460.500000	0.100848   
461.000000	0.217666   
461.500000	0.309553   
462.000000	0.303825   
462.500000	0.303606   
463.000000	0.297636   
463.500000	0.241318   
464.000000	0.116984   
464.500000	0.162000   
465.000000	0.226674   
465.500000	0.228886   
466.000000	0.076727   
466.500000	0.062363   
467.000000	0.103219   
467.500000	0.199863   
468.000000	0.162363   
468.500000	0.139916   
469.000000	0.102000   
469.500000	-0.007954  
470.000000	-0.213787  
470.500000	-0.272265  
471.000000	-0.032287  
471.500000	0.234871   
472.000000	0.266446   
472.500000	0.023681   
473.000000	-0.203030  
473.500000	-0.286704  
474.000000	-0.315765  
474.500000	-0.131015  
475.000000	0.124636   
475.500000	0.372621   
476.000000	0.338537   
476.500000	0.314583   
477.000000	0.225643   
477.500000	0.332234   
478.000000	0.447643   
478.500000	0.466787   
479.000000	0.331780   
479.500000	0.140356   
480.000000	0.229204   
480.500000	0.251075   
481.000000	0.275136   
481.500000	0.145477   
482.000000	0.303409   
482.500000	0.349015   
483.000000	0.340272   
483.500000	0.111401   
484.000000	0.061568   
484.500000	0.003734   
485.000000	0.007265   
485.500000	-0.062143  
486.000000	-0.070962  
486.500000	-0.097416  
487.000000	-0.016856  
487.500000	0.154265   
488.000000	0.356098   
488.500000	0.385984   
489.000000	0.336901   
489.500000	0.276098   
490.000000	0.343151   
490.500000	0.498113   
491.000000	0.597742   
491.500000	0.471742   
492.000000	0.214545   
492.500000	0.072090   
493.000000	0.117424   
493.500000	0.124022   
494.000000	0.070515   
494.500000	0.037090   
495.000000	0.160598   
495.500000	0.263659   
496.000000	0.455007   
496.500000	0.626871   
497.000000	0.671643   
497.500000	0.453530   
498.000000	0.204780   
498.500000	0.216734   
499.000000	0.423265   
499.500000	0.639984   
500.000000	0.600053   
500.500000	0.568181   
501.000000	0.438848   
501.500000	0.411234   
502.000000	0.464090   
502.500000	0.648090   
503.000000	0.720621   
503.500000	0.657303   
504.000000	0.570750   
504.500000	0.654356   
505.000000	0.840734   
505.500000	0.821924   
506.000000	0.604257   
506.500000	0.498386   
507.000000	0.728393   
507.500000	1.109424   
508.000000	1.263030   
508.500000	1.199393   
509.000000	1.092159   
509.500000	0.988462   
510.000000	0.841007   
510.500000	0.810462   
511.000000	0.935651   
511.500000	1.151068   
512.000000	1.324590   
512.500000	1.379348   
513.000000	1.254886   
513.500000	1.139492   
514.000000	1.266848   
514.500000	1.566037   
515.000000	1.804916   
515.500000	1.830318   
516.000000	1.723628   
516.500000	1.563984   
517.000000	1.626469   
517.500000	1.751363   
518.000000	1.737060   
518.500000	1.502212   
519.000000	1.501136   
519.500000	1.831712   
520.000000	2.146151   
520.500000	2.276393   
521.000000	2.372431   
521.500000	2.595174   
522.000000	2.733257   
522.500000	2.751780   
523.000000	2.662696   
523.500000	2.540287   
524.000000	2.487522   
524.500000	2.471863   
525.000000	2.591060   
525.500000	2.710583   
526.000000	2.975977   
526.500000	3.121022   
527.000000	3.217530   
527.500000	3.298795   
528.000000	3.541371   
528.500000	3.713090   
529.000000	3.702727   
529.500000	3.640022   
530.000000	3.940121   
530.500000	4.286727   
531.000000	4.592636   
531.500000	4.569999   
532.000000	4.791219   
532.500000	5.031401   
533.000000	5.579189   
533.500000	5.895999   
534.000000	6.249303   
534.500000	6.444598   
535.000000	6.828946   
535.500000	7.190159   
536.000000	7.353643   
536.500000	7.277037   
537.000000	7.161924   
537.500000	7.235696   
538.000000	7.565712   
538.500000	8.177765   
539.000000	8.850234   
539.500000	9.282348   
540.000000	9.500583   
540.500000	9.664992   
541.000000	10.024462  
541.500000	10.450553  
542.000000	10.908696  
542.500000	11.243280  
543.000000	11.573727  
543.500000	11.720651  
544.000000	11.991666  
544.500000	12.046128  
545.000000	12.120371  
545.500000	11.986939  
546.000000	12.133484  
546.500000	12.254484  
547.000000	12.441636  
547.500000	12.281037  
548.000000	12.167818  
548.500000	12.070166  
549.000000	12.067242  
549.500000	11.967856  
550.000000	11.893416  
550.500000	11.885060  
551.000000	11.989659  
551.500000	12.070765  
552.000000	12.102348  
552.500000	12.064484  
553.000000	11.905833  
553.500000	12.024772  
554.000000	12.367325  
554.500000	12.761053  
555.000000	12.896174  
555.500000	13.042689  
556.000000	13.274287  
556.500000	13.631909  
557.000000	13.708666  
557.500000	13.524681  
558.000000	13.519295  
558.500000	13.653515  
559.000000	14.155090  
559.500000	14.713825  
560.000000	15.148863  
560.500000	15.559136  
561.000000	16.204553  
561.500000	16.769621  
562.000000	17.077568  
562.500000	17.083227  
563.000000	17.403174  
563.500000	17.828522  
564.000000	18.212962  
564.500000	18.347151  
565.000000	18.962742  
565.500000	19.538083  
566.000000	20.226060  
566.500000	20.409977  
567.000000	20.738886  
567.500000	21.395492  
568.000000	22.468113  
568.500000	23.380219  
569.000000	23.888371  
569.500000	23.996878  
570.000000	24.223454  
570.500000	24.518742  
571.000000	25.300507  
571.500000	26.406727  
572.000000	27.476537  
572.500000	27.670856  
573.000000	27.668393  
573.500000	27.699666  
574.000000	28.234439  
574.500000	28.886833  
575.000000	29.660545  
575.500000	30.520492  
576.000000	31.135128  
576.500000	31.452598  
577.000000	31.665924  
577.500000	32.280734  
578.000000	32.831659  
578.500000	33.425825  
579.000000	34.172499  
579.500000	35.408818  
580.000000	36.145810  
580.500000	36.461151  
581.000000	36.703977  
581.500000	37.838416  
582.000000	39.060015  
582.500000	39.585742  
583.000000	39.260681  
583.500000	39.286901  
584.000000	40.141143  
584.500000	41.110446  
585.000000	41.975689  
585.500000	42.899113  
586.000000	44.215424  
586.500000	45.024462  
587.000000	45.633969  
587.500000	46.600378  
588.000000	48.213242  
588.500000	49.629166  
589.000000	50.860575  
589.500000	51.897015  
590.000000	53.102098  
590.500000	53.960393  
591.000000	55.083537  
591.500000	56.292924  
592.000000	57.974863  
592.500000	59.277636  
593.000000	60.582424  
593.500000	61.555757  
594.000000	62.528575  
594.500000	63.878007  
595.000000	65.238750  
595.500000	66.771303  
596.000000	67.888212  
596.500000	68.706999  
597.000000	69.223651  
597.500000	70.362340  
598.000000	72.571265  
598.500000	75.036749  
599.000000	76.604636  
599.500000	76.882045  
600.000000	78.260992  
600.500000	80.317219  
601.000000	82.592606  
601.500000	83.785992  
602.000000	85.322681  
602.500000	86.555984  
603.000000	88.332749  
603.500000	89.760325  
604.000000	91.543196  
604.500000	93.219310  
605.000000	95.173924  
605.500000	97.282659  
606.000000	99.428598  
606.500000	101.104742 
607.000000	102.512977 
607.500000	104.481704 
608.000000	107.420113 
608.500000	110.093772 
609.000000	111.620689 
609.500000	112.930030 
610.000000	116.073204 
610.500000	119.369174 
611.000000	121.170522 
611.500000	122.069015 
612.000000	124.327893 
612.500000	126.828772 
613.000000	128.330181 
613.500000	129.990022 
614.000000	132.178621 
614.500000	135.172189 
615.000000	138.211151 
615.500000	142.122515 
616.000000	145.562462 
616.500000	148.424742 
617.000000	150.487348 
617.500000	152.965628 
618.000000	155.574719 
618.500000	158.759659 
619.000000	162.618484 
619.500000	165.923583 
620.000000	168.820469 
620.500000	172.489075 
621.000000	177.261310 
621.500000	181.841181 
622.000000	185.432000 
622.500000	188.530181 
623.000000	190.681378 
623.500000	192.533439 
624.000000	195.003431 
624.500000	199.182583 
625.000000	202.857356 
625.500000	205.769560 
626.000000	208.631484 
626.500000	213.301742 
627.000000	217.959553 
627.500000	221.475295 
628.000000	225.086780 
628.500000	228.518946 
629.000000	231.794946 
629.500000	235.100636 
630.000000	240.603265 
630.500000	247.138469 
631.000000	252.054727 
631.500000	254.276386 
632.000000	255.558401 
632.500000	259.034310 
633.000000	263.032681 
633.500000	267.591643 
634.000000	270.024954 
634.500000	273.849575 
635.000000	278.772128 
635.500000	283.947083 
636.000000	286.548068 
636.500000	288.097159 
637.000000	291.154856 
637.500000	295.167348 
638.000000	299.884000 
638.500000	302.026848 
639.000000	305.295825 
639.500000	307.966750 
640.000000	312.827204 
640.500000	315.843098 
641.000000	319.085628 
641.500000	320.022886 
642.000000	322.924446 
642.500000	325.139651 
643.000000	328.348954 
643.500000	329.705393 
644.000000	330.568386 
644.500000	333.024439 
645.000000	337.819871 
645.500000	342.709431 
646.000000	346.350068 
646.500000	347.553212 
647.000000	347.710803 
647.500000	348.288651 
648.000000	349.361439 
648.500000	351.634333 
649.000000	354.925954 
649.500000	358.095280 
650.000000	360.294727 
650.500000	361.242484 
651.000000	361.038030 
651.500000	361.462181 
652.000000	361.355969 
652.500000	361.619287 
653.000000	361.556204 
653.500000	361.004325 
654.000000	360.128454 
654.500000	361.192363 
655.000000	362.241803 
655.500000	361.515893 
656.000000	358.765227 
656.500000	356.415030 
657.000000	355.369257 
657.500000	353.958242 
658.000000	351.719643 
658.500000	350.802848 
659.000000	351.915734 
659.500000	352.325128 
660.000000	350.082416 
660.500000	346.885159 
661.000000	343.481083 
661.500000	340.497916 
662.000000	336.793409 
662.500000	335.160424 
663.000000	333.782795 
663.500000	330.919234 
664.000000	325.520886 
664.500000	320.957007 
665.000000	318.315825 
665.500000	315.835409 
666.000000	311.640636 
666.500000	308.618666 
667.000000	306.043939 
667.500000	303.249492 
668.000000	298.033431 
668.500000	292.940196 
669.000000	286.891598 
669.500000	281.641924 
670.000000	275.412500 
670.500000	272.346446 
671.000000	269.242378 
671.500000	264.959015 
672.000000	258.687568 
672.500000	253.741954 
673.000000	249.576265 
673.500000	245.073136 
674.000000	239.257401 
674.500000	233.762083 
675.000000	229.883553 
675.500000	225.345446 
676.000000	219.861166 
676.500000	213.352719 
677.000000	207.221757 
677.500000	201.101530 
678.000000	196.030469 
678.500000	191.152219 
679.000000	186.657992 
679.500000	181.194734 
680.000000	176.033181 
680.500000	171.402090 
681.000000	168.000469 
681.500000	164.250356 
682.000000	160.135992 
682.500000	154.819689 
683.000000	149.484060 
683.500000	144.355098 
684.000000	140.208568 
684.500000	136.148136 
685.000000	132.081196 
685.500000	128.276189 
686.000000	124.892666 
686.500000	120.679393 
687.000000	116.254863 
687.500000	112.132401 
688.000000	109.496795 
688.500000	107.192848 
689.000000	104.900992 
689.500000	102.160924 
690.000000	99.535075  
690.500000	96.307863  
691.000000	92.810689  
691.500000	89.849613  
692.000000	87.641931  
692.500000	85.458856  
693.000000	82.393015  
693.500000	79.325901  
694.000000	77.263499  
694.500000	75.830181  
695.000000	73.593515  
695.500000	70.705386  
696.000000	67.394590  
696.500000	65.006045  
697.000000	63.012212  
697.500000	61.679303  
698.000000	59.990856  
698.500000	58.644401  
699.000000	56.858833  
699.500000	54.872333  
700.000000	52.994681  
700.500000	51.835386  
701.000000	51.008174  
701.500000	49.270310  
702.000000	47.583689  
702.500000	46.178303  
703.000000	45.181606  
703.500000	43.527098  
704.000000	42.158507  
704.500000	40.949590  
705.000000	40.336962  
705.500000	39.418287  
706.000000	38.393409  
706.500000	36.671098  
707.000000	35.398045  
707.500000	34.536628  
708.000000	34.466166  
708.500000	33.469257  
709.000000	32.420765  
709.500000	30.877545  
710.000000	29.761242  
710.500000	28.639333  
711.000000	28.513651  
711.500000	28.425689  
712.000000	27.941325  
712.500000	26.532780  
713.000000	25.534272  
713.500000	25.236113  
714.000000	25.281189  
714.500000	24.861151  
715.000000	24.035227  
715.500000	22.981621  
716.000000	22.176984  
716.500000	21.719840  
717.000000	21.439750  
717.500000	21.021181  
718.000000	20.450712  
718.500000	20.103712  
719.000000	20.086886  
719.500000	19.723765  
720.000000	18.821446  
720.500000	17.741575  
721.000000	17.258219  
721.500000	17.095113  
722.000000	16.794022  
722.500000	16.260424  
723.000000	15.935090  
723.500000	15.935583  
724.000000	15.964325  
724.500000	16.012492  
725.000000	15.741553  
725.500000	15.222128  
726.000000	14.414507  
726.500000	13.683810  
727.000000	13.348128  
727.500000	13.176265  
728.000000	12.989469  
728.500000	12.430469  
729.000000	11.916681  
729.500000	11.627431  
730.000000	11.836462  
730.500000	12.031037  
731.000000	12.123310  
731.500000	11.841545  
732.000000	11.141348  
732.500000	10.588863  
733.000000	10.426553  
733.500000	10.665507  
734.000000	10.563477  
734.500000	10.299007  
735.000000	9.887575   
735.500000	9.762901   
736.000000	9.577977   
736.500000	9.482121   
737.000000	9.370439   
737.500000	9.351636   
738.000000	9.393704   
738.500000	9.105416   
739.000000	8.561999   
739.500000	8.062454   
740.000000	7.884310   
740.500000	7.919681   
741.000000	7.939643   
741.500000	7.794151   
742.000000	7.420219   
742.500000	7.130583   
743.000000	7.018250   
743.500000	7.215143   
744.000000	7.255000   
744.500000	7.099575   
745.000000	6.830545   
745.500000	6.692651   
746.000000	6.560643   
746.500000	6.405704   
747.000000	6.165484   
747.500000	6.268325   
748.000000	6.462833   
748.500000	6.554780   
749.000000	6.294098   
749.500000	5.998901   
750.000000	5.840037   
750.500000	5.899674   
751.000000	5.993356   
751.500000	5.925674   
752.000000	5.780833   
752.500000	5.668424   
753.000000	5.743045   
753.500000	5.789325   
754.000000	5.755575   
754.500000	5.412492   
755.000000	5.144719   
755.500000	5.147196   
756.000000	5.430166   
756.500000	5.574068   
757.000000	5.486151   
757.500000	5.089712   
758.000000	4.731242   
758.500000	4.654901   
759.000000	4.877393   
759.500000	5.082462   
760.000000	4.906590   
760.500000	4.852128   
761.000000	4.920962   
761.500000	4.969242   
762.000000	4.721196   
762.500000	4.659196   
763.000000	4.682719   
763.500000	4.694310   
764.000000	4.360303   
764.500000	4.212787   
765.000000	4.442060   
765.500000	4.850840   
766.000000	4.827166   
766.500000	4.417689   
767.000000	3.987090   
767.500000	3.751515   
768.000000	3.632257   
768.500000	3.535204   
769.000000	3.639825   
769.500000	3.747196   
770.000000	3.849954   
770.500000	3.908106   
771.000000	4.040810   
771.500000	4.117212   
772.000000	4.060310   
772.500000	3.984931   
773.000000	3.896356   
773.500000	3.740378   
774.000000	3.485121   
774.500000	3.293871   
775.000000	3.230469   
775.500000	3.206856   
776.000000	3.120568   
776.500000	3.031787   
777.000000	3.057840   
777.500000	3.099681   
778.000000	3.161954   
778.500000	3.172507   
779.000000	3.172765   
779.500000	3.176439   
780.000000	3.185560   
780.500000	3.145962   
781.000000	3.208651   
781.500000	3.336818   
782.000000	3.455583   
782.500000	3.404750   
783.000000	3.259469   
783.500000	3.166378   
784.000000	3.113287   
784.500000	3.086121   
785.000000	3.020113   
785.500000	2.938984   
786.000000	2.839931   
786.500000	2.911863   
787.000000	2.996348   
787.500000	3.020492   
788.000000	2.947159   
788.500000	2.965575   
789.000000	2.909174   
789.500000	2.812401   
790.000000	2.680575   
790.500000	2.760227   
791.000000	2.790363   
791.500000	2.779780   
792.000000	2.686280   
792.500000	2.678174   
793.000000	2.676446   
793.500000	2.756878   
794.000000	2.840901   
794.500000	2.953356   
795.000000	2.921037   
795.500000	2.862946   
796.000000	2.671106   
796.500000	2.651310   
797.000000	2.599151   
797.500000	2.595318   
798.000000	2.312416   
798.500000	2.211310   
799.000000	2.181810   
799.500000	2.329878   
800.000000	2.247310   
800.500000	2.256886   
801.000000	2.355492   
801.500000	2.614939   
802.000000	2.681166   
802.500000	2.445409   
803.000000	2.097098   
803.500000	1.966462   
804.000000	2.178000   
804.500000	2.411696   
805.000000	2.358780   
805.500000	2.011666   
806.000000	1.772045   
806.500000	1.794931   
807.000000	1.865727   
807.500000	1.937825   
808.000000	1.982946   
808.500000	2.184136   
809.000000	2.331681   
809.500000	2.396272   
810.000000	2.312166   
810.500000	2.229871   
811.000000	2.074090   
811.500000	1.933371   
812.000000	1.723303   
812.500000	1.446992   
813.000000	1.375090   
813.500000	1.564310   
814.000000	1.986848   
814.500000	2.180621   
815.000000	2.151219   
815.500000	1.852507   
816.000000	1.534181   
816.500000	1.428121   
817.000000	1.610696   
817.500000	1.919310   
818.000000	1.955318   
818.500000	1.955386   
819.000000	1.951742   
819.500000	2.186068   
820.000000	2.059401   
820.500000	1.974151   
821.000000	1.893575   
821.500000	2.180325   
822.000000	2.342886   
822.500000	2.470651   
823.000000	2.352098   
823.500000	2.462840   
824.000000	2.517409   
824.500000	2.427265   
825.000000	2.135507   
825.500000	1.935234   
826.000000	2.093712   
826.500000	2.143833   
827.000000	1.980401   
827.500000	1.725386   
828.000000	1.742090   
828.500000	1.762143   
829.000000	1.689303   
829.500000	1.531734   
830.000000	1.530212   
830.500000	1.598704   
831.000000	1.596037   
831.500000	1.506954   
832.000000	1.359659   
832.500000	1.243780   
833.000000	1.223272   
833.500000	1.226916   
834.000000	1.246280   
834.500000	1.288946   
835.000000	1.322401   
835.500000	1.310250   
836.000000	1.150090   
836.500000	0.979780   
837.000000	0.915477   
837.500000	1.012106   
838.000000	1.043234   
838.500000	1.040424   
839.000000	0.960068   
839.500000	0.922409   
840.000000	0.889196   
840.500000	0.879893   
841.000000	0.786030   
841.500000	0.701280   
842.000000	0.652424   
842.500000	0.740825   
843.000000	0.779681   
843.500000	0.730492   
844.000000	0.630469   
844.500000	0.668113   
845.000000	0.646174   
845.500000	0.579825   
846.000000	0.347287   
846.500000	0.325931   
847.000000	0.383136   
847.500000	0.466128   
848.000000	0.327810   
848.500000	0.169371   
849.000000	0.078348   
849.500000	0.118598   
850.000000	0.141181   
850.500000	0.171772   
851.000000	0.239727   
851.500000	0.282386   
852.000000	0.270393   
852.500000	0.179386   
853.000000	0.049560   
853.500000	-0.035083  
854.000000	-0.008121  
854.500000	0.118818   
855.000000	0.294696   
855.500000	0.418924   
856.000000	0.378015   
856.500000	0.303878   
857.000000	0.215886   
857.500000	0.236787   
858.000000	0.208159   
858.500000	0.163272   
859.000000	0.054356   
859.500000	0.075507   
860.000000	0.116719   
860.500000	0.191681   
861.000000	0.200272   
861.500000	0.180939   
862.000000	0.159537   
862.500000	0.162098   
863.000000	0.115265   
863.500000	0.014204   
864.000000	-0.119886  
864.500000	-0.133393  
865.000000	-0.036628  
865.500000	0.075318   
866.000000	0.103492   
866.500000	-0.009242  
867.000000	-0.140628  
867.500000	-0.154045  
868.000000	-0.028515  
868.500000	0.053295   
869.000000	0.042196   
869.500000	-0.081734  
870.000000	-0.154060  
870.500000	-0.109946  
871.000000	-0.070121  
871.500000	-0.057325  
872.000000	-0.123439  
872.500000	-0.092325  
873.000000	0.023553   
873.500000	0.090136   
874.000000	0.104537   
874.500000	0.065242   
875.000000	0.033522   
875.500000	-0.006083  
876.000000	0.123030   
876.500000	0.226613   
877.000000	0.219446   
877.500000	0.094590   
878.000000	-0.027060  
878.500000	-0.091143  
879.000000	-0.139371  
879.500000	-0.096719  
880.000000	-0.018613  
880.500000	0.025037   
881.000000	-0.078674  
881.500000	-0.195856  
882.000000	-0.201810  
882.500000	-0.074477  
883.000000	0.061272   
883.500000	0.094931   
884.000000	0.033598   
884.500000	0.034007   
885.000000	0.028643   
885.500000	-0.007734  
886.000000	-0.111477  
886.500000	-0.050234  
887.000000	0.026212   
887.500000	0.071742   
888.000000	-0.018378  
888.500000	-0.034348  
889.000000	-0.058363  
889.500000	-0.089643  
890.000000	-0.060992  
890.500000	0.077606   
891.000000	0.144174   
891.500000	0.071499   
892.000000	0.000651   
892.500000	0.021924   
893.000000	0.059037   
893.500000	0.093780   
894.000000	0.095795   
894.500000	-0.000181  
895.000000	-0.154022  
895.500000	-0.264712  
896.000000	-0.213583  
896.500000	-0.076643  
897.000000	0.036083   
897.500000	0.037454   

