PE FL                   SPECTRUM    ASCII       PEDS        1.60        
  -1
SA83B1~1.SP
24/04/12
15:24:56.00
24/04/12
15:24:56.00
Jan

897.500000
1









LS55
405.00
5.00
5.00
SCAN
1
20
100
100
0
400
0
1
0
1
5
ON
450 405 
1 0 0
#HDR
-1
-1
#GR
NM

0.00002384185791015625
0.0
450.000000
0.500000
896
8
404.042075
-0.542999
#DATA
450.000000	-0.542999  
450.500000	0.170106   
451.000000	0.372962   
451.500000	0.153386   
452.000000	0.083204   
452.500000	0.211098   
453.000000	0.330439   
453.500000	0.328454   
454.000000	0.160113   
454.500000	0.073363   
455.000000	0.057257   
455.500000	0.161954   
456.000000	0.092143   
456.500000	0.158333   
457.000000	0.210189   
457.500000	0.194681   
458.000000	0.005704   
458.500000	-0.132772  
459.000000	-0.073386  
459.500000	-0.025939  
460.000000	0.051348   
460.500000	0.167348   
461.000000	0.339946   
461.500000	0.362954   
462.000000	0.280477   
462.500000	0.207537   
463.000000	0.104560   
463.500000	0.092575   
464.000000	0.173560   
464.500000	0.363431   
465.000000	0.389704   
465.500000	0.257575   
466.000000	0.201121   
466.500000	0.230530   
467.000000	0.261015   
467.500000	0.094795   
468.000000	0.013045   
468.500000	0.025363   
469.000000	0.135704   
469.500000	0.213689   
470.000000	0.329325   
470.500000	0.546772   
471.000000	0.650712   
471.500000	0.577537   
472.000000	0.374181   
472.500000	0.314356   
473.000000	0.301924   
473.500000	0.230295   
474.000000	0.200409   
474.500000	0.238492   
475.000000	0.284507   
475.500000	0.142113   
476.000000	0.008242   
476.500000	0.071522   
477.000000	0.278462   
477.500000	0.424136   
478.000000	0.405030   
478.500000	0.308568   
479.000000	0.124924   
479.500000	0.045446   
480.000000	0.108022   
480.500000	0.262083   
481.000000	0.301924   
481.500000	0.192628   
482.000000	0.021757   
482.500000	-0.125477  
483.000000	-0.183174  
483.500000	-0.156750  
484.000000	-0.066462  
484.500000	-0.054325  
485.000000	0.006250   
485.500000	0.169075   
486.000000	0.363068   
486.500000	0.401037   
487.000000	0.330159   
487.500000	0.189969   
488.000000	0.159886   
488.500000	0.188090   
489.000000	0.283113   
489.500000	0.262053   
490.000000	0.239303   
490.500000	0.313477   
491.000000	0.475931   
491.500000	0.470515   
492.000000	0.340749   
492.500000	0.180401   
493.000000	0.154598   
493.500000	0.203386   
494.000000	0.293810   
494.500000	0.467477   
495.000000	0.622651   
495.500000	0.658780   
496.000000	0.518174   
496.500000	0.266446   
497.000000	0.151174   
497.500000	0.389242   
498.000000	0.677280   
498.500000	0.734439   
499.000000	0.506234   
499.500000	0.375424   
500.000000	0.420704   
500.500000	0.557500   
501.000000	0.518719   
501.500000	0.537666   
502.000000	0.575022   
502.500000	0.692174   
503.000000	0.706803   
503.500000	0.689424   
504.000000	0.746174   
504.500000	0.811401   
505.000000	0.795780   
505.500000	0.713901   
506.000000	0.782068   
506.500000	0.865128   
507.000000	0.894871   
507.500000	0.865348   
508.000000	0.882492   
508.500000	0.822871   
509.000000	0.661992   
509.500000	0.626992   
510.000000	0.761348   
510.500000	1.023840   
511.000000	1.203136   
511.500000	1.388719   
512.000000	1.509719   
512.500000	1.667340   
513.000000	1.627015   
513.500000	1.561856   
514.000000	1.449386   
514.500000	1.587871   
515.000000	1.671992   
515.500000	1.617060   
516.000000	1.433143   
516.500000	1.399651   
517.000000	1.520477   
517.500000	1.632219   
518.000000	1.710825   
518.500000	1.764681   
519.000000	1.862113   
519.500000	1.968750   
520.000000	2.147234   
520.500000	2.279484   
521.000000	2.209916   
521.500000	2.092204   
522.000000	2.088560   
522.500000	2.507659   
523.000000	2.749969   
523.500000	2.655310   
524.000000	2.284371   
524.500000	2.333659   
525.000000	2.617977   
525.500000	2.929340   
526.000000	3.113515   
526.500000	3.409424   
527.000000	3.610969   
527.500000	3.491939   
528.000000	3.244946   
528.500000	3.276863   
529.000000	3.518128   
529.500000	3.824272   
530.000000	4.029462   
530.500000	4.315053   
531.000000	4.385477   
531.500000	4.380143   
532.000000	4.591780   
532.500000	5.151863   
533.000000	5.794401   
533.500000	6.054734   
534.000000	6.218878   
534.500000	6.277878   
535.000000	6.492272   
535.500000	6.624022   
536.000000	7.019439   
536.500000	7.231227   
537.000000	7.483121   
537.500000	7.781696   
538.000000	8.327454   
538.500000	9.002477   
539.000000	9.528204   
539.500000	9.970159   
540.000000	10.196590  
540.500000	10.350295  
541.000000	10.331606  
541.500000	10.580833  
542.000000	10.866848  
542.500000	11.112568  
543.000000	11.075083  
543.500000	10.868151  
544.000000	10.972871  
544.500000	11.347719  
545.000000	11.961613  
545.500000	12.383462  
546.000000	12.554000  
546.500000	12.394628  
547.000000	12.322227  
547.500000	12.468931  
548.000000	12.607765  
548.500000	12.524871  
549.000000	12.301590  
549.500000	12.491742  
550.000000	13.002045  
550.500000	13.136083  
551.000000	12.696689  
551.500000	12.244750  
552.000000	12.693159  
552.500000	13.404128  
553.000000	13.774553  
553.500000	13.494196  
554.000000	13.505030  
554.500000	13.346659  
555.000000	13.279931  
555.500000	13.240159  
556.000000	13.753189  
556.500000	13.984083  
557.000000	14.184424  
557.500000	14.274181  
558.000000	14.728098  
558.500000	15.146075  
559.000000	15.679643  
559.500000	16.286462  
560.000000	16.561689  
560.500000	16.570765  
561.000000	16.753386  
561.500000	17.323916  
562.000000	17.830522  
562.500000	17.902098  
563.000000	18.114871  
563.500000	18.617409  
564.000000	19.500265  
564.500000	19.879977  
565.000000	20.414196  
565.500000	21.097181  
566.000000	21.819568  
566.500000	21.985219  
567.000000	22.233863  
567.500000	23.210530  
568.000000	24.649189  
568.500000	25.515568  
569.000000	25.765227  
569.500000	25.804916  
570.000000	26.489969  
570.500000	27.607265  
571.000000	28.595553  
571.500000	28.990992  
572.000000	29.163121  
572.500000	29.469106  
573.000000	29.883674  
573.500000	30.568507  
574.000000	31.036636  
574.500000	31.686113  
575.000000	32.159712  
575.500000	33.238227  
576.000000	34.407446  
576.500000	35.652909  
577.000000	35.806666  
577.500000	35.747484  
578.000000	35.943575  
578.500000	36.812939  
579.000000	37.387189  
579.500000	37.574499  
580.000000	37.803113  
580.500000	38.561371  
581.000000	39.471787  
581.500000	40.408856  
582.000000	41.342553  
582.500000	42.184128  
583.000000	42.928909  
583.500000	44.045378  
584.000000	45.391969  
584.500000	46.983613  
585.000000	48.289348  
585.500000	49.170462  
586.000000	48.881545  
586.500000	48.495015  
587.000000	49.074545  
587.500000	50.944598  
588.000000	52.974340  
588.500000	53.909871  
589.000000	54.480196  
589.500000	55.227348  
590.000000	56.993431  
590.500000	58.260196  
591.000000	60.166939  
591.500000	61.820681  
592.000000	63.887689  
592.500000	64.619568  
593.000000	65.201257  
593.500000	66.239136  
594.000000	68.315780  
594.500000	69.636060  
595.000000	70.696454  
595.500000	72.175954  
596.000000	74.457681  
596.500000	76.414530  
597.000000	77.621030  
597.500000	78.735727  
598.000000	80.753499  
598.500000	82.550643  
599.000000	83.655765  
599.500000	84.689037  
600.000000	86.713515  
600.500000	88.620477  
601.000000	90.008083  
601.500000	91.712833  
602.000000	94.378780  
602.500000	96.612212  
603.000000	97.562363  
603.500000	98.319795  
604.000000	99.652083  
604.500000	102.227515 
605.000000	105.016242 
605.500000	107.830075 
606.000000	109.665484 
606.500000	112.116848 
607.000000	114.686765 
607.500000	116.917962 
608.000000	118.242939 
608.500000	119.875992 
609.000000	122.219909 
609.500000	124.185719 
610.000000	126.771621 
610.500000	129.718803 
611.000000	133.155303 
611.500000	135.376560 
612.000000	137.770712 
612.500000	139.826803 
613.000000	142.698378 
613.500000	146.073810 
614.000000	150.135121 
614.500000	153.074303 
615.000000	155.028090 
615.500000	156.828545 
616.000000	159.807386 
616.500000	163.125651 
617.000000	165.987878 
617.500000	169.468871 
618.000000	173.487515 
618.500000	178.370583 
619.000000	181.853037 
619.500000	184.853007 
620.000000	186.880742 
620.500000	189.242984 
621.000000	191.756515 
621.500000	195.858977 
622.000000	200.978075 
622.500000	206.509742 
623.000000	210.941068 
623.500000	214.825545 
624.000000	218.783196 
624.500000	223.193272 
625.000000	226.954053 
625.500000	230.674424 
626.000000	233.821227 
626.500000	237.061750 
627.000000	239.837219 
627.500000	243.624037 
628.000000	247.706886 
628.500000	252.409772 
629.000000	257.258537 
629.500000	263.023212 
630.000000	267.964810 
630.500000	271.269477 
631.000000	272.847924 
631.500000	275.843742 
632.000000	281.121651 
632.500000	286.586575 
633.000000	291.675143 
633.500000	296.373174 
634.000000	302.734598 
634.500000	307.384833 
635.000000	310.134022 
635.500000	310.875333 
636.000000	314.948689 
636.500000	318.799189 
637.000000	322.731666 
637.500000	325.381560 
638.000000	329.419696 
638.500000	333.729060 
639.000000	338.412848 
639.500000	342.692916 
640.000000	346.492098 
640.500000	351.775333 
641.000000	356.213484 
641.500000	359.309340 
642.000000	359.728325 
642.500000	361.320590 
643.000000	364.427674 
643.500000	368.625090 
644.000000	372.356257 
644.500000	377.127992 
645.000000	380.763143 
645.500000	381.553871 
646.000000	382.026750 
646.500000	382.825098 
647.000000	385.700787 
647.500000	388.406931 
648.000000	392.032712 
648.500000	395.354234 
649.000000	398.039265 
649.500000	397.913931 
650.000000	397.066007 
650.500000	396.862803 
651.000000	398.091825 
651.500000	398.933196 
652.000000	399.874621 
652.500000	401.816227 
653.000000	404.042075 
653.500000	403.040439 
654.000000	401.132939 
654.500000	400.283674 
655.000000	401.797454 
655.500000	401.785712 
656.000000	401.246007 
656.500000	401.393643 
657.000000	401.038909 
657.500000	398.793613 
658.000000	395.618772 
658.500000	394.066287 
659.000000	393.862098 
659.500000	393.853757 
660.000000	391.828378 
660.500000	389.674113 
661.000000	386.226643 
661.500000	384.703431 
662.000000	383.353750 
662.500000	381.445484 
663.000000	376.646128 
663.500000	372.262234 
664.000000	369.161303 
664.500000	367.240462 
665.000000	364.313803 
665.500000	359.124727 
666.000000	354.436401 
666.500000	350.187454 
667.000000	347.454613 
667.500000	343.156772 
668.000000	338.738651 
668.500000	334.263166 
669.000000	331.349181 
669.500000	327.744856 
670.000000	322.397196 
670.500000	316.499265 
671.000000	311.284984 
671.500000	306.789651 
672.000000	301.241340 
672.500000	295.766356 
673.000000	291.054340 
673.500000	286.974545 
674.000000	282.752363 
674.500000	276.842674 
675.000000	270.873492 
675.500000	264.827575 
676.000000	259.990492 
676.500000	254.118348 
677.000000	248.348871 
677.500000	243.046659 
678.000000	239.628719 
678.500000	234.121500 
679.000000	226.764878 
679.500000	218.767734 
680.000000	213.470272 
680.500000	208.321386 
681.000000	203.616863 
681.500000	198.626068 
682.000000	193.970696 
682.500000	187.523659 
683.000000	181.091075 
683.500000	175.893780 
684.000000	172.561424 
684.500000	167.554196 
685.000000	161.713681 
685.500000	156.193484 
686.000000	153.269083 
686.500000	150.788719 
687.000000	147.654931 
687.500000	142.478787 
688.000000	137.287833 
688.500000	131.727121 
689.000000	126.822446 
689.500000	122.469659 
690.000000	119.680833 
690.500000	117.142469 
691.000000	114.535212 
691.500000	110.513696 
692.000000	107.207446 
692.500000	104.449098 
693.000000	102.128515 
693.500000	99.581545  
694.000000	96.660053  
694.500000	93.537113  
695.000000	89.916113  
695.500000	86.763810  
696.000000	84.220750  
696.500000	82.070999  
697.000000	79.568174  
697.500000	77.397075  
698.000000	75.058090  
698.500000	72.473848  
699.000000	69.820037  
699.500000	68.001931  
700.000000	66.328946  
700.500000	64.013356  
701.000000	61.431219  
701.500000	59.482886  
702.000000	57.417651  
702.500000	55.302893  
703.000000	53.336590  
703.500000	51.930795  
704.000000	50.559795  
704.500000	48.901136  
705.000000	47.103909  
705.500000	45.455484  
706.000000	44.474075  
706.500000	43.932696  
707.000000	43.680946  
707.500000	42.544962  
708.000000	41.083272  
708.500000	39.474340  
709.000000	38.688159  
709.500000	38.528939  
710.000000	38.221893  
710.500000	37.024015  
711.000000	35.407765  
711.500000	34.182189  
712.000000	33.722454  
712.500000	33.389931  
713.000000	32.789924  
713.500000	31.645977  
714.000000	30.327901  
714.500000	28.991803  
715.000000	28.439613  
715.500000	28.424969  
716.000000	28.156090  
716.500000	27.528553  
717.000000	26.907787  
717.500000	26.440606  
718.000000	25.624825  
718.500000	24.677825  
719.000000	23.891977  
719.500000	23.795750  
720.000000	23.205795  
720.500000	22.218265  
721.000000	20.999128  
721.500000	20.354257  
722.000000	19.880833  
722.500000	19.641734  
723.000000	19.364757  
723.500000	19.200454  
724.000000	18.764007  
724.500000	18.160030  
725.000000	17.593083  
725.500000	17.241628  
726.000000	17.063090  
726.500000	16.929310  
727.000000	16.621431  
727.500000	16.160143  
728.000000	15.596477  
728.500000	15.274219  
729.000000	15.114931  
729.500000	14.806598  
730.000000	14.541833  
730.500000	14.059734  
731.000000	13.423871  
731.500000	12.604333  
732.000000	12.090128  
732.500000	11.933643  
733.000000	12.204810  
733.500000	12.410204  
734.000000	12.327818  
734.500000	12.013121  
735.000000	11.723265  
735.500000	11.766924  
736.000000	11.740295  
736.500000	11.238803  
737.000000	10.583325  
737.500000	10.217151  
738.000000	10.430848  
738.500000	10.540181  
739.000000	10.429446  
739.500000	9.912310   
740.000000	9.661446   
740.500000	9.303371   
741.000000	9.111939   
741.500000	8.997340   
742.000000	9.352280   
742.500000	9.330340   
743.000000	8.820712   
743.500000	8.122765   
744.000000	8.069901   
744.500000	8.571742   
745.000000	9.071393   
745.500000	9.049909   
746.000000	8.543863   
746.500000	7.910969   
747.000000	7.518333   
747.500000	7.343734   
748.000000	7.419378   
748.500000	7.201416   
749.000000	7.015825   
749.500000	6.801310   
750.000000	6.834340   
750.500000	6.554916   
751.000000	6.294795   
751.500000	6.187553   
752.000000	6.530750   
752.500000	6.853272   
753.000000	6.889621   
753.500000	6.720984   
754.000000	6.420795   
754.500000	6.175098   
755.000000	6.040060   
755.500000	5.966462   
756.000000	5.753621   
756.500000	5.682651   
757.000000	5.701242   
757.500000	5.711613   
758.000000	5.563825   
758.500000	5.608469   
759.000000	5.794681   
759.500000	5.994628   
760.000000	5.844772   
760.500000	5.555166   
761.000000	5.514083   
761.500000	5.562075   
762.000000	5.621424   
762.500000	5.430795   
763.000000	5.432174   
763.500000	5.419522   
764.000000	5.284234   
764.500000	4.840272   
765.000000	4.608931   
765.500000	4.651916   
766.000000	4.757181   
766.500000	4.825977   
767.000000	4.651666   
767.500000	4.432666   
768.000000	4.089643   
768.500000	3.917053   
769.000000	3.843272   
769.500000	3.945954   
770.000000	4.067287   
770.500000	4.098113   
771.000000	3.946401   
771.500000	3.906689   
772.000000	4.054621   
772.500000	4.154287   
773.000000	4.014636   
773.500000	3.827893   
774.000000	3.696939   
774.500000	3.712901   
775.000000	3.613060   
775.500000	3.562181   
776.000000	3.469901   
776.500000	3.444628   
777.000000	3.355560   
777.500000	3.352795   
778.000000	3.406689   
778.500000	3.491795   
779.000000	3.437060   
779.500000	3.242704   
780.000000	3.287810   
780.500000	3.426727   
781.000000	3.513924   
781.500000	3.319553   
782.000000	3.155446   
782.500000	2.943378   
783.000000	2.972181   
783.500000	2.983992   
784.000000	3.149674   
784.500000	3.164212   
785.000000	3.231401   
785.500000	3.249340   
786.000000	3.315280   
786.500000	3.210795   
787.000000	3.055659   
787.500000	2.982886   
788.000000	3.019045   
788.500000	3.102939   
789.000000	3.096219   
789.500000	3.064265   
790.000000	3.030515   
790.500000	3.114553   
791.000000	3.076219   
791.500000	3.008340   
792.000000	2.871893   
792.500000	2.833848   
793.000000	2.822962   
793.500000	2.865007   
794.000000	2.774007   
794.500000	2.691265   
795.000000	2.651757   
795.500000	2.660030   
796.000000	2.636969   
796.500000	2.597924   
797.000000	2.670303   
797.500000	2.779166   
798.000000	2.734568   
798.500000	2.624628   
799.000000	2.566196   
799.500000	2.566651   
800.000000	2.527598   
800.500000	2.573242   
801.000000	2.641969   
801.500000	2.717219   
802.000000	2.499393   
802.500000	2.251136   
803.000000	2.036818   
803.500000	2.157022   
804.000000	2.272143   
804.500000	2.426848   
805.000000	2.378568   
805.500000	2.361075   
806.000000	2.164621   
806.500000	2.064181   
807.000000	2.108515   
807.500000	2.250477   
808.000000	2.124757   
808.500000	1.807363   
809.000000	1.759090   
809.500000	2.089856   
810.000000	2.419537   
810.500000	2.366742   
811.000000	2.230606   
811.500000	2.146431   
812.000000	2.111121   
812.500000	1.988295   
813.000000	1.945242   
813.500000	1.868924   
814.000000	1.837174   
814.500000	1.807575   
815.000000	1.858333   
815.500000	1.773431   
816.000000	1.641303   
816.500000	1.571712   
817.000000	1.643318   
817.500000	1.637575   
818.000000	1.657333   
818.500000	1.831492   
819.000000	2.109386   
819.500000	2.237356   
820.000000	2.155386   
820.500000	2.028833   
821.000000	2.126628   
821.500000	2.471742   
822.000000	2.688575   
822.500000	2.661446   
823.000000	2.557606   
823.500000	2.616962   
824.000000	2.692128   
824.500000	2.659401   
825.000000	2.526060   
825.500000	2.483537   
826.000000	2.385204   
826.500000	2.237053   
827.000000	2.061742   
827.500000	2.114083   
828.000000	2.233840   
828.500000	2.227136   
829.000000	1.914666   
829.500000	1.609825   
830.000000	1.471265   
830.500000	1.458651   
831.000000	1.455363   
831.500000	1.366037   
832.000000	1.210803   
832.500000	1.232916   
833.000000	1.374204   
833.500000	1.587401   
834.000000	1.568204   
834.500000	1.624712   
835.000000	1.613477   
835.500000	1.543840   
836.000000	1.270643   
836.500000	1.141878   
837.000000	1.092606   
837.500000	0.994590   
838.000000	0.874969   
838.500000	0.878053   
839.000000	0.996371   
839.500000	1.050469   
840.000000	1.049378   
840.500000	0.940666   
841.000000	0.884015   
841.500000	0.838045   
842.000000	0.754325   
842.500000	0.618333   
843.000000	0.548446   
843.500000	0.592159   
844.000000	0.651719   
844.500000	0.610939   
845.000000	0.527174   
845.500000	0.465840   
846.000000	0.464325   
846.500000	0.461340   
847.000000	0.520318   
847.500000	0.506045   
848.000000	0.444924   
848.500000	0.344393   
849.000000	0.383446   
849.500000	0.529825   
850.000000	0.493628   
850.500000	0.389590   
851.000000	0.240946   
851.500000	0.251113   
852.000000	0.156037   
852.500000	0.256401   
853.000000	0.413939   
853.500000	0.616136   
854.000000	0.488075   
854.500000	0.353090   
855.000000	0.250909   
855.500000	0.222696   
856.000000	0.068431   
856.500000	0.037946   
857.000000	0.024310   
857.500000	0.005886   
858.000000	-0.059833  
858.500000	0.028060   
859.000000	0.136462   
859.500000	0.146583   
860.000000	0.038363   
860.500000	0.098924   
861.000000	0.254204   
861.500000	0.332325   
862.000000	0.197712   
862.500000	0.002931   
863.000000	-0.150000  
863.500000	-0.159840  
864.000000	-0.134159  
864.500000	-0.144954  
865.000000	-0.204348  
865.500000	-0.141560  
866.000000	0.005757   
866.500000	0.155833   
867.000000	0.134560   
867.500000	0.103689   
868.000000	0.079446   
868.500000	0.085439   
869.000000	0.018515   
869.500000	-0.041704  
870.000000	-0.135810  
870.500000	-0.094060  
871.000000	-0.028553  
871.500000	0.041090   
872.000000	0.134181   
872.500000	0.187393   
873.000000	0.156871   
873.500000	0.038045   
874.000000	0.068636   
874.500000	0.185598   
875.000000	0.261250   
875.500000	0.034431   
876.000000	-0.112181  
876.500000	-0.116242  
877.000000	-0.005621  
877.500000	-0.018803  
878.000000	-0.095272  
878.500000	-0.160530  
879.000000	-0.154386  
879.500000	-0.153022  
880.000000	-0.203446  
880.500000	-0.243500  
881.000000	-0.201712  
881.500000	-0.106143  
882.000000	-0.086106  
882.500000	-0.059151  
883.000000	0.044363   
883.500000	0.194189   
884.000000	0.214469   
884.500000	0.105204   
885.000000	0.018545   
885.500000	0.013825   
886.000000	0.021575   
886.500000	0.005507   
887.000000	-0.000984  
887.500000	0.034363   
888.000000	0.035545   
888.500000	0.005159   
889.000000	0.018712   
889.500000	0.107287   
890.000000	0.194598   
890.500000	0.147750   
891.000000	0.002007   
891.500000	-0.125560  
892.000000	-0.072545  
892.500000	0.050757   
893.000000	0.141643   
893.500000	0.135121   
894.000000	0.095924   
894.500000	0.131651   
895.000000	0.120606   
895.500000	0.105007   
896.000000	0.047431   
896.500000	0.128348   
897.000000	0.166621   
897.500000	0.225803   

