PE FL                   SPECTRUM    ASCII       PEDS        1.60        
  -1
SA8BB5~1.SP
24/04/12
15:40:37.00
24/04/12
15:40:37.00
Jan

897.500000
1









LS55
405.00
5.00
5.00
SCAN
1
20
100
100
0
400
0
1
0
1
5
ON
450 405 
1 0 0
#HDR
-1
-1
#GR
NM

0.00002384185791015625
0.0
450.000000
0.500000
896
8
379.205848
-0.390742
#DATA
450.000000	0.752999   
450.500000	0.302333   
451.000000	0.062977   
451.500000	0.065901   
452.000000	0.068310   
452.500000	-0.011242  
453.000000	-0.172007  
453.500000	-0.211318  
454.000000	-0.079121  
454.500000	0.102500   
455.000000	0.278825   
455.500000	0.337666   
456.000000	0.307174   
456.500000	0.135083   
457.000000	0.156446   
457.500000	0.410568   
458.000000	0.613409   
458.500000	0.372227   
459.000000	-0.081734  
459.500000	-0.235424  
460.000000	-0.070666  
460.500000	0.155606   
461.000000	0.184212   
461.500000	0.145772   
462.000000	0.022666   
462.500000	0.009477   
463.000000	-0.015886  
463.500000	0.034742   
464.000000	0.037287   
464.500000	0.102530   
465.000000	0.112250   
465.500000	0.059856   
466.000000	-0.074840  
466.500000	-0.083075  
467.000000	-0.088272  
467.500000	-0.053999  
468.000000	-0.043030  
468.500000	0.027363   
469.000000	0.033151   
469.500000	0.144363   
470.000000	0.251560   
470.500000	0.414462   
471.000000	0.413393   
471.500000	0.353681   
472.000000	0.223484   
472.500000	0.207060   
473.000000	0.289303   
473.500000	0.410022   
474.000000	0.354871   
474.500000	0.103151   
475.000000	-0.105954  
475.500000	-0.055060  
476.000000	0.212401   
476.500000	0.474477   
477.000000	0.485840   
477.500000	0.361189   
478.000000	0.276765   
478.500000	0.297022   
479.000000	0.283060   
479.500000	0.222522   
480.000000	0.162068   
480.500000	0.155537   
481.000000	0.255795   
481.500000	0.291515   
482.000000	0.229257   
482.500000	0.177166   
483.000000	0.307333   
483.500000	0.357787   
484.000000	0.230363   
484.500000	0.033787   
485.000000	0.195007   
485.500000	0.501219   
486.000000	0.750363   
486.500000	0.642621   
487.000000	0.334333   
487.500000	-0.109113  
488.000000	-0.390742  
488.500000	-0.357969  
489.000000	-0.077507  
489.500000	0.202590   
490.000000	0.189674   
490.500000	0.011022   
491.000000	-0.160121  
491.500000	-0.038515  
492.000000	0.189371   
492.500000	0.441318   
493.000000	0.388189   
493.500000	0.197977   
494.000000	-0.013363  
494.500000	0.120333   
495.000000	0.341734   
495.500000	0.580954   
496.000000	0.500356   
496.500000	0.417856   
497.000000	0.451068   
497.500000	0.706916   
498.000000	0.753946   
498.500000	0.607242   
499.000000	0.417931   
499.500000	0.455250   
500.000000	0.440015   
500.500000	0.433030   
501.000000	0.437749   
501.500000	0.508962   
502.000000	0.541825   
502.500000	0.606750   
503.000000	0.683053   
503.500000	0.758310   
504.000000	0.754893   
504.500000	0.821121   
505.000000	0.906287   
505.500000	0.924977   
506.000000	0.938424   
506.500000	0.929856   
507.000000	0.840719   
507.500000	0.717696   
508.000000	0.706848   
508.500000	0.836659   
509.000000	0.973818   
509.500000	1.011659   
510.000000	1.060469   
510.500000	1.073893   
511.000000	1.101416   
511.500000	1.185560   
512.000000	1.340128   
512.500000	1.455969   
513.000000	1.421196   
513.500000	1.320424   
514.000000	1.316848   
514.500000	1.519295   
515.000000	1.784272   
515.500000	1.993068   
516.000000	1.875628   
516.500000	1.669030   
517.000000	1.637931   
517.500000	1.826439   
518.000000	2.049303   
518.500000	2.248719   
519.000000	2.398780   
519.500000	2.501750   
520.000000	2.324295   
520.500000	1.920136   
521.000000	1.549401   
521.500000	1.700500   
522.000000	2.134446   
522.500000	2.594113   
523.000000	2.552621   
523.500000	2.445393   
524.000000	2.418749   
524.500000	2.658083   
525.000000	2.788295   
525.500000	2.906212   
526.000000	2.894689   
526.500000	3.101287   
527.000000	3.359401   
527.500000	3.681659   
528.000000	3.789386   
528.500000	3.870606   
529.000000	4.064689   
529.500000	4.331318   
530.000000	4.515795   
530.500000	4.399401   
531.000000	4.322378   
531.500000	4.350348   
532.000000	4.750477   
532.500000	5.261045   
533.000000	5.831431   
533.500000	6.215280   
534.000000	6.406848   
534.500000	6.345499   
535.000000	6.219621   
535.500000	6.204060   
536.000000	6.582393   
536.500000	6.919053   
537.000000	7.198590   
537.500000	7.197477   
538.000000	7.769121   
538.500000	8.490371   
539.000000	9.229924   
539.500000	9.406954   
540.000000	9.559772   
540.500000	9.960621   
541.000000	10.528159  
541.500000	11.073916  
542.000000	11.141553  
542.500000	11.043939  
543.000000	10.724090  
543.500000	10.656621  
544.000000	10.811462  
544.500000	11.215090  
545.000000	11.561469  
545.500000	11.728984  
546.000000	11.893242  
546.500000	11.868643  
547.000000	11.903689  
547.500000	11.784545  
548.000000	11.693431  
548.500000	11.317537  
549.000000	11.172212  
549.500000	11.465022  
550.000000	12.282280  
550.500000	12.643068  
551.000000	12.457189  
551.500000	12.235643  
552.000000	12.588901  
552.500000	12.755446  
553.000000	12.549689  
553.500000	12.182946  
554.000000	12.205484  
554.500000	12.732106  
555.000000	13.349696  
555.500000	13.666507  
556.000000	13.623659  
556.500000	13.619840  
557.000000	13.932750  
557.500000	14.298469  
558.000000	14.424348  
558.500000	14.497628  
559.000000	14.792681  
559.500000	14.792871  
560.000000	15.024106  
560.500000	15.455318  
561.000000	16.225886  
561.500000	16.497196  
562.000000	16.627500  
562.500000	16.524848  
563.000000	16.905287  
563.500000	17.268060  
564.000000	18.061613  
564.500000	18.790734  
565.000000	19.582287  
565.500000	20.072295  
566.000000	20.857136  
566.500000	21.738886  
567.000000	22.143553  
567.500000	21.991780  
568.000000	21.921090  
568.500000	22.499833  
569.000000	23.202174  
569.500000	23.858757  
570.000000	24.717166  
570.500000	25.708659  
571.000000	26.387386  
571.500000	26.540106  
572.000000	27.023643  
572.500000	27.866856  
573.000000	28.733431  
573.500000	29.124348  
574.000000	29.337560  
574.500000	29.686484  
575.000000	30.414045  
575.500000	31.183704  
576.000000	31.746159  
576.500000	32.176030  
577.000000	32.919553  
577.500000	33.810704  
578.000000	34.660689  
578.500000	35.102121  
579.000000	35.638492  
579.500000	36.196189  
580.000000	36.421219  
580.500000	36.411856  
581.000000	36.749121  
581.500000	37.354166  
582.000000	38.044704  
582.500000	38.969606  
583.000000	40.214795  
583.500000	41.439219  
584.000000	42.444212  
584.500000	43.522318  
585.000000	44.372727  
585.500000	44.726659  
586.000000	44.620212  
586.500000	45.243553  
587.000000	46.365431  
587.500000	47.804568  
588.000000	49.336886  
588.500000	51.384901  
589.000000	52.839196  
589.500000	53.151712  
590.000000	52.837856  
590.500000	53.638712  
591.000000	55.658303  
591.500000	57.719742  
592.000000	59.352295  
592.500000	60.826772  
593.000000	62.495757  
593.500000	63.560765  
594.000000	64.325636  
594.500000	64.731234  
595.000000	65.820378  
595.500000	67.226287  
596.000000	69.072984  
596.500000	70.321598  
597.000000	71.671249  
597.500000	73.531121  
598.000000	75.902227  
598.500000	76.954810  
599.000000	77.367871  
599.500000	78.182946  
600.000000	81.082643  
600.500000	84.433393  
601.000000	86.890249  
601.500000	87.626098  
602.000000	88.313507  
602.500000	89.778886  
603.000000	92.298340  
603.500000	94.660946  
604.000000	96.582234  
604.500000	98.244378  
605.000000	99.891931  
605.500000	101.311734 
606.000000	102.885151 
606.500000	104.822234 
607.000000	107.290704 
607.500000	109.672371 
608.000000	111.569446 
608.500000	113.621060 
609.000000	115.696651 
609.500000	117.884212 
610.000000	120.036015 
610.500000	121.913886 
611.000000	124.153984 
611.500000	126.620242 
612.000000	129.552621 
612.500000	131.054893 
613.000000	132.404303 
613.500000	134.123030 
614.000000	137.701310 
614.500000	141.835575 
615.000000	146.130325 
615.500000	150.626856 
616.000000	154.163068 
616.500000	157.089704 
617.000000	158.531393 
617.500000	159.877333 
618.000000	160.965015 
618.500000	164.427196 
619.000000	168.941174 
619.500000	173.227530 
620.000000	175.526962 
620.500000	176.723356 
621.000000	178.436280 
621.500000	181.420340 
622.000000	186.455484 
622.500000	191.675621 
623.000000	196.825037 
623.500000	200.204931 
624.000000	203.793924 
624.500000	206.425681 
625.000000	210.536590 
625.500000	214.551409 
626.000000	219.757757 
626.500000	222.723666 
627.000000	224.783977 
627.500000	226.504212 
628.000000	231.175848 
628.500000	237.021363 
629.000000	242.867901 
629.500000	247.011189 
630.000000	250.532371 
630.500000	254.101159 
631.000000	256.591901 
631.500000	259.573242 
632.000000	263.969969 
632.500000	270.316303 
633.000000	274.931212 
633.500000	278.539075 
634.000000	281.587659 
634.500000	287.220818 
635.000000	291.438856 
635.500000	295.614492 
636.000000	298.662628 
636.500000	301.979522 
637.000000	303.798295 
637.500000	307.103060 
638.000000	313.225931 
638.500000	320.035454 
639.000000	323.893992 
639.500000	323.676863 
640.000000	324.772681 
640.500000	327.448037 
641.000000	331.867651 
641.500000	334.425628 
642.000000	336.848939 
642.500000	338.981916 
643.000000	342.674212 
643.500000	346.698969 
644.000000	351.364621 
644.500000	355.552537 
645.000000	359.391666 
645.500000	361.646007 
646.000000	362.292393 
646.500000	362.131075 
647.000000	363.998666 
647.500000	367.051303 
648.000000	370.215219 
648.500000	372.730848 
649.000000	374.923083 
649.500000	374.845606 
650.000000	373.302840 
650.500000	372.386613 
651.000000	375.077037 
651.500000	378.171803 
652.000000	379.205848 
652.500000	377.431204 
653.000000	376.258856 
653.500000	375.932053 
654.000000	377.167401 
654.500000	377.924734 
655.000000	377.807333 
655.500000	376.923174 
656.000000	376.409515 
656.500000	375.765340 
657.000000	374.784871 
657.500000	372.642719 
658.000000	370.787181 
658.500000	369.927606 
659.000000	370.672060 
659.500000	370.870803 
660.000000	369.486454 
660.500000	366.014909 
661.000000	361.457931 
661.500000	356.994393 
662.000000	354.191250 
662.500000	352.697136 
663.000000	351.182886 
663.500000	348.035037 
664.000000	345.119810 
664.500000	343.218143 
665.000000	342.368772 
665.500000	340.206053 
666.000000	337.369462 
666.500000	333.114537 
667.000000	327.516871 
667.500000	321.213833 
668.000000	315.563136 
668.500000	311.348015 
669.000000	307.329113 
669.500000	304.024446 
670.000000	299.967553 
670.500000	297.177303 
671.000000	293.340318 
671.500000	289.522984 
672.000000	282.365840 
672.500000	274.333878 
673.000000	266.657727 
673.500000	262.222568 
674.000000	258.010962 
674.500000	252.560893 
675.000000	246.744643 
675.500000	241.352946 
676.000000	236.274780 
676.500000	230.721250 
677.000000	225.081621 
677.500000	219.582272 
678.000000	214.006924 
678.500000	209.516856 
679.000000	205.503780 
679.500000	200.437416 
680.000000	193.308712 
680.500000	186.808431 
681.000000	182.473742 
681.500000	180.005787 
682.000000	176.505712 
682.500000	170.710030 
683.000000	163.573651 
683.500000	158.101636 
684.000000	153.867287 
684.500000	150.772053 
685.000000	146.875386 
685.500000	143.776265 
686.000000	139.974401 
686.500000	135.892469 
687.000000	130.713159 
687.500000	126.071795 
688.000000	121.892537 
688.500000	119.486060 
689.000000	117.556189 
689.500000	114.814212 
690.000000	110.033409 
690.500000	104.292378 
691.000000	99.453946  
691.500000	96.639871  
692.000000	95.114696  
692.500000	92.842318  
693.000000	89.546742  
693.500000	86.412257  
694.000000	84.463765  
694.500000	82.439287  
695.000000	79.587257  
695.500000	76.973636  
696.000000	74.238704  
696.500000	71.988803  
697.000000	69.198424  
697.500000	67.284045  
698.000000	65.631515  
698.500000	64.126045  
699.000000	62.162242  
699.500000	59.775704  
700.000000	57.781068  
700.500000	55.916553  
701.000000	54.516446  
701.500000	52.931121  
702.000000	52.241871  
702.500000	51.756378  
703.000000	50.781265  
703.500000	48.706378  
704.000000	46.357242  
704.500000	45.302272  
705.000000	45.012469  
705.500000	44.020181  
706.000000	41.471068  
706.500000	39.303840  
707.000000	38.499265  
707.500000	38.536386  
708.000000	37.511371  
708.500000	36.260553  
709.000000	35.714022  
709.500000	35.823439  
710.000000	35.089750  
710.500000	33.282181  
711.000000	31.391992  
711.500000	30.027840  
712.000000	29.036484  
712.500000	28.264265  
713.000000	27.638659  
713.500000	27.181651  
714.000000	26.489416  
714.500000	26.338227  
715.000000	26.077318  
715.500000	26.045083  
716.000000	25.430363  
716.500000	24.976265  
717.000000	23.791106  
717.500000	22.451189  
718.000000	21.201325  
718.500000	21.344196  
719.000000	21.530469  
719.500000	21.027250  
720.000000	19.850045  
720.500000	19.622060  
721.000000	19.786606  
721.500000	19.656106  
722.000000	18.555219  
722.500000	17.542893  
723.000000	17.113090  
723.500000	17.061204  
724.000000	16.729946  
724.500000	16.333780  
725.000000	16.040037  
725.500000	15.866969  
726.000000	15.413083  
726.500000	14.818333  
727.000000	14.266803  
727.500000	14.074818  
728.000000	13.691151  
728.500000	13.324196  
729.000000	12.965780  
729.500000	12.852886  
730.000000	12.759515  
730.500000	12.434242  
731.000000	11.864772  
731.500000	11.405242  
732.000000	11.247636  
732.500000	10.951060  
733.000000	10.786446  
733.500000	10.765469  
734.000000	11.015893  
734.500000	10.967931  
735.000000	10.743840  
735.500000	10.501280  
736.000000	10.653121  
736.500000	10.719348  
737.000000	10.404257  
737.500000	9.864424   
738.000000	9.369280   
738.500000	9.015545   
739.000000	8.741871   
739.500000	8.631257   
740.000000	8.881393   
740.500000	9.147318   
741.000000	9.020878   
741.500000	8.637075   
742.000000	8.319477   
742.500000	8.250780   
743.000000	8.282272   
743.500000	8.225674   
744.000000	7.995143   
744.500000	7.640727   
745.000000	7.267234   
745.500000	7.050606   
746.000000	7.184742   
746.500000	7.240174   
747.000000	7.100371   
747.500000	6.727818   
748.000000	6.778553   
748.500000	6.981772   
749.000000	7.053825   
749.500000	6.763356   
750.000000	6.685348   
750.500000	6.672401   
751.000000	6.467333   
751.500000	6.035969   
752.000000	5.823575   
752.500000	5.998856   
753.000000	6.413901   
753.500000	6.602287   
754.000000	6.574045   
754.500000	6.355462   
755.000000	6.230181   
755.500000	5.868689   
756.000000	5.323992   
756.500000	4.698666   
757.000000	4.788378   
757.500000	5.294219   
758.000000	5.622901   
758.500000	5.588166   
759.000000	5.440848   
759.500000	5.497636   
760.000000	5.413212   
760.500000	5.213030   
761.000000	4.985499   
761.500000	4.983204   
762.000000	4.949378   
762.500000	4.936878   
763.000000	4.946318   
763.500000	4.952499   
764.000000	4.845545   
764.500000	4.830674   
765.000000	4.896886   
765.500000	4.941098   
766.000000	4.534143   
766.500000	4.245856   
767.000000	4.268265   
767.500000	4.428992   
768.000000	4.284893   
768.500000	3.893250   
769.000000	3.892212   
769.500000	4.191916   
770.000000	4.312704   
770.500000	4.284143   
771.000000	4.271136   
771.500000	4.272265   
772.000000	3.894651   
772.500000	3.639007   
773.000000	3.669856   
773.500000	4.128181   
774.000000	4.218075   
774.500000	4.047583   
775.000000	3.802878   
775.500000	3.649181   
776.000000	3.522083   
776.500000	3.367386   
777.000000	3.191083   
777.500000	3.189007   
778.000000	3.207045   
778.500000	3.254333   
779.000000	3.165053   
779.500000	3.151515   
780.000000	3.082742   
780.500000	3.110393   
781.000000	3.136893   
781.500000	3.174212   
782.000000	3.095909   
782.500000	2.974780   
783.000000	2.961522   
783.500000	2.992863   
784.000000	3.071484   
784.500000	3.110901   
785.000000	3.137265   
785.500000	3.152787   
786.000000	3.339901   
786.500000	3.565575   
787.000000	3.634030   
787.500000	3.393159   
788.000000	3.185719   
788.500000	3.078621   
789.000000	3.052295   
789.500000	2.872916   
790.000000	2.743719   
790.500000	2.751083   
791.000000	2.901606   
791.500000	2.979757   
792.000000	2.975863   
792.500000	2.867113   
793.000000	2.750946   
793.500000	2.753560   
794.000000	2.907636   
794.500000	3.039674   
795.000000	2.905409   
795.500000	2.596507   
796.000000	2.445568   
796.500000	2.645174   
797.000000	2.799462   
797.500000	2.769515   
798.000000	2.508007   
798.500000	2.446598   
799.000000	2.537901   
799.500000	2.674969   
800.000000	2.568825   
800.500000	2.413295   
801.000000	2.238750   
801.500000	2.228878   
802.000000	2.263757   
802.500000	2.262454   
803.000000	2.212181   
803.500000	2.190818   
804.000000	2.173666   
804.500000	2.264825   
805.000000	2.294219   
805.500000	2.259969   
806.000000	2.109363   
806.500000	1.945477   
807.000000	1.740863   
807.500000	1.674007   
808.000000	1.631765   
808.500000	1.744583   
809.000000	1.830916   
809.500000	1.838931   
810.000000	1.742886   
810.500000	1.542727   
811.000000	1.517553   
811.500000	1.730212   
812.000000	2.009348   
812.500000	2.001643   
813.000000	1.897833   
813.500000	1.720560   
814.000000	1.612000   
814.500000	1.587954   
815.000000	1.806151   
815.500000	1.986356   
816.000000	1.872765   
816.500000	1.690643   
817.000000	1.740787   
817.500000	1.967060   
818.000000	1.982916   
818.500000	1.798689   
819.000000	1.609310   
819.500000	1.614136   
820.000000	1.692439   
820.500000	1.692083   
821.000000	1.619787   
821.500000	1.658492   
822.000000	1.915189   
822.500000	2.103787   
823.000000	2.175128   
823.500000	2.297166   
824.000000	2.624022   
824.500000	2.836204   
825.000000	2.742492   
825.500000	2.482424   
826.000000	2.360143   
826.500000	2.305909   
827.000000	2.348787   
827.500000	2.346871   
828.000000	2.361916   
828.500000	2.147409   
829.000000	1.942431   
829.500000	1.755393   
830.000000	1.670530   
830.500000	1.489954   
831.000000	1.322848   
831.500000	1.193136   
832.000000	1.132863   
832.500000	1.024174   
833.000000	1.005825   
833.500000	1.105825   
834.000000	1.253621   
834.500000	1.180871   
835.000000	1.049795   
835.500000	0.952136   
836.000000	1.066598   
836.500000	1.133924   
837.000000	1.149750   
837.500000	1.043734   
838.000000	0.824537   
838.500000	0.659030   
839.000000	0.662325   
839.500000	0.815121   
840.000000	0.865568   
840.500000	0.807128   
841.000000	0.745303   
841.500000	0.868507   
842.000000	0.982833   
842.500000	0.842189   
843.000000	0.588386   
843.500000	0.427515   
844.000000	0.494325   
844.500000	0.577143   
845.000000	0.609477   
845.500000	0.544560   
846.000000	0.508287   
846.500000	0.378772   
847.000000	0.295704   
847.500000	0.260772   
848.000000	0.282151   
848.500000	0.313287   
849.000000	0.402113   
849.500000	0.553204   
850.000000	0.590015   
850.500000	0.502886   
851.000000	0.319196   
851.500000	0.315939   
852.000000	0.362295   
852.500000	0.418037   
853.000000	0.354113   
853.500000	0.257818   
854.000000	0.125780   
854.500000	0.228825   
855.000000	0.468484   
855.500000	0.586045   
856.000000	0.317886   
856.500000	0.056484   
857.000000	-0.005553  
857.500000	0.130280   
858.000000	0.093666   
858.500000	0.049537   
859.000000	0.073856   
859.500000	0.113871   
860.000000	0.106219   
860.500000	0.055196   
861.000000	0.017636   
861.500000	-0.025295  
862.000000	0.017098   
862.500000	0.010446   
863.000000	0.036916   
863.500000	0.072537   
864.000000	0.264378   
864.500000	0.354037   
865.000000	0.290750   
865.500000	0.153363   
866.000000	0.137500   
866.500000	0.093431   
867.000000	0.019227   
867.500000	-0.021537  
868.000000	0.071416   
868.500000	0.086409   
869.000000	-0.008598  
869.500000	-0.130250  
870.000000	-0.105636  
870.500000	0.017333   
871.000000	0.106446   
871.500000	0.113893   
872.000000	-0.004007  
872.500000	-0.061159  
873.000000	-0.060454  
873.500000	0.061560   
874.000000	0.135348   
874.500000	0.223257   
875.000000	0.249280   
875.500000	0.242272   
876.000000	0.113969   
876.500000	-0.063310  
877.000000	-0.148303  
877.500000	-0.085977  
878.000000	-0.000643  
878.500000	-0.009333  
879.000000	-0.106818  
879.500000	-0.101325  
880.000000	-0.034840  
880.500000	0.053939   
881.000000	0.013075   
881.500000	-0.041083  
882.000000	-0.041621  
882.500000	0.068257   
883.000000	0.128037   
883.500000	0.085242   
884.000000	0.015833   
884.500000	-0.016833  
885.000000	-0.010265  
885.500000	-0.000954  
886.000000	0.038901   
886.500000	0.014765   
887.000000	-0.058772  
887.500000	-0.196424  
888.000000	-0.284310  
888.500000	-0.298060  
889.000000	-0.169151  
889.500000	-0.045583  
890.000000	-0.018325  
890.500000	-0.090962  
891.000000	-0.153060  
891.500000	-0.119530  
892.000000	-0.015553  
892.500000	0.040734   
893.000000	0.005386   
893.500000	-0.058886  
894.000000	-0.018590  
894.500000	-0.003181  
895.000000	-0.055583  
895.500000	-0.190719  
896.000000	-0.176007  
896.500000	-0.135833  
897.000000	-0.125939  
897.500000	-0.214984  

