PE FL                   SPECTRUM    ASCII       PEDS        1.60        
  -1
SA93B1~1.SP
24/04/12
16:21:59.00
24/04/12
16:21:59.00
Jan

897.500000
1









LS55
405.00
5.00
5.00
SCAN
1
20
100
100
0
400
0
1
0
1
5
ON
450 405 
1 0 0
#HDR
-1
-1
#GR
NM

0.00002384185791015625
0.0
450.000000
0.500000
896
8
290.917075
-0.418219
#DATA
450.000000	0.201000   
450.500000	0.421446   
451.000000	0.490075   
451.500000	0.353810   
452.000000	0.098446   
452.500000	-0.033106  
453.000000	-0.019992  
453.500000	-0.004272  
454.000000	-0.078303  
454.500000	0.046272   
455.000000	0.178772   
455.500000	0.178310   
456.000000	-0.075136  
456.500000	-0.129401  
457.000000	-0.001401  
457.500000	0.148053   
458.000000	-0.004689  
458.500000	-0.127916  
459.000000	0.032954   
459.500000	0.305462   
460.000000	0.432462   
460.500000	0.390159   
461.000000	0.419181   
461.500000	0.373507   
462.000000	0.163431   
462.500000	-0.169734  
463.000000	-0.315431  
463.500000	-0.225537  
464.000000	-0.127159  
464.500000	-0.091196  
465.000000	0.035772   
465.500000	0.216287   
466.000000	0.247469   
466.500000	0.036666   
467.000000	-0.050356  
467.500000	0.184060   
468.000000	0.497250   
468.500000	0.440681   
469.000000	0.172931   
469.500000	-0.092250  
470.000000	-0.183242  
470.500000	-0.109901  
471.000000	0.080446   
471.500000	0.138143   
472.000000	-0.065037  
472.500000	-0.318704  
473.000000	-0.317522  
473.500000	-0.083053  
474.000000	0.142553   
474.500000	0.253219   
475.000000	0.253363   
475.500000	0.283492   
476.000000	0.335568   
476.500000	0.380909   
477.000000	0.217780   
477.500000	-0.079227  
478.000000	-0.308636  
478.500000	-0.314075  
479.000000	-0.127015  
479.500000	0.074060   
480.000000	0.193856   
480.500000	0.101659   
481.000000	-0.032742  
481.500000	-0.212287  
482.000000	-0.106924  
482.500000	0.062560   
483.000000	0.171181   
483.500000	0.080454   
484.000000	0.041083   
484.500000	0.118454   
485.000000	0.207863   
485.500000	0.200712   
486.000000	0.150628   
486.500000	0.201121   
487.000000	0.275356   
487.500000	0.327090   
488.000000	0.174462   
488.500000	-0.024053  
489.000000	-0.118545  
489.500000	0.031280   
490.000000	0.141727   
490.500000	0.158727   
491.000000	0.198454   
491.500000	0.373030   
492.000000	0.462015   
492.500000	0.335946   
493.000000	0.098931   
493.500000	-0.043916  
494.000000	0.093181   
494.500000	0.286583   
495.000000	0.370734   
495.500000	0.200090   
496.000000	-0.005007  
496.500000	-0.117212  
497.000000	-0.005787  
497.500000	0.157212   
498.000000	0.339984   
498.500000	0.364007   
499.000000	0.285128   
499.500000	0.195075   
500.000000	0.184560   
500.500000	0.345757   
501.000000	0.528909   
501.500000	0.656363   
502.000000	0.721499   
502.500000	0.679878   
503.000000	0.591159   
503.500000	0.487984   
504.000000	0.561742   
504.500000	0.581659   
505.000000	0.580469   
505.500000	0.446651   
506.000000	0.576909   
506.500000	0.719969   
507.000000	0.762810   
507.500000	0.594651   
508.000000	0.530015   
508.500000	0.626053   
509.000000	0.857181   
509.500000	0.984189   
510.000000	1.018704   
510.500000	1.113931   
511.000000	1.223901   
511.500000	1.222575   
512.000000	1.045083   
512.500000	1.021765   
513.000000	1.246969   
513.500000	1.533053   
514.000000	1.611909   
514.500000	1.605386   
515.000000	1.499909   
515.500000	1.490181   
516.000000	1.591037   
516.500000	1.813378   
517.000000	1.835151   
517.500000	1.737196   
518.000000	1.684363   
518.500000	1.930318   
519.000000	2.162083   
519.500000	2.279219   
520.000000	2.278946   
520.500000	2.342196   
521.000000	2.465787   
521.500000	2.568174   
522.000000	2.522962   
522.500000	2.482621   
523.000000	2.554295   
523.500000	2.618659   
524.000000	2.540257   
524.500000	2.487734   
525.000000	2.695007   
525.500000	3.033787   
526.000000	3.025719   
526.500000	2.994734   
527.000000	3.246689   
527.500000	3.862424   
528.000000	4.265371   
528.500000	4.335303   
529.000000	4.198462   
529.500000	4.312772   
530.000000	4.491507   
530.500000	4.537424   
531.000000	4.424462   
531.500000	4.431765   
532.000000	4.901492   
532.500000	5.569613   
533.000000	5.971393   
533.500000	6.043037   
534.000000	6.224954   
534.500000	6.368999   
535.000000	6.594606   
535.500000	6.628522   
536.000000	6.733166   
536.500000	7.088265   
537.000000	7.905590   
537.500000	8.559500   
538.000000	8.971742   
538.500000	9.031750   
539.000000	9.266893   
539.500000	9.375840   
540.000000	9.607257   
540.500000	10.085636  
541.000000	10.901863  
541.500000	11.271295  
542.000000	11.364818  
542.500000	11.200287  
543.000000	11.214621  
543.500000	11.271007  
544.000000	11.501946  
544.500000	11.587242  
545.000000	11.671143  
545.500000	11.696416  
546.000000	11.922924  
546.500000	12.026287  
547.000000	12.190272  
547.500000	12.364590  
548.000000	12.362151  
548.500000	12.032795  
549.000000	11.977946  
549.500000	12.300196  
550.000000	12.578045  
550.500000	12.280212  
551.000000	11.868969  
551.500000	11.833787  
552.000000	12.159977  
552.500000	12.027318  
553.000000	11.467159  
553.500000	11.207727  
554.000000	11.655704  
554.500000	12.220204  
555.000000	12.223954  
555.500000	11.962000  
556.000000	12.010401  
556.500000	12.482424  
557.000000	12.984257  
557.500000	13.369583  
558.000000	13.502840  
558.500000	13.714446  
559.000000	14.202007  
559.500000	14.904431  
560.000000	14.908181  
560.500000	14.830522  
561.000000	15.169219  
561.500000	16.119393  
562.000000	16.442909  
562.500000	16.567719  
563.000000	16.797939  
563.500000	17.513515  
564.000000	17.977674  
564.500000	18.047363  
565.000000	18.180242  
565.500000	18.432030  
566.000000	18.897128  
566.500000	19.072272  
567.000000	19.739151  
567.500000	20.751984  
568.000000	21.952037  
568.500000	22.434575  
569.000000	22.663522  
569.500000	23.024113  
570.000000	23.385174  
570.500000	23.812984  
571.000000	24.456053  
571.500000	25.689795  
572.000000	26.298007  
572.500000	26.270507  
573.000000	26.063575  
573.500000	26.384598  
574.000000	26.774090  
574.500000	26.870113  
575.000000	27.287969  
575.500000	28.287401  
576.000000	29.735765  
576.500000	30.501303  
577.000000	30.678863  
577.500000	30.668280  
578.000000	31.099053  
578.500000	31.700992  
579.000000	32.416015  
579.500000	33.241825  
580.000000	33.866000  
580.500000	34.319393  
581.000000	34.176053  
581.500000	34.501227  
582.000000	35.430068  
582.500000	36.831303  
583.000000	37.658659  
583.500000	37.966734  
584.000000	38.005219  
584.500000	38.753818  
585.000000	39.903666  
585.500000	40.803083  
586.000000	41.370265  
586.500000	42.251939  
587.000000	43.244363  
587.500000	43.835530  
588.000000	44.189962  
588.500000	44.943810  
589.000000	46.535113  
589.500000	48.019999  
590.000000	49.495204  
590.500000	50.630416  
591.000000	51.738666  
591.500000	52.201310  
592.000000	52.549030  
592.500000	53.123537  
593.000000	53.977613  
593.500000	55.135234  
594.000000	56.624121  
594.500000	58.685439  
595.000000	60.362348  
595.500000	61.232431  
596.000000	62.133166  
596.500000	63.283333  
597.000000	64.851939  
597.500000	65.955196  
598.000000	66.866568  
598.500000	67.505196  
599.000000	68.832287  
599.500000	70.307696  
600.000000	71.391136  
600.500000	71.815462  
601.000000	72.478128  
601.500000	73.889318  
602.000000	75.732106  
602.500000	77.786734  
603.000000	80.627348  
603.500000	82.747765  
604.000000	83.893401  
604.500000	83.909659  
605.000000	84.756249  
605.500000	86.072909  
606.000000	88.575462  
606.500000	90.702704  
607.000000	92.838151  
607.500000	93.965871  
608.000000	95.997515  
608.500000	97.948606  
609.000000	99.884007  
609.500000	100.960598 
610.000000	103.072409 
610.500000	105.542181 
611.000000	108.223553 
611.500000	110.161060 
612.000000	112.230484 
612.500000	115.557590 
613.000000	119.079280 
613.500000	122.069431 
614.000000	122.988181 
614.500000	123.930575 
615.000000	125.508893 
615.500000	128.115378 
616.000000	130.109022 
616.500000	131.780204 
617.000000	134.321143 
617.500000	137.388590 
618.000000	140.275515 
618.500000	141.690181 
619.000000	143.003083 
619.500000	144.912757 
620.000000	148.198598 
620.500000	151.000606 
621.000000	153.634022 
621.500000	156.444386 
622.000000	158.998515 
622.500000	161.166303 
623.000000	164.232037 
623.500000	168.845083 
624.000000	172.998204 
624.500000	174.690393 
625.000000	175.058719 
625.500000	176.994037 
626.000000	180.133090 
626.500000	183.902893 
627.000000	188.046969 
627.500000	192.723840 
628.000000	196.578318 
628.500000	199.424484 
629.000000	202.128234 
629.500000	204.966143 
630.000000	207.102522 
630.500000	209.200757 
631.000000	213.450212 
631.500000	218.629015 
632.000000	222.425696 
632.500000	224.669234 
633.000000	226.783893 
633.500000	229.741871 
634.000000	233.804219 
634.500000	236.950166 
635.000000	239.426606 
635.500000	241.195946 
636.000000	243.683515 
636.500000	247.311030 
637.000000	251.329409 
637.500000	255.001969 
638.000000	257.300333 
638.500000	258.754439 
639.000000	259.699621 
639.500000	262.189045 
640.000000	264.083325 
640.500000	265.638075 
641.000000	267.120098 
641.500000	269.115106 
642.000000	271.645386 
642.500000	273.835234 
643.000000	274.949303 
643.500000	275.248787 
644.000000	276.535537 
644.500000	280.246727 
645.000000	283.753166 
645.500000	284.145015 
646.000000	281.774272 
646.500000	281.399818 
647.000000	283.454136 
647.500000	286.091984 
648.000000	285.439295 
648.500000	283.902106 
649.000000	284.310628 
649.500000	287.593765 
650.000000	290.533295 
650.500000	290.917075 
651.000000	290.180734 
651.500000	289.722295 
652.000000	289.828143 
652.500000	289.069621 
653.000000	288.170742 
653.500000	287.637893 
654.000000	287.194810 
654.500000	286.605136 
655.000000	285.751810 
655.500000	285.704424 
656.000000	284.344606 
656.500000	282.472931 
657.000000	280.701924 
657.500000	280.368621 
658.000000	280.174053 
658.500000	279.136727 
659.000000	277.125560 
659.500000	275.161037 
660.000000	272.943287 
660.500000	270.408613 
661.000000	267.140174 
661.500000	262.940704 
662.000000	258.371310 
662.500000	256.042522 
663.000000	255.323515 
663.500000	254.532924 
664.000000	251.310545 
664.500000	247.106727 
665.000000	242.826977 
665.500000	239.431204 
666.000000	235.486272 
666.500000	232.348416 
667.000000	229.597090 
667.500000	226.501878 
668.000000	221.938810 
668.500000	216.363045 
669.000000	211.506825 
669.500000	208.731121 
670.000000	206.573560 
670.500000	202.688416 
671.000000	197.403212 
671.500000	191.901833 
672.000000	187.623909 
672.500000	183.920598 
673.000000	180.315537 
673.500000	176.423348 
674.000000	172.301204 
674.500000	168.210553 
675.000000	164.718916 
675.500000	160.615681 
676.000000	155.562227 
676.500000	150.007113 
677.000000	145.154666 
677.500000	141.602545 
678.000000	138.145719 
678.500000	133.943621 
679.000000	129.493136 
679.500000	126.117446 
680.000000	123.780757 
680.500000	121.533590 
681.000000	118.473340 
681.500000	114.839537 
682.000000	111.268000 
682.500000	107.412969 
683.000000	104.544196 
683.500000	101.439333 
684.000000	98.386598  
684.500000	95.568015  
685.000000	93.198234  
685.500000	90.013757  
686.000000	86.246303  
686.500000	82.507174  
687.000000	79.786659  
687.500000	77.991098  
688.000000	76.858143  
688.500000	75.578181  
689.000000	73.706401  
689.500000	70.982787  
690.000000	68.678068  
690.500000	66.370780  
691.000000	63.818431  
691.500000	61.066840  
692.000000	59.151522  
692.500000	57.783272  
693.000000	56.679469  
693.500000	55.142795  
694.000000	53.033992  
694.500000	50.935583  
695.000000	49.274007  
695.500000	47.983363  
696.000000	47.100393  
696.500000	46.025901  
697.000000	44.658818  
697.500000	43.032621  
698.000000	41.326196  
698.500000	39.833098  
699.000000	38.428606  
699.500000	37.233068  
700.000000	35.879878  
700.500000	34.762704  
701.000000	33.504621  
701.500000	32.949174  
702.000000	32.304901  
702.500000	31.873530  
703.000000	31.225969  
703.500000	30.638628  
704.000000	29.898984  
704.500000	29.197613  
705.000000	28.235984  
705.500000	26.995643  
706.000000	25.795159  
706.500000	25.140590  
707.000000	25.158893  
707.500000	25.208234  
708.000000	24.885227  
708.500000	23.911795  
709.000000	22.923825  
709.500000	22.069962  
710.000000	21.505174  
710.500000	20.703090  
711.000000	19.986310  
711.500000	19.812810  
712.000000	20.056787  
712.500000	20.474462  
713.000000	20.271318  
713.500000	19.608189  
714.000000	18.361916  
714.500000	17.693325  
715.000000	17.418371  
715.500000	17.541696  
716.000000	17.036969  
716.500000	16.276727  
717.000000	15.639053  
717.500000	15.421356  
718.000000	15.219984  
718.500000	14.909363  
719.000000	14.501083  
719.500000	14.280136  
720.000000	14.123242  
720.500000	13.900962  
721.000000	13.435098  
721.500000	12.992318  
722.000000	12.760787  
722.500000	12.525318  
723.000000	12.114901  
723.500000	11.680075  
724.000000	11.555787  
724.500000	11.502818  
725.000000	11.374196  
725.500000	11.128348  
726.000000	10.928318  
726.500000	10.748303  
727.000000	10.543409  
727.500000	10.443090  
728.000000	10.058015  
728.500000	9.604818   
729.000000	9.466045   
729.500000	9.709651   
730.000000	9.762499   
730.500000	9.442083   
731.000000	8.918499   
731.500000	8.658795   
732.000000	8.449068   
732.500000	8.418628   
733.000000	8.413696   
733.500000	8.353568   
734.000000	8.047136   
734.500000	7.820340   
735.000000	7.711416   
735.500000	7.540651   
736.000000	7.510424   
736.500000	7.301393   
737.000000	7.267878   
737.500000	7.074151   
738.000000	6.952590   
738.500000	6.701045   
739.000000	6.768765   
739.500000	7.152318   
740.000000	7.552439   
740.500000	7.511954   
741.000000	6.992651   
741.500000	6.590659   
742.000000	6.212477   
742.500000	6.183515   
743.000000	6.138651   
743.500000	6.216689   
744.000000	6.076234   
744.500000	6.115772   
745.000000	6.039977   
745.500000	6.016613   
746.000000	5.809356   
746.500000	5.611272   
747.000000	5.348704   
747.500000	5.196386   
748.000000	5.260628   
748.500000	5.331356   
749.000000	5.408174   
749.500000	5.337060   
750.000000	5.284583   
750.500000	5.085924   
751.000000	4.925204   
751.500000	4.756939   
752.000000	5.003825   
752.500000	5.255310   
753.000000	5.481886   
753.500000	5.304371   
754.000000	5.130825   
754.500000	4.964560   
755.000000	4.765916   
755.500000	4.445992   
756.000000	4.268992   
756.500000	4.255795   
757.000000	4.112386   
757.500000	4.036810   
758.000000	4.049590   
758.500000	4.235030   
759.000000	4.353083   
759.500000	4.468818   
760.000000	4.404174   
760.500000	4.230439   
761.000000	3.927954   
761.500000	3.719121   
762.000000	3.633931   
762.500000	3.642765   
763.000000	3.887916   
763.500000	4.140772   
764.000000	4.293015   
764.500000	4.150530   
765.000000	4.053636   
765.500000	4.068962   
766.000000	4.168242   
766.500000	4.127636   
767.000000	3.926833   
767.500000	3.802030   
768.000000	3.606742   
768.500000	3.457340   
769.000000	3.333712   
769.500000	3.498113   
770.000000	3.759143   
770.500000	3.712068   
771.000000	3.435583   
771.500000	3.243310   
772.000000	3.353931   
772.500000	3.420969   
773.000000	3.300409   
773.500000	3.114537   
774.000000	3.113696   
774.500000	3.178765   
775.000000	3.113265   
775.500000	2.981333   
776.000000	2.875803   
776.500000	2.937121   
777.000000	3.077583   
777.500000	3.172818   
778.000000	3.165795   
778.500000	3.068234   
779.000000	2.998234   
779.500000	3.011803   
780.000000	3.062787   
780.500000	3.162196   
781.000000	3.248810   
781.500000	3.320977   
782.000000	3.283318   
782.500000	3.257492   
783.000000	3.207719   
783.500000	3.178242   
784.000000	3.058416   
784.500000	2.940128   
785.000000	2.916492   
785.500000	2.991712   
786.000000	3.034386   
786.500000	2.980075   
787.000000	2.864803   
787.500000	2.800530   
788.000000	2.857113   
788.500000	2.863037   
789.000000	2.821196   
789.500000	2.768257   
790.000000	2.872250   
790.500000	2.945931   
791.000000	2.880924   
791.500000	2.611507   
792.000000	2.425371   
792.500000	2.487340   
793.000000	2.678037   
793.500000	2.782287   
794.000000	2.682204   
794.500000	2.570946   
795.000000	2.472242   
795.500000	2.505431   
796.000000	2.559151   
796.500000	2.457068   
797.000000	2.232606   
797.500000	2.045500   
798.000000	2.129075   
798.500000	2.216818   
799.000000	2.169045   
799.500000	2.097628   
800.000000	2.268818   
800.500000	2.288969   
801.000000	2.127303   
801.500000	2.012704   
802.000000	2.188227   
802.500000	2.332909   
803.000000	2.291446   
803.500000	2.045431   
804.000000	1.866530   
804.500000	1.813560   
805.000000	1.931575   
805.500000	2.045196   
806.000000	2.054068   
806.500000	1.890318   
807.000000	1.863325   
807.500000	1.916893   
808.000000	1.823106   
808.500000	1.541272   
809.000000	1.463840   
809.500000	1.686454   
810.000000	1.976265   
810.500000	2.013371   
811.000000	1.863719   
811.500000	1.757969   
812.000000	1.755848   
812.500000	1.821196   
813.000000	1.910590   
813.500000	1.921901   
814.000000	1.796939   
814.500000	1.603272   
815.000000	1.387000   
815.500000	1.301318   
816.000000	1.374409   
816.500000	1.636204   
817.000000	1.757189   
817.500000	1.706484   
818.000000	1.604636   
818.500000	1.637871   
819.000000	1.652696   
819.500000	1.624522   
820.000000	1.620174   
820.500000	1.888439   
821.000000	2.180446   
821.500000	2.334765   
822.000000	2.279931   
822.500000	2.060568   
823.000000	1.802621   
823.500000	1.803181   
824.000000	2.139007   
824.500000	2.466318   
825.000000	2.612401   
825.500000	2.510962   
826.000000	2.342651   
826.500000	2.173340   
827.000000	2.059333   
827.500000	2.010060   
828.000000	1.915613   
828.500000	1.755803   
829.000000	1.651848   
829.500000	1.475310   
830.000000	1.304227   
830.500000	1.214916   
831.000000	1.310772   
831.500000	1.297007   
832.000000	1.250000   
832.500000	1.160439   
833.000000	1.158772   
833.500000	1.113136   
834.000000	1.024893   
834.500000	1.049007   
835.000000	1.174113   
835.500000	1.212659   
836.000000	0.984856   
836.500000	0.818280   
837.000000	0.899174   
837.500000	1.162810   
838.000000	1.193530   
838.500000	1.031780   
839.000000	0.850924   
839.500000	0.828424   
840.000000	0.820901   
840.500000	0.865128   
841.000000	0.872310   
841.500000	0.767386   
842.000000	0.599045   
842.500000	0.525469   
843.000000	0.597174   
843.500000	0.652136   
844.000000	0.642992   
844.500000	0.491606   
845.000000	0.392295   
845.500000	0.303409   
846.000000	0.339757   
846.500000	0.254833   
847.000000	0.124310   
847.500000	-0.017628  
848.000000	0.069643   
848.500000	0.149537   
849.000000	0.153719   
849.500000	0.002166   
850.000000	0.024878   
850.500000	0.091121   
851.000000	0.201765   
851.500000	0.188030   
852.000000	0.183348   
852.500000	0.138121   
853.000000	0.203007   
853.500000	0.251378   
854.000000	0.273242   
854.500000	0.185204   
855.000000	0.171015   
855.500000	0.286249   
856.000000	0.339810   
856.500000	0.229174   
857.000000	0.075106   
857.500000	-0.010530  
858.000000	-0.006000  
858.500000	0.036212   
859.000000	0.099037   
859.500000	0.054848   
860.000000	-0.025386  
860.500000	-0.116106  
861.000000	-0.057984  
861.500000	-0.049363  
862.000000	-0.006537  
862.500000	0.048666   
863.000000	0.128575   
863.500000	0.134507   
864.000000	0.077613   
864.500000	-0.084636  
865.000000	-0.310590  
865.500000	-0.418219  
866.000000	-0.259484  
866.500000	0.031166   
867.000000	0.127371   
867.500000	0.045401   
868.000000	-0.015280  
868.500000	0.023371   
869.000000	0.053174   
869.500000	0.054151   
870.000000	0.032227   
870.500000	0.018856   
871.000000	0.033727   
871.500000	0.085469   
872.000000	0.145568   
872.500000	0.157181   
873.000000	0.149575   
873.500000	0.158287   
874.000000	0.195931   
874.500000	0.155651   
875.000000	0.065575   
875.500000	-0.024000  
876.000000	-0.027106  
876.500000	0.008053   
877.000000	-0.017568  
877.500000	-0.101416  
878.000000	-0.153765  
878.500000	-0.110469  
879.000000	-0.058227  
879.500000	-0.027765  
880.000000	-0.056310  
880.500000	-0.022424  
881.000000	0.063893   
881.500000	0.113280   
882.000000	0.053484   
882.500000	-0.039560  
883.000000	-0.078227  
883.500000	-0.016265  
884.000000	0.007325   
884.500000	-0.044969  
885.000000	-0.115984  
885.500000	-0.064045  
886.000000	-0.014174  
886.500000	0.001696   
887.000000	-0.083606  
887.500000	-0.069378  
888.000000	-0.090287  
888.500000	-0.158416  
889.000000	-0.284795  
889.500000	-0.247893  
890.000000	-0.134522  
890.500000	0.001522   
891.000000	-0.010416  
891.500000	-0.110575  
892.000000	-0.227568  
892.500000	-0.230000  
893.000000	-0.120303  
893.500000	-0.036704  
894.000000	-0.080613  
894.500000	-0.156537  
895.000000	-0.162113  
895.500000	-0.113325  
896.000000	-0.038454  
896.500000	-0.003356  
897.000000	-0.029484  
897.500000	-0.092159  

