PE FL                   SPECTRUM    ASCII       PEDS        1.60        
  -1
SA9391~1.SP
24/04/12
16:16:17.00
24/04/12
16:16:17.00
Jan

897.500000
1









LS55
405.00
5.00
5.00
SCAN
1
20
100
100
0
400
0
1
0
1
5
ON
450 405 
1 0 0
#HDR
-1
-1
#GR
NM

0.00002384185791015625
0.0
450.000000
0.500000
896
8
331.305803
-0.321560
#DATA
450.000000	0.032000   
450.500000	0.089787   
451.000000	0.004106   
451.500000	-0.108295  
452.000000	-0.006598  
452.500000	0.133143   
453.000000	0.280742   
453.500000	0.244469   
454.000000	0.137265   
454.500000	-0.111454  
455.000000	-0.261515  
455.500000	-0.147037  
456.000000	0.150924   
456.500000	0.385363   
457.000000	0.333575   
457.500000	0.084250   
458.000000	-0.148378  
458.500000	-0.159477  
459.000000	0.024522   
459.500000	0.247575   
460.000000	0.331613   
460.500000	0.334090   
461.000000	0.201083   
461.500000	0.019810   
462.000000	-0.162553  
462.500000	-0.036424  
463.000000	0.173121   
463.500000	0.374909   
464.000000	0.303090   
464.500000	0.227272   
465.000000	0.189893   
465.500000	0.259643   
466.000000	0.191833   
466.500000	-0.013871  
467.000000	-0.236575  
467.500000	-0.321560  
468.000000	-0.243848  
468.500000	-0.000030  
469.000000	0.220022   
469.500000	0.327371   
470.000000	0.245583   
470.500000	0.056757   
471.000000	-0.032068  
471.500000	-0.091454  
472.000000	-0.077083  
472.500000	-0.009015  
473.000000	0.199871   
473.500000	0.364863   
474.000000	0.442704   
474.500000	0.460060   
475.000000	0.445780   
475.500000	0.367333   
476.000000	0.237325   
476.500000	0.161946   
477.000000	0.180159   
477.500000	0.088765   
478.000000	-0.036212  
478.500000	-0.107992  
479.000000	-0.014765  
479.500000	0.101098   
480.000000	0.124712   
480.500000	0.131916   
481.000000	0.131030   
481.500000	0.324590   
482.000000	0.298621   
482.500000	0.178280   
483.000000	0.065984   
483.500000	0.248856   
484.000000	0.314083   
484.500000	0.308734   
485.000000	0.300909   
485.500000	0.413659   
486.000000	0.408227   
486.500000	0.396090   
487.000000	0.341007   
487.500000	0.326856   
488.000000	0.154121   
488.500000	0.032757   
489.000000	-0.046825  
489.500000	-0.014606  
490.000000	0.055946   
490.500000	0.168545   
491.000000	0.163575   
491.500000	-0.018681  
492.000000	-0.228833  
492.500000	-0.190022  
493.000000	0.061310   
493.500000	0.296803   
494.000000	0.292803   
494.500000	0.197151   
495.000000	0.211325   
495.500000	0.332553   
496.000000	0.344265   
496.500000	0.286553   
497.000000	0.277098   
497.500000	0.368204   
498.000000	0.458674   
498.500000	0.377962   
499.000000	0.226795   
499.500000	0.198295   
500.000000	0.353416   
500.500000	0.618424   
501.000000	0.709151   
501.500000	0.591810   
502.000000	0.443878   
502.500000	0.583378   
503.000000	0.697590   
503.500000	0.720628   
504.000000	0.576689   
504.500000	0.666893   
505.000000	0.781931   
505.500000	0.848068   
506.000000	0.637295   
506.500000	0.501803   
507.000000	0.609181   
507.500000	0.975462   
508.000000	1.215818   
508.500000	1.202522   
509.000000	0.971537   
509.500000	0.799454   
510.000000	0.835272   
510.500000	0.985106   
511.000000	1.148287   
511.500000	1.107689   
512.000000	1.092742   
512.500000	1.054833   
513.000000	1.094356   
513.500000	1.046272   
514.000000	1.193181   
514.500000	1.274878   
515.000000	1.455621   
515.500000	1.681651   
516.000000	1.983734   
516.500000	2.072530   
517.000000	1.976303   
517.500000	1.927416   
518.000000	2.033803   
518.500000	2.075696   
519.000000	1.943560   
519.500000	1.950780   
520.000000	2.133568   
520.500000	2.410931   
521.000000	2.543719   
521.500000	2.631621   
522.000000	2.639295   
522.500000	2.456424   
523.000000	2.207810   
523.500000	2.118265   
524.000000	2.320196   
524.500000	2.433871   
525.000000	2.553287   
525.500000	2.659742   
526.000000	2.929265   
526.500000	3.017810   
527.000000	3.021590   
527.500000	3.021212   
528.000000	3.211772   
528.500000	3.521250   
529.000000	3.974757   
529.500000	4.297651   
530.000000	4.311659   
530.500000	4.249568   
531.000000	4.492727   
531.500000	4.959977   
532.000000	5.280356   
532.500000	5.501325   
533.000000	5.767999   
533.500000	6.018696   
534.000000	5.957128   
534.500000	6.066030   
535.000000	6.562431   
535.500000	7.180810   
536.000000	7.344818   
536.500000	7.275863   
537.000000	7.267590   
537.500000	7.600545   
538.000000	8.112613   
538.500000	8.990477   
539.000000	9.681098   
539.500000	10.071204  
540.000000	10.215409  
540.500000	10.199310  
541.000000	10.196227  
541.500000	10.191712  
542.000000	10.446242  
542.500000	10.758666  
543.000000	11.186000  
543.500000	11.578939  
544.000000	11.858477  
544.500000	11.566681  
545.000000	11.116954  
545.500000	11.070696  
546.000000	11.221348  
546.500000	11.646696  
547.000000	12.048734  
547.500000	12.287893  
548.000000	11.960795  
548.500000	11.479666  
549.000000	11.215083  
549.500000	11.363007  
550.000000	11.637537  
550.500000	12.008750  
551.000000	12.151265  
551.500000	12.021053  
552.000000	12.028636  
552.500000	12.367833  
553.000000	12.635007  
553.500000	12.609128  
554.000000	12.522000  
554.500000	12.510310  
555.000000	12.320803  
555.500000	12.198295  
556.000000	12.343106  
556.500000	12.649340  
557.000000	13.015189  
557.500000	13.472106  
558.000000	14.434916  
558.500000	15.301553  
559.000000	15.695522  
559.500000	15.405515  
560.000000	15.098000  
560.500000	14.736818  
561.000000	14.857719  
561.500000	15.444143  
562.000000	16.242696  
562.500000	16.739507  
563.000000	16.949916  
563.500000	17.233295  
564.000000	17.976772  
564.500000	18.634643  
565.000000	19.237833  
565.500000	19.557348  
566.000000	20.279159  
566.500000	20.824780  
567.000000	21.147803  
567.500000	20.732666  
568.000000	20.607340  
568.500000	21.074787  
569.000000	21.998674  
569.500000	22.909242  
570.000000	23.683598  
570.500000	24.587090  
571.000000	25.383386  
571.500000	25.973113  
572.000000	26.495810  
572.500000	26.828045  
573.000000	27.209583  
573.500000	27.611515  
574.000000	28.741598  
574.500000	29.761128  
575.000000	30.179530  
575.500000	29.760416  
576.000000	29.537242  
576.500000	29.945356  
577.000000	30.390424  
577.500000	30.914787  
578.000000	31.532022  
578.500000	32.945674  
579.000000	34.227696  
579.500000	35.294977  
580.000000	35.572689  
580.500000	35.479469  
581.000000	35.473121  
581.500000	35.844886  
582.000000	36.495037  
582.500000	37.124750  
583.000000	38.053227  
583.500000	39.185606  
584.000000	40.197272  
584.500000	40.591446  
585.000000	41.175946  
585.500000	42.305886  
586.000000	43.282681  
586.500000	43.918530  
587.000000	44.769045  
587.500000	45.925113  
588.000000	46.853356  
588.500000	47.570128  
589.000000	48.965598  
589.500000	50.749030  
590.000000	51.576136  
590.500000	51.550803  
591.000000	52.292159  
591.500000	54.294765  
592.000000	56.586454  
592.500000	57.751053  
593.000000	57.889598  
593.500000	57.947689  
594.000000	59.084030  
594.500000	61.038045  
595.000000	63.100287  
595.500000	64.661598  
596.000000	66.309378  
596.500000	67.941545  
597.000000	68.553250  
597.500000	68.568878  
598.000000	69.086053  
598.500000	71.338075  
599.000000	74.121939  
599.500000	76.543984  
600.000000	77.507606  
600.500000	77.924439  
601.000000	78.619439  
601.500000	80.291121  
602.000000	82.448265  
602.500000	83.317090  
603.000000	84.002098  
603.500000	84.689765  
604.000000	87.153621  
604.500000	89.479803  
605.000000	92.383681  
605.500000	94.290590  
606.000000	95.724931  
606.500000	97.229946  
607.000000	99.548772  
607.500000	102.642818 
608.000000	104.386098 
608.500000	105.704189 
609.000000	106.192325 
609.500000	108.350227 
610.000000	110.549916 
610.500000	113.394318 
611.000000	115.975757 
611.500000	119.271856 
612.000000	121.932151 
612.500000	124.238666 
613.000000	125.395257 
613.500000	126.417113 
614.000000	127.458522 
614.500000	129.274674 
615.000000	132.783719 
615.500000	137.245742 
616.000000	140.069621 
616.500000	142.137560 
617.000000	145.052348 
617.500000	148.621636 
618.000000	150.447530 
618.500000	151.840159 
619.000000	154.910227 
619.500000	159.990575 
620.000000	163.315742 
620.500000	165.557318 
621.000000	167.933507 
621.500000	171.389992 
622.000000	173.951863 
622.500000	176.396378 
623.000000	179.741833 
623.500000	184.078757 
624.000000	187.834613 
624.500000	191.067992 
625.000000	193.400075 
625.500000	195.586030 
626.000000	197.676931 
626.500000	200.863250 
627.000000	204.704643 
627.500000	208.916969 
628.000000	211.828568 
628.500000	215.191030 
629.000000	218.828431 
629.500000	223.199689 
630.000000	227.476628 
630.500000	230.700545 
631.000000	232.705643 
631.500000	235.502469 
632.000000	240.087310 
632.500000	245.420780 
633.000000	248.370765 
633.500000	250.649734 
634.000000	254.355719 
634.500000	259.958378 
635.000000	263.703492 
635.500000	265.672969 
636.000000	266.044431 
636.500000	267.698143 
637.000000	271.285340 
637.500000	276.248265 
638.000000	281.165136 
638.500000	285.026643 
639.000000	287.843825 
639.500000	290.191189 
640.000000	293.050234 
640.500000	295.659666 
641.000000	297.915606 
641.500000	299.646371 
642.000000	301.840295 
642.500000	304.906333 
643.000000	307.969909 
643.500000	311.165287 
644.000000	314.270363 
644.500000	317.068409 
645.000000	318.814318 
645.500000	319.791659 
646.000000	320.183037 
646.500000	320.603212 
647.000000	322.623393 
647.500000	324.239454 
648.000000	324.862295 
648.500000	323.822098 
649.000000	323.527757 
649.500000	323.989878 
650.000000	325.546803 
650.500000	327.477795 
651.000000	329.770598 
651.500000	331.261757 
652.000000	331.305803 
652.500000	328.948257 
653.000000	326.493166 
653.500000	325.994893 
654.000000	327.323704 
654.500000	328.058166 
655.000000	326.554659 
655.500000	325.148780 
656.000000	323.667378 
656.500000	323.195833 
657.000000	322.167015 
657.500000	322.885772 
658.000000	322.695742 
658.500000	322.368848 
659.000000	320.348992 
659.500000	316.886727 
660.000000	312.836462 
660.500000	309.807598 
661.000000	308.814090 
661.500000	306.600893 
662.000000	302.852696 
662.500000	299.317363 
663.000000	297.554325 
663.500000	294.994530 
664.000000	290.414113 
664.500000	286.137666 
665.000000	283.898462 
665.500000	282.191409 
666.000000	277.457477 
666.500000	271.638386 
667.000000	266.552962 
667.500000	263.435833 
668.000000	259.999348 
668.500000	255.694204 
669.000000	251.302871 
669.500000	248.095787 
670.000000	245.105159 
670.500000	240.804909 
671.000000	234.135310 
671.500000	226.802189 
672.000000	220.854280 
672.500000	216.106446 
673.000000	211.361787 
673.500000	206.493606 
674.000000	201.803363 
674.500000	198.317492 
675.000000	194.147757 
675.500000	188.698810 
676.000000	182.895325 
676.500000	178.024659 
677.000000	174.044378 
677.500000	169.615909 
678.000000	164.342583 
678.500000	159.254840 
679.000000	155.077424 
679.500000	151.021500 
680.000000	146.843280 
680.500000	142.995022 
681.000000	139.201757 
681.500000	134.767431 
682.000000	129.181363 
682.500000	124.386409 
683.000000	121.101484 
683.500000	118.795287 
684.000000	116.037651 
684.500000	112.812863 
685.000000	109.405946 
685.500000	105.743515 
686.000000	102.396977 
686.500000	99.885113  
687.000000	97.757068  
687.500000	95.008560  
688.000000	91.753128  
688.500000	88.127765  
689.000000	85.192939  
689.500000	82.326272  
690.000000	80.019022  
690.500000	77.434946  
691.000000	75.201227  
691.500000	72.990818  
692.000000	71.192515  
692.500000	69.725151  
693.000000	67.875416  
693.500000	65.332159  
694.000000	61.873295  
694.500000	59.345409  
695.000000	57.736431  
695.500000	57.071659  
696.000000	55.832931  
696.500000	54.622143  
697.000000	52.915340  
697.500000	50.921083  
698.000000	48.859189  
698.500000	47.486530  
699.000000	46.239553  
699.500000	44.776053  
700.000000	43.422446  
700.500000	42.573636  
701.000000	41.795840  
701.500000	40.201333  
702.000000	38.475250  
702.500000	36.918204  
703.000000	35.889462  
703.500000	35.047265  
704.000000	34.560181  
704.500000	33.990863  
705.000000	32.992378  
705.500000	31.784106  
706.000000	30.742340  
706.500000	30.189780  
707.000000	29.721825  
707.500000	29.264795  
708.000000	28.636909  
708.500000	27.819575  
709.000000	26.857098  
709.500000	26.043060  
710.000000	25.346424  
710.500000	24.690189  
711.000000	23.948462  
711.500000	23.401530  
712.000000	23.015886  
712.500000	22.832098  
713.000000	22.408825  
713.500000	22.122840  
714.000000	21.663575  
714.500000	20.965818  
715.000000	19.930916  
715.500000	19.118068  
716.000000	18.709128  
716.500000	18.329984  
717.000000	17.802954  
717.500000	17.152916  
718.000000	17.069939  
718.500000	16.690643  
719.000000	16.189446  
719.500000	15.283916  
720.000000	15.116742  
720.500000	14.852128  
721.000000	14.565553  
721.500000	13.820750  
722.000000	13.881719  
722.500000	14.218227  
723.000000	14.369780  
723.500000	13.769068  
724.000000	13.074303  
724.500000	12.714113  
725.000000	12.640984  
725.500000	12.617090  
726.000000	12.500083  
726.500000	12.610469  
727.000000	12.725522  
727.500000	12.646901  
728.000000	12.128931  
728.500000	11.520000  
729.000000	11.088871  
729.500000	10.947568  
730.000000	10.707946  
730.500000	10.520598  
731.000000	10.218189  
731.500000	9.933734   
732.000000	9.479386   
732.500000	9.291484   
733.000000	9.329515   
733.500000	9.423303   
734.000000	9.205969   
734.500000	8.647151   
735.000000	8.263893   
735.500000	7.974431   
736.000000	8.079189   
736.500000	8.055712   
737.000000	7.988522   
737.500000	7.628863   
738.000000	7.579545   
738.500000	7.683287   
739.000000	7.944227   
739.500000	7.967371   
740.000000	7.787878   
740.500000	7.816704   
741.000000	7.983795   
741.500000	7.942136   
742.000000	7.400651   
742.500000	7.013007   
743.000000	7.003431   
743.500000	7.208287   
744.000000	6.744189   
744.500000	6.244840   
745.000000	6.099522   
745.500000	6.370946   
746.000000	6.444022   
746.500000	6.315833   
747.000000	6.086174   
747.500000	6.059621   
748.000000	6.213166   
748.500000	6.371272   
749.000000	6.475893   
749.500000	6.392719   
750.000000	6.084484   
750.500000	5.663136   
751.000000	5.353174   
751.500000	5.396212   
752.000000	5.588212   
752.500000	5.508249   
753.000000	5.120333   
753.500000	4.796992   
754.000000	4.616969   
754.500000	4.468727   
755.000000	4.241303   
755.500000	4.055242   
756.000000	4.070325   
756.500000	4.328636   
757.000000	4.698310   
757.500000	5.032280   
758.000000	4.991242   
758.500000	4.783136   
759.000000	4.616143   
759.500000	4.644181   
760.000000	4.727371   
760.500000	4.563257   
761.000000	4.339340   
761.500000	4.219537   
762.000000	4.347075   
762.500000	4.412060   
763.000000	4.242265   
763.500000	3.892643   
764.000000	3.774765   
764.500000	3.819060   
765.000000	3.877893   
765.500000	3.902833   
766.000000	3.976787   
766.500000	4.202984   
767.000000	4.264098   
767.500000	4.022090   
768.000000	3.671356   
768.500000	3.417000   
769.000000	3.295613   
769.500000	3.369424   
770.000000	3.576537   
770.500000	3.833030   
771.000000	3.829613   
771.500000	3.548515   
772.000000	3.270969   
772.500000	3.185704   
773.000000	3.223749   
773.500000	3.336734   
774.000000	3.350378   
774.500000	3.412893   
775.000000	3.491378   
775.500000	3.573106   
776.000000	3.465727   
776.500000	3.294196   
777.000000	3.231621   
777.500000	3.367575   
778.000000	3.437431   
778.500000	3.330204   
779.000000	3.198068   
779.500000	3.093416   
780.000000	3.034037   
780.500000	2.991272   
781.000000	2.899515   
781.500000	2.903416   
782.000000	2.931962   
782.500000	2.995045   
783.000000	3.001098   
783.500000	3.008886   
784.000000	2.978106   
784.500000	2.920939   
785.000000	2.767916   
785.500000	2.645583   
786.000000	2.675348   
786.500000	2.842037   
787.000000	2.994295   
787.500000	3.070878   
788.000000	3.043636   
788.500000	3.029416   
789.000000	2.989469   
789.500000	2.930166   
790.000000	2.782969   
790.500000	2.752507   
791.000000	2.817840   
791.500000	2.899772   
792.000000	2.874696   
792.500000	2.837272   
793.000000	2.827189   
793.500000	2.846121   
794.000000	2.854598   
794.500000	2.823560   
795.000000	2.842106   
795.500000	2.838666   
796.000000	2.841446   
796.500000	2.665863   
797.000000	2.468219   
797.500000	2.497136   
798.000000	2.746537   
798.500000	2.921628   
799.000000	2.798886   
799.500000	2.548090   
800.000000	2.260734   
800.500000	1.988386   
801.000000	1.841946   
801.500000	1.902060   
802.000000	2.030106   
802.500000	2.067992   
803.000000	2.064053   
803.500000	2.013613   
804.000000	2.069431   
804.500000	2.068848   
805.000000	2.058666   
805.500000	1.954643   
806.000000	2.011121   
806.500000	2.038507   
807.000000	2.002840   
807.500000	1.601015   
808.000000	1.370250   
808.500000	1.334689   
809.000000	1.603015   
809.500000	1.777712   
810.000000	1.892613   
810.500000	1.918522   
811.000000	1.918159   
811.500000	1.773409   
812.000000	1.603424   
812.500000	1.430265   
813.000000	1.357272   
813.500000	1.442340   
814.000000	1.759469   
814.500000	2.085363   
815.000000	2.144962   
815.500000	1.943689   
816.000000	1.826143   
816.500000	1.845318   
817.000000	1.843333   
817.500000	1.661007   
818.000000	1.552621   
818.500000	1.535439   
819.000000	1.703234   
819.500000	1.746212   
820.000000	1.785659   
820.500000	1.727136   
821.000000	1.858886   
821.500000	1.961909   
822.000000	2.048151   
822.500000	1.968712   
823.000000	2.047090   
823.500000	2.183272   
824.000000	2.378689   
824.500000	2.341212   
825.000000	2.370803   
825.500000	2.356242   
826.000000	2.453750   
826.500000	2.496772   
827.000000	2.582333   
827.500000	2.530265   
828.000000	2.302333   
828.500000	1.958477   
829.000000	1.606818   
829.500000	1.432780   
830.000000	1.501219   
830.500000	1.679000   
831.000000	1.718356   
831.500000	1.477386   
832.000000	1.245681   
832.500000	1.177371   
833.000000	1.228856   
833.500000	1.231462   
834.000000	1.198204   
834.500000	1.176143   
835.000000	1.131340   
835.500000	1.084015   
836.000000	1.016840   
836.500000	0.966590   
837.000000	0.933871   
837.500000	0.892409   
838.000000	0.917128   
838.500000	0.886916   
839.000000	0.820159   
839.500000	0.736098   
840.000000	0.814757   
840.500000	0.889840   
841.000000	0.808000   
841.500000	0.595583   
842.000000	0.534136   
842.500000	0.627931   
843.000000	0.745310   
843.500000	0.730363   
844.000000	0.646606   
844.500000	0.547825   
845.000000	0.589363   
845.500000	0.745219   
846.000000	0.856098   
846.500000	0.760007   
847.000000	0.551636   
847.500000	0.454659   
848.000000	0.427401   
848.500000	0.380484   
849.000000	0.373719   
849.500000	0.426439   
850.000000	0.390143   
850.500000	0.198924   
851.000000	-0.020878  
851.500000	-0.082037  
852.000000	-0.004416  
852.500000	0.012250   
853.000000	-0.004295  
853.500000	0.026393   
854.000000	0.196568   
854.500000	0.211803   
855.000000	0.155727   
855.500000	0.045916   
856.000000	0.124681   
856.500000	0.137954   
857.000000	0.161045   
857.500000	0.142621   
858.000000	0.148363   
858.500000	0.042378   
859.000000	-0.057916  
859.500000	-0.092439  
860.000000	-0.131719  
860.500000	-0.192219  
861.000000	-0.188575  
861.500000	-0.093356  
862.000000	-0.009916  
862.500000	0.020522   
863.000000	0.021946   
863.500000	-0.005924  
864.000000	-0.103863  
864.500000	-0.206416  
865.000000	-0.164992  
865.500000	0.016939   
866.000000	0.114969   
866.500000	0.108325   
867.000000	0.070833   
867.500000	0.061772   
868.000000	-0.030734  
868.500000	-0.082507  
869.000000	0.010924   
869.500000	0.197106   
870.000000	0.209742   
870.500000	0.069151   
871.000000	-0.038469  
871.500000	-0.022030  
872.000000	0.064159   
872.500000	0.070848   
873.000000	-0.032598  
873.500000	-0.152651  
874.000000	-0.158848  
874.500000	-0.064765  
875.000000	0.115992   
875.500000	0.269924   
876.000000	0.285424   
876.500000	0.125704   
877.000000	-0.075212  
877.500000	-0.138560  
878.000000	-0.073954  
878.500000	-0.113696  
879.000000	-0.240189  
879.500000	-0.265280  
880.000000	-0.113280  
880.500000	0.051242   
881.000000	0.082901   
881.500000	0.017356   
882.000000	0.025840   
882.500000	0.032363   
883.000000	-0.009689  
883.500000	-0.039416  
884.000000	-0.026318  
884.500000	-0.065272  
885.000000	-0.086500  
885.500000	-0.071560  
886.000000	0.063477   
886.500000	0.126204   
887.000000	0.115734   
887.500000	0.013636   
888.000000	-0.048219  
888.500000	-0.045333  
889.000000	-0.081856  
889.500000	-0.204212  
890.000000	-0.320340  
890.500000	-0.263598  
891.000000	-0.153348  
891.500000	-0.032136  
892.000000	-0.005924  
892.500000	0.011871   
893.000000	-0.015030  
893.500000	-0.024674  
894.000000	-0.025666  
894.500000	-0.131651  
895.000000	-0.248719  
895.500000	-0.211265  
896.000000	-0.016212  
896.500000	0.055969   
897.000000	0.065568   
897.500000	0.063575   

