PE FL                   SPECTRUM    ASCII       PEDS        1.60        
  -1
SA93A5~1.SP
24/04/12
16:33:23.00
24/04/12
16:33:23.00
Jan

897.500000
1









LS55
405.00
5.00
5.00
SCAN
1
20
100
100
0
400
0
1
0
1
5
ON
450 405 
1 0 0
#HDR
-1
-1
#GR
NM

0.00002384185791015625
0.0
450.000000
0.500000
896
8
272.462356
-0.705999
#DATA
450.000000	-0.705999  
450.500000	-0.064227  
451.000000	0.180560   
451.500000	0.070878   
452.000000	0.011219   
452.500000	-0.098772  
453.000000	-0.144787  
453.500000	-0.046787  
454.000000	0.170750   
454.500000	0.202946   
455.000000	0.077318   
455.500000	0.021363   
456.000000	-0.010166  
456.500000	-0.020628  
457.000000	-0.039310  
457.500000	-0.000022  
458.000000	0.039106   
458.500000	0.050651   
459.000000	0.037954   
459.500000	-0.084628  
460.000000	-0.222015  
460.500000	-0.286015  
461.000000	-0.257340  
461.500000	-0.281295  
462.000000	-0.384568  
462.500000	-0.334886  
463.000000	-0.142424  
463.500000	-0.012128  
464.000000	-0.092545  
464.500000	-0.116212  
465.000000	-0.105484  
465.500000	-0.028803  
466.000000	-0.059992  
466.500000	-0.031909  
467.000000	0.062234   
467.500000	0.117939   
468.000000	0.128727   
468.500000	0.195204   
469.000000	0.209492   
469.500000	0.163772   
470.000000	0.171530   
470.500000	0.243750   
471.000000	0.236037   
471.500000	0.122787   
472.000000	-0.005871  
472.500000	-0.094189  
473.000000	-0.148560  
473.500000	-0.111537  
474.000000	-0.015727  
474.500000	0.160863   
475.000000	0.247939   
475.500000	0.314924   
476.000000	0.189606   
476.500000	0.084886   
477.000000	-0.114484  
477.500000	-0.152196  
478.000000	-0.217159  
478.500000	-0.103204  
479.000000	0.046772   
479.500000	0.085333   
480.000000	0.034340   
480.500000	0.004416   
481.000000	0.062053   
481.500000	-0.023962  
482.000000	-0.081446  
482.500000	-0.227848  
483.000000	-0.196606  
483.500000	-0.208954  
484.000000	-0.076484  
484.500000	-0.018454  
485.000000	0.062295   
485.500000	0.053878   
486.000000	0.035242   
486.500000	-0.001090  
487.000000	-0.097878  
487.500000	-0.135174  
488.000000	-0.180075  
488.500000	-0.061121  
489.000000	0.121575   
489.500000	0.379780   
490.000000	0.352515   
490.500000	0.206719   
491.000000	0.066886   
491.500000	0.068719   
492.000000	0.121568   
492.500000	0.161939   
493.000000	0.247772   
493.500000	0.433181   
494.000000	0.455075   
494.500000	0.275712   
495.000000	0.049242   
495.500000	0.026568   
496.000000	0.120234   
496.500000	0.250803   
497.000000	0.256590   
497.500000	0.325818   
498.000000	0.262143   
498.500000	0.187795   
499.000000	0.160924   
499.500000	0.345924   
500.000000	0.503590   
500.500000	0.640583   
501.000000	0.725553   
501.500000	0.859090   
502.000000	0.749871   
502.500000	0.512848   
503.000000	0.352878   
503.500000	0.567416   
504.000000	0.792651   
504.500000	0.938727   
505.000000	0.870022   
505.500000	0.854272   
506.000000	0.723621   
506.500000	0.710393   
507.000000	0.745515   
507.500000	0.918121   
508.000000	0.932045   
508.500000	0.858189   
509.000000	0.718954   
509.500000	0.795871   
510.000000	0.941212   
510.500000	1.208628   
511.000000	1.256060   
511.500000	1.189666   
512.000000	1.010606   
512.500000	1.093765   
513.000000	1.203643   
513.500000	1.335719   
514.000000	1.384515   
514.500000	1.538825   
515.000000	1.694946   
515.500000	1.821628   
516.000000	1.944181   
516.500000	2.091560   
517.000000	2.034931   
517.500000	1.792924   
518.000000	1.607333   
518.500000	1.677492   
519.000000	1.838681   
519.500000	1.981174   
520.000000	2.032416   
520.500000	2.072606   
521.000000	2.059901   
521.500000	2.095893   
522.000000	2.156075   
522.500000	2.319363   
523.000000	2.498954   
523.500000	2.773840   
524.000000	2.877174   
524.500000	2.885037   
525.000000	2.824348   
525.500000	2.921083   
526.000000	3.257287   
526.500000	3.493954   
527.000000	3.541477   
527.500000	3.490590   
528.000000	3.627689   
528.500000	3.725818   
529.000000	3.912113   
529.500000	4.242310   
530.000000	4.708704   
530.500000	5.009704   
531.000000	5.103598   
531.500000	5.190151   
532.000000	5.273507   
532.500000	5.432037   
533.000000	5.738227   
533.500000	6.098628   
534.000000	6.373068   
534.500000	6.696772   
535.000000	6.982462   
535.500000	7.096742   
536.000000	7.195848   
536.500000	7.539833   
537.000000	7.919583   
537.500000	8.104909   
538.000000	8.354363   
538.500000	8.965386   
539.000000	9.643810   
539.500000	9.856068   
540.000000	9.905674   
540.500000	10.159712  
541.000000	10.549469  
541.500000	10.923833  
542.000000	11.249378  
542.500000	11.705075  
543.000000	11.979689  
543.500000	11.862833  
544.000000	11.510424  
544.500000	11.325787  
545.000000	11.405098  
545.500000	11.477083  
546.000000	11.491984  
546.500000	11.497795  
547.000000	11.788681  
547.500000	11.947143  
548.000000	11.743242  
548.500000	11.460696  
549.000000	11.498696  
549.500000	11.836303  
550.000000	11.830424  
550.500000	11.589734  
551.000000	11.275128  
551.500000	11.308810  
552.000000	11.575893  
552.500000	11.978333  
553.000000	12.110174  
553.500000	11.955363  
554.000000	11.686212  
554.500000	11.741606  
555.000000	12.257681  
555.500000	12.890795  
556.000000	13.255416  
556.500000	12.867196  
557.000000	12.403962  
557.500000	12.435234  
558.000000	13.091522  
558.500000	13.526037  
559.000000	13.831356  
559.500000	14.103818  
560.000000	14.783106  
560.500000	15.288878  
561.000000	15.485128  
561.500000	15.690106  
562.000000	16.020401  
562.500000	16.436901  
563.000000	16.643803  
563.500000	16.863303  
564.000000	17.177507  
564.500000	17.889924  
565.000000	18.663121  
565.500000	19.584340  
566.000000	20.228121  
566.500000	20.585318  
567.000000	20.989143  
567.500000	21.677863  
568.000000	22.545469  
568.500000	22.730431  
569.000000	22.687946  
569.500000	22.683507  
570.000000	23.232621  
570.500000	23.491575  
571.000000	23.993931  
571.500000	24.452007  
572.000000	25.200863  
572.500000	25.482590  
573.000000	25.773083  
573.500000	26.045651  
574.000000	26.455477  
574.500000	26.963992  
575.000000	27.836356  
575.500000	28.862356  
576.000000	29.671250  
576.500000	29.988719  
577.000000	30.031780  
577.500000	30.149765  
578.000000	30.312969  
578.500000	30.555242  
579.000000	31.125030  
579.500000	32.166022  
580.000000	33.073015  
580.500000	33.923340  
581.000000	34.726462  
581.500000	35.883068  
582.000000	36.688083  
582.500000	37.071818  
583.000000	37.304409  
583.500000	37.710772  
584.000000	38.341848  
584.500000	38.457272  
585.000000	38.771037  
585.500000	39.461424  
586.000000	40.985022  
586.500000	42.371045  
587.000000	43.300643  
587.500000	44.030484  
588.000000	44.977780  
588.500000	46.043166  
589.000000	46.544969  
589.500000	47.379719  
590.000000	48.543636  
590.500000	50.238598  
591.000000	51.572984  
591.500000	52.503393  
592.000000	53.455946  
592.500000	54.630583  
593.000000	55.804401  
593.500000	56.422242  
594.000000	56.578727  
594.500000	57.116795  
595.000000	58.854030  
595.500000	61.221446  
596.000000	62.916265  
596.500000	63.566643  
597.000000	63.942310  
597.500000	64.248787  
598.000000	65.042537  
598.500000	66.381643  
599.000000	67.976318  
599.500000	68.787219  
600.000000	69.410219  
600.500000	70.892780  
601.000000	73.255651  
601.500000	75.742083  
602.000000	77.608606  
602.500000	79.292401  
603.000000	80.450469  
603.500000	81.804386  
604.000000	83.247196  
604.500000	84.956227  
605.000000	85.737719  
605.500000	86.342363  
606.000000	86.783280  
606.500000	88.238068  
607.000000	89.704924  
607.500000	92.439371  
608.000000	95.233757  
608.500000	98.400621  
609.000000	100.196666 
609.500000	101.407007 
610.000000	102.730242 
610.500000	105.300795 
611.000000	108.017765 
611.500000	110.125265 
612.000000	111.714393 
612.500000	112.562386 
613.000000	113.865803 
613.500000	115.227378 
614.000000	117.283545 
614.500000	119.580719 
615.000000	121.945159 
615.500000	124.380696 
616.000000	127.040098 
616.500000	129.601689 
617.000000	131.781545 
617.500000	134.147015 
618.000000	136.836393 
618.500000	139.264000 
619.000000	141.265393 
619.500000	142.429500 
620.000000	144.481636 
620.500000	147.474712 
621.000000	151.782318 
621.500000	155.719280 
622.000000	158.242439 
622.500000	159.852553 
623.000000	162.195931 
623.500000	166.161598 
624.000000	169.618257 
624.500000	171.359234 
625.000000	172.729803 
625.500000	175.495916 
626.000000	179.794151 
626.500000	182.805515 
627.000000	184.668636 
627.500000	185.923833 
628.000000	188.858250 
628.500000	191.471856 
629.000000	194.094234 
629.500000	196.171053 
630.000000	199.842681 
630.500000	202.914765 
631.000000	205.241530 
631.500000	206.554765 
632.000000	210.425409 
632.500000	214.423659 
633.000000	217.542901 
633.500000	218.887068 
634.000000	221.326022 
634.500000	224.423992 
635.000000	227.210401 
635.500000	229.804037 
636.000000	233.518606 
636.500000	236.693893 
637.000000	237.765772 
637.500000	238.513204 
638.000000	240.550446 
638.500000	243.523204 
639.000000	245.940477 
639.500000	248.217833 
640.000000	250.637598 
640.500000	253.136590 
641.000000	254.986128 
641.500000	257.808295 
642.000000	259.948454 
642.500000	261.451045 
643.000000	261.860946 
643.500000	262.636174 
644.000000	262.174833 
644.500000	262.984272 
645.000000	264.503946 
645.500000	267.022325 
646.000000	267.772909 
646.500000	268.073719 
647.000000	268.574128 
647.500000	269.492575 
648.000000	270.326477 
648.500000	269.860174 
649.000000	270.126295 
649.500000	270.483378 
650.000000	271.339530 
650.500000	271.502333 
651.000000	271.895045 
651.500000	272.462356 
652.000000	271.541219 
652.500000	269.632969 
653.000000	266.899931 
653.500000	266.023916 
654.000000	264.700121 
654.500000	264.885401 
655.000000	265.533454 
655.500000	266.454250 
656.000000	264.814098 
656.500000	262.459803 
657.000000	259.757356 
657.500000	258.790439 
658.000000	257.183606 
658.500000	255.105560 
659.000000	251.890878 
659.500000	249.661734 
660.000000	247.545484 
660.500000	246.555643 
661.000000	245.074924 
661.500000	242.364659 
662.000000	237.750303 
662.500000	233.767666 
663.000000	231.576022 
663.500000	229.844704 
664.000000	226.869909 
664.500000	222.201424 
665.000000	218.079583 
665.500000	213.887113 
666.000000	210.019689 
666.500000	206.336310 
667.000000	204.695393 
667.500000	203.228939 
668.000000	200.586522 
668.500000	194.530196 
669.000000	187.716000 
669.500000	182.276280 
670.000000	179.384030 
670.500000	176.874371 
671.000000	173.767742 
671.500000	169.157507 
672.000000	165.245227 
672.500000	160.718287 
673.000000	156.475515 
673.500000	151.938871 
674.000000	148.792833 
674.500000	145.547674 
675.000000	142.580537 
675.500000	138.755174 
676.000000	134.887340 
676.500000	130.747053 
677.000000	126.880037 
677.500000	123.905257 
678.000000	120.552446 
678.500000	116.867219 
679.000000	112.781462 
679.500000	109.430522 
680.000000	106.548265 
680.500000	103.673909 
681.000000	100.363606 
681.500000	97.160318  
682.000000	94.920962  
682.500000	93.032749  
683.000000	91.033204  
683.500000	87.634234  
684.000000	84.392878  
684.500000	81.396856  
685.000000	79.608409  
685.500000	77.593310  
686.000000	76.305356  
686.500000	74.463393  
687.000000	72.950212  
687.500000	70.472454  
688.000000	67.853484  
688.500000	65.104916  
689.000000	63.176462  
689.500000	61.769257  
690.000000	60.266689  
690.500000	57.211984  
691.000000	53.474106  
691.500000	50.825303  
692.000000	50.029242  
692.500000	49.644621  
693.000000	48.679090  
693.500000	47.252530  
694.000000	45.966090  
694.500000	44.746848  
695.000000	43.234015  
695.500000	42.132227  
696.000000	41.344780  
696.500000	40.822659  
697.000000	39.979007  
697.500000	38.853500  
698.000000	37.565462  
698.500000	36.180462  
699.000000	34.781454  
699.500000	33.238295  
700.000000	31.998280  
700.500000	31.190333  
701.000000	30.428969  
701.500000	29.306659  
702.000000	28.501681  
702.500000	28.045007  
703.000000	27.731303  
703.500000	26.776454  
704.000000	25.458068  
704.500000	24.430984  
705.000000	23.985704  
705.500000	23.772803  
706.000000	23.281098  
706.500000	22.523371  
707.000000	21.516916  
707.500000	20.835719  
708.000000	20.280386  
708.500000	19.948492  
709.000000	19.578507  
709.500000	19.115954  
710.000000	18.870393  
710.500000	18.756227  
711.000000	18.808992  
711.500000	18.514484  
712.000000	18.084492  
712.500000	17.466939  
713.000000	16.967803  
713.500000	16.339371  
714.000000	15.715113  
714.500000	15.173121  
715.000000	14.935606  
715.500000	14.731113  
716.000000	14.329136  
716.500000	13.635795  
717.000000	13.165151  
717.500000	13.020234  
718.000000	13.033803  
718.500000	12.988363  
719.000000	12.765977  
719.500000	12.469090  
720.000000	12.081992  
720.500000	11.763462  
721.000000	11.475234  
721.500000	11.449015  
722.000000	11.486469  
722.500000	11.638159  
723.000000	11.312780  
723.500000	10.698257  
724.000000	10.285946  
724.500000	10.323348  
725.000000	10.417060  
725.500000	10.339931  
726.000000	10.083787  
726.500000	10.011537  
727.000000	10.047515  
727.500000	9.992954   
728.000000	9.434522   
728.500000	8.795280   
729.000000	8.273333   
729.500000	8.266378   
730.000000	8.262681   
730.500000	8.300924   
731.000000	8.180757   
731.500000	7.902787   
732.000000	7.567681   
732.500000	7.657696   
733.000000	8.038984   
733.500000	8.112060   
734.000000	7.821015   
734.500000	7.681446   
735.000000	7.782310   
735.500000	7.640931   
736.000000	7.294553   
736.500000	6.890674   
737.000000	6.772878   
737.500000	6.593901   
738.000000	6.525189   
738.500000	6.293053   
739.000000	6.331098   
739.500000	6.425840   
740.000000	6.766939   
740.500000	6.938931   
741.000000	6.787500   
741.500000	6.311818   
742.000000	5.817651   
742.500000	5.378659   
743.000000	5.243439   
743.500000	5.173916   
744.000000	5.296174   
744.500000	5.394393   
745.000000	5.652530   
745.500000	5.667500   
746.000000	5.702666   
746.500000	5.501704   
747.000000	5.103128   
747.500000	4.682787   
748.000000	4.692810   
748.500000	5.179621   
749.000000	5.370765   
749.500000	5.006727   
750.000000	4.557280   
750.500000	4.680780   
751.000000	4.819272   
751.500000	4.585606   
752.000000	3.956848   
752.500000	3.753659   
753.000000	3.941272   
753.500000	4.321893   
754.000000	4.367159   
754.500000	4.373924   
755.000000	4.329257   
755.500000	4.433477   
756.000000	4.334545   
756.500000	4.346992   
757.000000	4.295795   
757.500000	4.249098   
758.000000	4.001189   
758.500000	4.097742   
759.000000	4.175469   
759.500000	4.217340   
760.000000	3.896196   
760.500000	3.908946   
761.000000	4.082545   
761.500000	4.328386   
762.000000	4.249833   
762.500000	4.169984   
763.000000	4.236083   
763.500000	4.341946   
764.000000	4.206833   
764.500000	3.808719   
765.000000	3.506742   
765.500000	3.509749   
766.000000	3.788280   
766.500000	4.023545   
767.000000	3.997712   
767.500000	3.743962   
768.000000	3.472121   
768.500000	3.398265   
769.000000	3.363659   
769.500000	3.246500   
770.000000	3.102522   
770.500000	3.084159   
771.000000	3.167128   
771.500000	3.253037   
772.000000	3.412522   
772.500000	3.371749   
773.000000	3.204590   
773.500000	3.013772   
774.000000	3.090568   
774.500000	3.209651   
775.000000	3.229598   
775.500000	3.062121   
776.000000	2.980765   
776.500000	3.015674   
777.000000	3.096825   
777.500000	3.191492   
778.000000	3.162333   
778.500000	2.970500   
779.000000	2.815386   
779.500000	2.803424   
780.000000	2.863772   
780.500000	2.873462   
781.000000	2.888287   
781.500000	2.970500   
782.000000	2.992719   
782.500000	2.985636   
783.000000	2.917651   
783.500000	2.938068   
784.000000	2.876166   
784.500000	2.859424   
785.000000	2.800454   
785.500000	2.781856   
786.000000	2.727848   
786.500000	2.709628   
787.000000	2.641636   
787.500000	2.634984   
788.000000	2.723954   
788.500000	2.740401   
789.000000	2.615340   
789.500000	2.580492   
790.000000	2.714484   
790.500000	2.863310   
791.000000	2.826939   
791.500000	2.809946   
792.000000	2.666946   
792.500000	2.569924   
793.000000	2.415196   
793.500000	2.419772   
794.000000	2.329674   
794.500000	2.230143   
795.000000	2.271068   
795.500000	2.512227   
796.000000	2.611636   
796.500000	2.405166   
797.000000	2.280151   
797.500000	2.286242   
798.000000	2.367181   
798.500000	2.238522   
799.000000	2.231257   
799.500000	2.356962   
800.000000	2.409386   
800.500000	2.235530   
801.000000	2.125484   
801.500000	2.151227   
802.000000	2.128651   
802.500000	1.990022   
803.000000	2.058234   
803.500000	2.330924   
804.000000	2.554303   
804.500000	2.216250   
805.000000	1.791431   
805.500000	1.497772   
806.000000	1.669030   
806.500000	1.639946   
807.000000	1.426712   
807.500000	1.099893   
808.000000	1.151310   
808.500000	1.328257   
809.000000	1.501431   
809.500000	1.592598   
810.000000	1.696613   
810.500000	1.654492   
811.000000	1.544439   
811.500000	1.513500   
812.000000	1.748424   
812.500000	1.906734   
813.000000	1.820545   
813.500000	1.564734   
814.000000	1.346371   
814.500000	1.243007   
815.000000	1.134454   
815.500000	1.190795   
816.000000	1.435636   
816.500000	1.805500   
817.000000	1.821068   
817.500000	1.582992   
818.000000	1.276939   
818.500000	1.262060   
819.000000	1.350674   
819.500000	1.441333   
820.000000	1.527310   
820.500000	1.845098   
821.000000	2.046212   
821.500000	2.073469   
822.000000	1.951015   
822.500000	2.066590   
823.000000	2.147424   
823.500000	2.151931   
824.000000	2.055121   
824.500000	2.270242   
825.000000	2.526295   
825.500000	2.620719   
826.000000	2.342515   
826.500000	2.022878   
827.000000	1.873893   
827.500000	1.957401   
828.000000	2.044507   
828.500000	1.857613   
829.000000	1.480750   
829.500000	1.151098   
830.000000	1.116106   
830.500000	1.190719   
831.000000	1.391416   
831.500000	1.527075   
832.000000	1.631492   
832.500000	1.512469   
833.000000	1.284204   
833.500000	1.146803   
834.000000	1.220310   
834.500000	1.308734   
835.000000	1.293856   
835.500000	1.199431   
836.000000	1.074856   
836.500000	0.985924   
837.000000	0.944272   
837.500000	0.964462   
838.000000	0.886378   
838.500000	0.804113   
839.000000	0.710121   
839.500000	0.806628   
840.000000	0.934151   
840.500000	1.077469   
841.000000	1.029174   
841.500000	0.864068   
842.000000	0.710712   
842.500000	0.677810   
843.000000	0.676219   
843.500000	0.546901   
844.000000	0.393507   
844.500000	0.368840   
845.000000	0.491136   
845.500000	0.575242   
846.000000	0.421553   
846.500000	0.276121   
847.000000	0.192666   
847.500000	0.320530   
848.000000	0.377007   
848.500000	0.498901   
849.000000	0.493992   
849.500000	0.410515   
850.000000	0.223863   
850.500000	0.205621   
851.000000	0.250015   
851.500000	0.163416   
852.000000	0.029681   
852.500000	0.065636   
853.000000	0.235613   
853.500000	0.310765   
854.000000	0.220416   
854.500000	0.238818   
855.000000	0.285568   
855.500000	0.381030   
856.000000	0.298727   
856.500000	0.291469   
857.000000	0.151750   
857.500000	0.125128   
858.000000	0.096689   
858.500000	0.245128   
859.000000	0.224636   
859.500000	0.144143   
860.000000	0.012098   
860.500000	0.098840   
861.000000	0.145643   
861.500000	0.147909   
862.000000	0.167568   
862.500000	0.303022   
863.000000	0.331348   
863.500000	0.132931   
864.000000	-0.104871  
864.500000	-0.218780  
865.000000	-0.055954  
865.500000	0.145143   
866.000000	0.296477   
866.500000	0.263856   
867.000000	0.128939   
867.500000	-0.091386  
868.000000	-0.231598  
868.500000	-0.257803  
869.000000	-0.136030  
869.500000	0.044704   
870.000000	0.092901   
870.500000	0.123409   
871.000000	0.094507   
871.500000	0.088560   
872.000000	0.008712   
872.500000	-0.063613  
873.000000	-0.198636  
873.500000	-0.267916  
874.000000	-0.259030  
874.500000	-0.156424  
875.000000	-0.075939  
875.500000	-0.089893  
876.000000	-0.081787  
876.500000	-0.049212  
877.000000	0.050500   
877.500000	0.087742   
878.000000	0.046984   
878.500000	-0.088787  
879.000000	-0.173500  
879.500000	-0.153257  
880.000000	-0.121234  
880.500000	-0.119878  
881.000000	-0.163590  
881.500000	-0.057242  
882.000000	0.030628   
882.500000	0.109098   
883.000000	0.043803   
883.500000	0.032454   
884.000000	0.015371   
884.500000	0.127363   
885.000000	0.188166   
885.500000	0.208825   
886.000000	0.107189   
886.500000	0.075598   
887.000000	0.064060   
887.500000	0.123886   
888.000000	0.079045   
888.500000	0.090439   
889.000000	0.093318   
889.500000	0.116189   
890.000000	0.047325   
890.500000	0.022439   
891.000000	0.012318   
891.500000	0.036689   
892.000000	0.002659   
892.500000	-0.120636  
893.000000	-0.231590  
893.500000	-0.309825  
894.000000	-0.212583  
894.500000	-0.105742  
895.000000	0.047113   
895.500000	0.058068   
896.000000	0.083106   
896.500000	-0.038128  
897.000000	-0.113022  
897.500000	-0.160393  

