PE FL                   SPECTRUM    ASCII       PEDS        1.60        
  -1
SAAB81~1.SP
24/04/12
17:11:54.00
24/04/12
17:11:54.00
Jan

897.500000
1









LS55
405.00
5.00
5.00
SCAN
1
20
100
100
0
400
0
1
0
1
5
ON
450 405 
1 0 0
#HDR
-1
-1
#GR
NM

0.00002384185791015625
0.0
450.000000
0.500000
896
8
213.260643
-0.445378
#DATA
450.000000	0.406000   
450.500000	-0.043962  
451.000000	-0.300416  
451.500000	-0.263068  
452.000000	0.086022   
452.500000	0.255734   
453.000000	0.244712   
453.500000	0.057439   
454.000000	0.127196   
454.500000	0.094022   
455.000000	0.094750   
455.500000	0.019833   
456.000000	0.137083   
456.500000	0.152696   
457.000000	0.157606   
457.500000	0.064068   
458.000000	0.139924   
458.500000	0.159492   
459.000000	0.130560   
459.500000	-0.019098  
460.000000	-0.051689  
460.500000	-0.212886  
461.000000	-0.307181  
461.500000	-0.445378  
462.000000	-0.337833  
462.500000	-0.066946  
463.000000	0.247454   
463.500000	0.307348   
464.000000	0.183515   
464.500000	0.082431   
465.000000	0.077393   
465.500000	0.142568   
466.000000	0.104409   
466.500000	0.063439   
467.000000	0.028999   
467.500000	-0.031613  
468.000000	-0.044204  
468.500000	0.019363   
469.000000	0.128734   
469.500000	0.121136   
470.000000	-0.007500  
470.500000	-0.029992  
471.000000	0.128984   
471.500000	0.295492   
472.000000	0.176477   
472.500000	0.108500   
473.000000	0.031378   
473.500000	0.035045   
474.000000	-0.129393  
474.500000	-0.143060  
475.000000	-0.092492  
475.500000	0.103454   
476.000000	0.207098   
476.500000	0.170477   
477.000000	-0.005174  
477.500000	-0.137598  
478.000000	-0.079037  
478.500000	-0.065734  
479.000000	-0.168196  
479.500000	-0.284439  
480.000000	-0.104583  
480.500000	0.174363   
481.000000	0.271272   
481.500000	0.112939   
482.000000	-0.072030  
482.500000	-0.056090  
483.000000	0.061212   
483.500000	0.191856   
484.000000	0.228378   
484.500000	0.202045   
485.000000	0.002825   
485.500000	-0.126712  
486.000000	-0.144409  
486.500000	0.041765   
487.000000	0.110765   
487.500000	0.087818   
488.000000	-0.037227  
488.500000	-0.022765  
489.000000	-0.087681  
489.500000	-0.142272  
490.000000	-0.219590  
490.500000	-0.106780  
491.000000	0.027280   
491.500000	0.119060   
492.000000	0.135401   
492.500000	0.205537   
493.000000	0.325818   
493.500000	0.370825   
494.000000	0.286227   
494.500000	0.265825   
495.000000	0.322704   
495.500000	0.299954   
496.000000	0.125992   
496.500000	0.159931   
497.000000	0.417916   
497.500000	0.633174   
498.000000	0.495507   
498.500000	0.327219   
499.000000	0.300674   
499.500000	0.429128   
500.000000	0.449946   
500.500000	0.494030   
501.000000	0.458818   
501.500000	0.562181   
502.000000	0.575719   
502.500000	0.595863   
503.000000	0.483265   
503.500000	0.466318   
504.000000	0.486621   
504.500000	0.514030   
505.000000	0.471969   
505.500000	0.463022   
506.000000	0.632303   
506.500000	0.764250   
507.000000	0.790954   
507.500000	0.737704   
508.000000	0.863507   
508.500000	1.087984   
509.000000	1.214174   
509.500000	1.123575   
510.000000	1.034886   
510.500000	1.148977   
511.000000	1.292939   
511.500000	1.230424   
512.000000	1.089068   
512.500000	1.239446   
513.000000	1.557818   
513.500000	1.764174   
514.000000	1.716992   
514.500000	1.606909   
515.000000	1.490893   
515.500000	1.506242   
516.000000	1.677007   
516.500000	1.936166   
517.000000	2.023871   
517.500000	1.947765   
518.000000	1.914530   
518.500000	2.006606   
519.000000	2.218469   
519.500000	2.363022   
520.000000	2.449416   
520.500000	2.411181   
521.000000	2.344234   
521.500000	2.296833   
522.000000	2.368212   
522.500000	2.588121   
523.000000	2.859212   
523.500000	3.151257   
524.000000	3.338606   
524.500000	3.438409   
525.000000	3.421136   
525.500000	3.443159   
526.000000	3.457068   
526.500000	3.534939   
527.000000	3.671977   
527.500000	4.033257   
528.000000	4.399833   
528.500000	4.598265   
529.000000	4.585643   
529.500000	4.674098   
530.000000	5.136227   
530.500000	5.605469   
531.000000	5.735424   
531.500000	5.764022   
532.000000	6.174318   
532.500000	6.876636   
533.000000	7.306659   
533.500000	7.363780   
534.000000	7.500977   
534.500000	7.659045   
535.000000	7.692704   
535.500000	7.830075   
536.000000	8.488007   
536.500000	9.099734   
537.000000	9.356196   
537.500000	9.098969   
538.000000	9.240696   
538.500000	9.754999   
539.000000	10.454068  
539.500000	10.915287  
540.000000	11.240371  
540.500000	11.298962  
541.000000	11.672825  
541.500000	12.140272  
542.000000	12.736106  
542.500000	12.847045  
543.000000	12.749189  
543.500000	12.498590  
544.000000	12.455787  
544.500000	12.230053  
545.000000	12.117181  
545.500000	11.988522  
546.000000	12.028189  
546.500000	12.190234  
547.000000	12.476371  
547.500000	12.498143  
548.000000	12.298159  
548.500000	11.862575  
549.000000	11.872212  
549.500000	12.152719  
550.000000	12.321583  
550.500000	12.007022  
551.000000	11.585174  
551.500000	11.338545  
552.000000	11.390333  
552.500000	11.684227  
553.000000	12.125613  
553.500000	12.642643  
554.000000	12.791772  
554.500000	12.771681  
555.000000	12.716954  
555.500000	12.913242  
556.000000	13.397234  
556.500000	14.220515  
557.000000	14.908106  
557.500000	15.261007  
558.000000	15.223803  
558.500000	15.388022  
559.000000	15.492575  
559.500000	15.726545  
560.000000	15.939681  
560.500000	16.356196  
561.000000	16.657939  
561.500000	16.928530  
562.000000	17.375530  
562.500000	18.154946  
563.000000	19.038060  
563.500000	19.565037  
564.000000	19.802681  
564.500000	19.468446  
565.000000	19.242621  
565.500000	19.446212  
566.000000	20.405469  
566.500000	21.080590  
567.000000	21.577128  
567.500000	21.692992  
568.000000	22.019984  
568.500000	22.487295  
569.000000	23.377863  
569.500000	24.069022  
570.000000	24.243053  
570.500000	24.086181  
571.000000	24.224901  
571.500000	24.965825  
572.000000	25.891598  
572.500000	26.930568  
573.000000	27.804704  
573.500000	28.271363  
574.000000	28.326242  
574.500000	28.335712  
575.000000	28.355265  
575.500000	28.447787  
576.000000	28.846189  
576.500000	29.983522  
577.000000	31.507075  
577.500000	32.686560  
578.000000	32.558515  
578.500000	32.117674  
579.000000	31.716439  
579.500000	32.182484  
580.000000	32.815204  
580.500000	34.125969  
581.000000	35.248151  
581.500000	36.271401  
582.000000	36.641598  
582.500000	37.618969  
583.000000	38.882227  
583.500000	40.203772  
584.000000	40.547878  
584.500000	40.767250  
585.000000	41.094689  
585.500000	42.063363  
586.000000	42.645015  
586.500000	43.354946  
587.000000	43.768757  
587.500000	44.554515  
588.000000	45.421393  
588.500000	46.688992  
589.000000	48.076750  
589.500000	49.477340  
590.000000	50.066522  
590.500000	49.938068  
591.000000	50.319681  
591.500000	51.827939  
592.000000	54.117840  
592.500000	55.629287  
593.000000	56.328068  
593.500000	56.498659  
594.000000	57.320333  
594.500000	58.062431  
595.000000	59.091030  
595.500000	59.888469  
596.000000	60.994909  
596.500000	61.708136  
597.000000	62.918303  
597.500000	64.231643  
598.000000	66.374969  
598.500000	67.786053  
599.000000	68.743674  
599.500000	69.082303  
600.000000	70.061053  
600.500000	71.372219  
601.000000	72.648250  
601.500000	73.645439  
602.000000	74.492492  
602.500000	76.483659  
603.000000	78.559113  
603.500000	80.463500  
604.000000	81.614840  
604.500000	83.182204  
605.000000	84.351893  
605.500000	85.173946  
606.000000	85.973681  
606.500000	87.855492  
607.000000	90.429643  
607.500000	92.092348  
608.000000	93.405378  
608.500000	94.714159  
609.000000	96.172651  
609.500000	97.534499  
610.000000	99.718462  
610.500000	101.907484 
611.000000	103.438492 
611.500000	104.326787 
612.000000	106.016318 
612.500000	109.402878 
613.000000	112.984037 
613.500000	115.637143 
614.000000	116.202765 
614.500000	116.146712 
615.000000	116.928219 
615.500000	119.517878 
616.000000	121.926689 
616.500000	123.840560 
617.000000	125.309151 
617.500000	127.196530 
618.000000	129.442325 
618.500000	131.077416 
619.000000	132.879318 
619.500000	135.074909 
620.000000	137.635856 
620.500000	138.652037 
621.000000	140.237295 
621.500000	142.331901 
622.000000	145.613000 
622.500000	148.315924 
623.000000	151.126325 
623.500000	153.985212 
624.000000	156.276742 
624.500000	158.379196 
625.000000	160.038393 
625.500000	161.698234 
626.000000	163.759075 
626.500000	166.244393 
627.000000	168.291000 
627.500000	169.166212 
628.000000	170.780234 
628.500000	172.953333 
629.000000	175.476318 
629.500000	176.920234 
630.000000	178.943575 
630.500000	180.315750 
631.000000	181.710053 
631.500000	183.944098 
632.000000	186.938181 
632.500000	189.195310 
633.000000	190.222643 
633.500000	191.643234 
634.000000	194.026787 
634.500000	196.336287 
635.000000	197.799166 
635.500000	198.974901 
636.000000	200.669787 
636.500000	201.752553 
637.000000	201.866537 
637.500000	201.484431 
638.000000	202.711272 
638.500000	204.943318 
639.000000	206.773984 
639.500000	207.700090 
640.000000	208.982409 
640.500000	210.911340 
641.000000	211.636984 
641.500000	211.088750 
642.000000	210.799598 
642.500000	211.589196 
643.000000	212.700712 
643.500000	213.144053 
644.000000	213.260643 
644.500000	213.039083 
645.000000	212.988469 
645.500000	213.223666 
646.000000	212.959553 
646.500000	211.498159 
647.000000	210.305863 
647.500000	209.803128 
648.000000	210.759083 
648.500000	209.657159 
649.000000	207.907090 
649.500000	206.472318 
650.000000	208.175492 
650.500000	208.621939 
651.000000	207.585128 
651.500000	204.716356 
652.000000	202.897000 
652.500000	202.176484 
653.000000	200.493212 
653.500000	198.267856 
654.000000	196.046325 
654.500000	195.766484 
655.000000	195.103659 
655.500000	193.221787 
656.000000	189.515484 
656.500000	186.928318 
657.000000	184.877060 
657.500000	182.376212 
658.000000	179.126378 
658.500000	176.768553 
659.000000	175.111151 
659.500000	173.131196 
660.000000	170.861795 
660.500000	167.880159 
661.000000	163.856030 
661.500000	159.148500 
662.000000	155.411409 
662.500000	152.984689 
663.000000	150.757310 
663.500000	147.604954 
664.000000	143.756856 
664.500000	139.886636 
665.000000	136.683522 
665.500000	134.223113 
666.000000	131.388833 
666.500000	126.810121 
667.000000	122.256719 
667.500000	118.588878 
668.000000	117.146219 
668.500000	115.242234 
669.000000	112.286537 
669.500000	108.390219 
670.000000	105.627818 
670.500000	103.969818 
671.000000	101.950507 
671.500000	98.299636  
672.000000	93.427348  
672.500000	90.434651  
673.000000	88.567348  
673.500000	87.814621  
674.000000	85.686439  
674.500000	82.776795  
675.000000	79.176803  
675.500000	76.600083  
676.000000	74.284280  
676.500000	72.182098  
677.000000	69.344204  
677.500000	66.597742  
678.000000	64.656878  
678.500000	63.143848  
679.000000	61.357734  
679.500000	59.383015  
680.000000	57.557446  
680.500000	56.129348  
681.000000	55.302848  
681.500000	53.987045  
682.000000	52.550136  
682.500000	50.390674  
683.000000	48.378136  
683.500000	46.493659  
684.000000	45.726386  
684.500000	44.867234  
685.000000	43.599719  
685.500000	41.514037  
686.000000	40.103295  
686.500000	39.243371  
687.000000	38.463469  
687.500000	37.249159  
688.000000	36.609621  
688.500000	35.953371  
689.000000	35.009234  
689.500000	33.457651  
690.000000	31.929469  
690.500000	30.678878  
691.000000	29.964969  
691.500000	29.466007  
692.000000	28.354704  
692.500000	26.859151  
693.000000	25.668401  
693.500000	25.638924  
694.000000	25.618371  
694.500000	24.846000  
695.000000	23.292303  
695.500000	22.129810  
696.000000	21.854856  
696.500000	22.040090  
697.000000	21.822333  
697.500000	20.809401  
698.000000	19.671303  
698.500000	19.017765  
699.000000	18.894492  
699.500000	18.760636  
700.000000	18.535280  
700.500000	18.034037  
701.000000	17.436780  
701.500000	16.766537  
702.000000	16.154780  
702.500000	15.353719  
703.000000	14.890886  
703.500000	14.887939  
704.000000	15.403568  
704.500000	15.407946  
705.000000	14.969674  
705.500000	14.207659  
706.000000	13.741689  
706.500000	13.227962  
707.000000	12.845113  
707.500000	12.513537  
708.000000	12.416530  
708.500000	12.496454  
709.000000	12.389462  
709.500000	12.025772  
710.000000	11.428575  
710.500000	11.236037  
711.000000	11.050780  
711.500000	10.792227  
712.000000	10.339098  
712.500000	10.420151  
713.000000	10.611500  
713.500000	10.523916  
714.000000	10.088098  
714.500000	9.819303   
715.000000	9.628015   
715.500000	9.333825   
716.000000	8.936689   
716.500000	8.784803   
717.000000	8.567136   
717.500000	8.234515   
718.000000	7.902522   
718.500000	8.021348   
719.000000	8.376083   
719.500000	8.703681   
720.000000	8.572234   
720.500000	7.872931   
721.000000	7.217719   
721.500000	7.025106   
722.000000	7.203272   
722.500000	7.145674   
723.000000	7.000053   
723.500000	6.914689   
724.000000	6.896106   
724.500000	6.666969   
725.000000	6.511015   
725.500000	6.731969   
726.000000	7.026575   
726.500000	6.804750   
727.000000	6.199098   
727.500000	5.735068   
728.000000	5.873393   
728.500000	6.046310   
729.000000	5.846560   
729.500000	5.373575   
730.000000	5.489772   
730.500000	5.855795   
731.000000	5.974681   
731.500000	5.546886   
732.000000	5.544742   
732.500000	5.987393   
733.000000	6.369181   
733.500000	6.041363   
734.000000	5.680272   
734.500000	5.430234   
735.000000	5.262984   
735.500000	4.853659   
736.000000	4.658386   
736.500000	4.684174   
737.000000	4.838893   
737.500000	4.938750   
738.000000	4.955833   
738.500000	4.881545   
739.000000	4.816833   
739.500000	4.935128   
740.000000	4.907181   
740.500000	4.638128   
741.000000	4.339060   
741.500000	4.275916   
742.000000	4.379250   
742.500000	4.322840   
743.000000	4.148500   
743.500000	4.005272   
744.000000	3.972613   
744.500000	4.143303   
745.000000	4.301984   
745.500000	4.281287   
746.000000	4.055621   
746.500000	3.876242   
747.000000	3.897886   
747.500000	4.214340   
748.000000	4.493401   
748.500000	4.273553   
749.000000	3.823386   
749.500000	3.539303   
750.000000	3.635946   
750.500000	3.650454   
751.000000	3.538500   
751.500000	3.540371   
752.000000	3.630931   
752.500000	3.522893   
753.000000	3.487166   
753.500000	3.560962   
754.000000	3.794840   
754.500000	3.866060   
755.000000	3.975704   
755.500000	3.894022   
756.000000	3.755507   
756.500000	3.483712   
757.000000	3.361962   
757.500000	3.396734   
758.000000	3.511621   
758.500000	3.593772   
759.000000	3.576378   
759.500000	3.509787   
760.000000	3.534181   
760.500000	3.699075   
761.000000	3.801924   
761.500000	3.631356   
762.000000	3.378674   
762.500000	3.223022   
763.000000	3.364696   
763.500000	3.457795   
764.000000	3.471636   
764.500000	3.320098   
765.000000	3.269371   
765.500000	3.227848   
766.000000	3.365295   
766.500000	3.301143   
767.000000	3.189446   
767.500000	3.001560   
768.000000	3.053272   
768.500000	2.975833   
769.000000	2.956969   
769.500000	2.933712   
770.000000	3.180280   
770.500000	3.179477   
771.000000	3.032560   
771.500000	2.837174   
772.000000	2.991242   
772.500000	3.045121   
773.000000	3.004000   
773.500000	2.918780   
774.000000	2.999325   
774.500000	2.977454   
775.000000	2.847204   
775.500000	2.728287   
776.000000	2.796515   
776.500000	2.946787   
777.000000	3.095772   
777.500000	3.141962   
778.000000	3.007939   
778.500000	2.842121   
779.000000	2.725825   
779.500000	2.744189   
780.000000	2.647121   
780.500000	2.638522   
781.000000	2.713984   
781.500000	2.988431   
782.000000	3.012310   
782.500000	2.844333   
783.000000	2.579386   
783.500000	2.568583   
784.000000	2.743151   
784.500000	2.942825   
785.000000	3.014643   
785.500000	3.008492   
786.000000	2.989916   
786.500000	2.921484   
787.000000	2.808310   
787.500000	2.717810   
788.000000	2.831022   
788.500000	2.860416   
789.000000	2.661803   
789.500000	2.357734   
790.000000	2.362227   
790.500000	2.602454   
791.000000	2.785969   
791.500000	2.755151   
792.000000	2.674393   
792.500000	2.432795   
793.000000	2.074977   
793.500000	1.792780   
794.000000	1.918204   
794.500000	2.163787   
795.000000	2.288234   
795.500000	2.189734   
796.000000	2.146007   
796.500000	2.150189   
797.000000	2.245000   
797.500000	2.508568   
798.000000	2.621037   
798.500000	2.554689   
799.000000	2.281310   
799.500000	2.279704   
800.000000	2.333659   
800.500000	2.444878   
801.000000	2.330810   
801.500000	2.340931   
802.000000	2.207954   
802.500000	2.225037   
803.000000	2.178750   
803.500000	2.207931   
804.000000	2.106037   
804.500000	2.100340   
805.000000	2.119409   
805.500000	2.134901   
806.000000	1.984636   
806.500000	1.760856   
807.000000	1.795984   
807.500000	2.006469   
808.000000	2.197227   
808.500000	2.054628   
809.000000	1.770439   
809.500000	1.470553   
810.000000	1.337590   
810.500000	1.351151   
811.000000	1.522227   
811.500000	1.735621   
812.000000	1.729416   
812.500000	1.523674   
813.000000	1.318454   
813.500000	1.361469   
814.000000	1.478174   
814.500000	1.567446   
815.000000	1.543265   
815.500000	1.560250   
816.000000	1.536704   
816.500000	1.651325   
817.000000	1.745787   
817.500000	1.841833   
818.000000	1.705265   
818.500000	1.667462   
819.000000	1.656689   
819.500000	1.885810   
820.000000	1.905893   
820.500000	2.024507   
821.000000	1.971356   
821.500000	2.082219   
822.000000	2.060333   
822.500000	2.070833   
823.000000	1.975181   
823.500000	2.246219   
824.000000	2.558871   
824.500000	2.588878   
825.000000	2.363477   
825.500000	2.145598   
826.000000	2.160053   
826.500000	2.070689   
827.000000	2.018386   
827.500000	2.027787   
828.000000	2.145916   
828.500000	2.005598   
829.000000	1.765272   
829.500000	1.605143   
830.000000	1.554393   
830.500000	1.517780   
831.000000	1.352189   
831.500000	1.209848   
832.000000	1.191621   
832.500000	1.215787   
833.000000	1.107750   
833.500000	0.862098   
834.000000	0.753446   
834.500000	0.832621   
835.000000	1.059674   
835.500000	1.086795   
836.000000	0.970371   
836.500000	0.828946   
837.000000	0.841833   
837.500000	0.868007   
838.000000	0.874878   
838.500000	0.843409   
839.000000	0.836386   
839.500000	0.822409   
840.000000	0.877575   
840.500000	0.973037   
841.000000	0.965113   
841.500000	0.820803   
842.000000	0.647446   
842.500000	0.591984   
843.000000	0.641886   
843.500000	0.794340   
844.000000	0.849659   
844.500000	0.856719   
845.000000	0.753378   
845.500000	0.646689   
846.000000	0.558742   
846.500000	0.513742   
847.000000	0.433507   
847.500000	0.249840   
848.000000	0.110689   
848.500000	0.077128   
849.000000	0.174045   
849.500000	0.226515   
850.000000	0.366590   
850.500000	0.551893   
851.000000	0.596560   
851.500000	0.403409   
852.000000	0.223060   
852.500000	0.254795   
853.000000	0.342840   
853.500000	0.309454   
854.000000	0.108659   
854.500000	0.046227   
855.000000	0.192219   
855.500000	0.336643   
856.000000	0.259984   
856.500000	0.058022   
857.000000	-0.080068  
857.500000	-0.041621  
858.000000	0.091560   
858.500000	0.156166   
859.000000	0.085590   
859.500000	-0.077007  
860.000000	-0.153159  
860.500000	-0.108000  
861.000000	0.025825   
861.500000	0.087856   
862.000000	0.095621   
862.500000	0.019636   
863.000000	-0.045712  
863.500000	-0.108863  
864.000000	-0.069121  
864.500000	-0.003590  
865.000000	0.083378   
865.500000	0.072159   
866.000000	0.008030   
866.500000	-0.076659  
867.000000	-0.093083  
867.500000	-0.072856  
868.000000	0.029628   
868.500000	0.157992   
869.000000	0.244901   
869.500000	0.216386   
870.000000	0.085348   
870.500000	-0.012007  
871.000000	-0.014818  
871.500000	0.036969   
872.000000	0.002015   
872.500000	-0.062250  
873.000000	-0.081704  
873.500000	-0.013022  
874.000000	0.050750   
874.500000	0.070848   
875.000000	0.068454   
875.500000	0.050128   
876.000000	0.027515   
876.500000	0.000613   
877.000000	0.001863   
877.500000	0.007469   
878.000000	0.017090   
878.500000	-0.003977  
879.000000	-0.028053  
879.500000	-0.012272  
880.000000	0.041363   
880.500000	0.039628   
881.000000	-0.084318  
881.500000	-0.169757  
882.000000	-0.091863  
882.500000	0.069462   
883.000000	0.162674   
883.500000	0.145878   
884.000000	0.102053   
884.500000	0.085666   
885.000000	0.135750   
885.500000	0.142022   
886.000000	0.023477   
886.500000	-0.101022  
887.000000	-0.091765  
887.500000	-0.021280  
888.000000	-0.056886  
888.500000	-0.205840  
889.000000	-0.259015  
889.500000	-0.160628  
890.000000	0.017893   
890.500000	0.093871   
891.000000	0.097977   
891.500000	0.065575   
892.000000	0.059363   
892.500000	0.029780   
893.000000	0.031825   
893.500000	0.079325   
894.000000	0.086689   
894.500000	0.063121   
895.000000	0.080303   
895.500000	0.155583   
896.000000	0.187651   
896.500000	0.119272   
897.000000	0.097303   
897.500000	0.117030   

