PE FL                   SPECTRUM    ASCII       PEDS        1.60        
  -1
SAABBD~1.SP
24/04/12
17:06:11.00
24/04/12
17:06:11.00
Jan

897.500000
1









LS55
405.00
5.00
5.00
SCAN
1
20
100
100
0
400
0
1
0
1
5
ON
450 405 
1 0 0
#HDR
-1
-1
#GR
NM

0.00002384185791015625
0.0
450.000000
0.500000
896
8
224.553537
-0.460431
#DATA
450.000000	0.032000   
450.500000	-0.196022  
451.000000	-0.311871  
451.500000	-0.307371  
452.000000	-0.216386  
452.500000	-0.106810  
453.000000	0.051295   
453.500000	0.168257   
454.000000	0.216083   
454.500000	0.241878   
455.000000	0.180401   
455.500000	0.115075   
456.000000	0.029318   
456.500000	0.036515   
457.000000	0.129893   
457.500000	0.234696   
458.000000	0.224848   
458.500000	0.229250   
459.000000	0.254257   
459.500000	0.164371   
460.000000	-0.043424  
460.500000	-0.194181  
461.000000	-0.139462  
461.500000	0.003280   
462.000000	-0.028901  
462.500000	-0.019719  
463.000000	0.132234   
463.500000	0.364969   
464.000000	0.417121   
464.500000	0.182962   
465.000000	-0.047696  
465.500000	-0.110871  
466.000000	0.035765   
466.500000	0.041787   
467.000000	-0.043924  
467.500000	-0.169045  
468.000000	0.040409   
468.500000	0.098530   
469.000000	-0.009045  
469.500000	-0.209151  
470.000000	-0.090545  
470.500000	-0.019856  
471.000000	-0.018704  
471.500000	-0.071893  
472.000000	-0.005863  
472.500000	0.018196   
473.000000	-0.087310  
473.500000	-0.060946  
474.000000	-0.047378  
474.500000	-0.011787  
475.000000	-0.053393  
475.500000	0.068166   
476.000000	0.206310   
476.500000	0.240477   
477.000000	0.163780   
477.500000	0.050439   
478.000000	0.095151   
478.500000	0.167113   
479.000000	0.229340   
479.500000	0.125734   
480.000000	0.015681   
480.500000	0.007242   
481.000000	0.105962   
481.500000	0.151553   
482.000000	0.097681   
482.500000	-0.032477  
483.000000	-0.117325  
483.500000	-0.091712  
484.000000	0.078272   
484.500000	0.331545   
485.000000	0.435810   
485.500000	0.296924   
486.000000	0.016401   
486.500000	-0.128075  
487.000000	-0.093651  
487.500000	0.032196   
488.000000	-0.006810  
488.500000	-0.113643  
489.000000	-0.069666  
489.500000	0.084166   
490.000000	0.234484   
490.500000	0.239734   
491.000000	0.136962   
491.500000	0.060128   
492.000000	0.088128   
492.500000	0.229636   
493.000000	0.242583   
493.500000	0.109310   
494.000000	-0.095181  
494.500000	-0.091848  
495.000000	0.066696   
495.500000	0.283628   
496.000000	0.349303   
496.500000	0.251378   
497.000000	0.095189   
497.500000	0.064106   
498.000000	0.215098   
498.500000	0.441696   
499.000000	0.614659   
499.500000	0.700037   
500.000000	0.683325   
500.500000	0.580901   
501.000000	0.444219   
501.500000	0.327143   
502.000000	0.322984   
502.500000	0.412242   
503.000000	0.531151   
503.500000	0.600446   
504.000000	0.650886   
504.500000	0.672636   
505.000000	0.704848   
505.500000	0.742909   
506.000000	0.785553   
506.500000	0.727121   
507.000000	0.594272   
507.500000	0.525984   
508.000000	0.674810   
508.500000	0.800772   
509.000000	0.819409   
509.500000	0.724030   
510.000000	0.694083   
510.500000	0.714598   
511.000000	0.838727   
511.500000	0.903106   
512.000000	1.082204   
512.500000	1.141643   
513.000000	1.357795   
513.500000	1.497310   
514.000000	1.713681   
514.500000	1.583340   
515.000000	1.492613   
515.500000	1.441757   
516.000000	1.750719   
516.500000	1.939757   
517.000000	1.914765   
517.500000	1.785287   
518.000000	1.910992   
518.500000	2.237962   
519.000000	2.601174   
519.500000	2.792643   
520.000000	2.716075   
520.500000	2.441500   
521.000000	2.273181   
521.500000	2.304530   
522.000000	2.461280   
522.500000	2.464371   
523.000000	2.461590   
523.500000	2.536484   
524.000000	2.777515   
524.500000	3.083545   
525.000000	3.375454   
525.500000	3.507242   
526.000000	3.434530   
526.500000	3.344833   
527.000000	3.449681   
527.500000	3.833840   
528.000000	4.364893   
528.500000	4.781871   
529.000000	5.103772   
529.500000	5.401333   
530.000000	5.677689   
530.500000	5.791242   
531.000000	5.808416   
531.500000	5.872636   
532.000000	6.032818   
532.500000	6.329810   
533.000000	6.582030   
533.500000	6.728113   
534.000000	6.833143   
534.500000	7.111780   
535.000000	7.747159   
535.500000	8.401424   
536.000000	8.952219   
536.500000	8.997954   
537.000000	8.916121   
537.500000	8.940007   
538.000000	9.344015   
538.500000	9.857174   
539.000000	10.398704  
539.500000	10.935371  
540.000000	11.150113  
540.500000	10.942659  
541.000000	10.692090  
541.500000	11.011280  
542.000000	11.702833  
542.500000	12.145462  
543.000000	12.426553  
543.500000	12.683818  
544.000000	12.942568  
544.500000	12.503969  
545.000000	11.991886  
545.500000	11.832583  
546.000000	12.187704  
546.500000	12.289333  
547.000000	11.974969  
547.500000	11.732242  
548.000000	11.627924  
548.500000	11.689060  
549.000000	11.766833  
549.500000	12.091590  
550.000000	12.100507  
550.500000	11.959287  
551.000000	11.829378  
551.500000	12.288500  
552.000000	12.788196  
552.500000	12.931015  
553.000000	12.521462  
553.500000	12.272280  
554.000000	12.425969  
554.500000	12.889613  
555.000000	13.225590  
555.500000	13.233325  
556.000000	13.261674  
556.500000	13.440022  
557.000000	13.752795  
557.500000	13.833401  
558.000000	14.038560  
558.500000	14.629022  
559.000000	15.302166  
559.500000	15.846121  
560.000000	16.063113  
560.500000	16.184250  
561.000000	16.280015  
561.500000	16.908083  
562.000000	17.739643  
562.500000	18.619060  
563.000000	18.843075  
563.500000	18.825242  
564.000000	18.864045  
564.500000	19.083371  
565.000000	19.279992  
565.500000	19.710075  
566.000000	20.435212  
566.500000	21.085484  
567.000000	21.637090  
567.500000	22.095219  
568.000000	22.699030  
568.500000	23.101325  
569.000000	23.216530  
569.500000	23.324333  
570.000000	23.530310  
570.500000	23.933590  
571.000000	24.620515  
571.500000	25.646750  
572.000000	26.455674  
572.500000	27.127431  
573.000000	27.750000  
573.500000	28.181000  
574.000000	28.310643  
574.500000	28.248977  
575.000000	28.340757  
575.500000	28.420037  
576.000000	28.852007  
576.500000	29.642151  
577.000000	30.363045  
577.500000	30.510287  
578.000000	31.075212  
578.500000	31.817477  
579.000000	32.492295  
579.500000	32.707598  
580.000000	33.418810  
580.500000	34.517742  
581.000000	35.682174  
581.500000	36.078628  
582.000000	36.579136  
582.500000	36.888053  
583.000000	37.983053  
583.500000	39.242250  
584.000000	40.680492  
584.500000	41.266265  
585.000000	42.233651  
585.500000	43.302386  
586.000000	44.719969  
586.500000	45.262295  
587.000000	45.255265  
587.500000	45.445924  
588.000000	46.447871  
588.500000	48.024075  
589.000000	48.721856  
589.500000	48.914181  
590.000000	49.466530  
590.500000	51.255416  
591.000000	52.935272  
591.500000	54.102060  
592.000000	54.940969  
592.500000	56.632424  
593.000000	58.393621  
593.500000	59.339787  
594.000000	58.733007  
594.500000	58.158946  
595.000000	58.680689  
595.500000	60.650143  
596.000000	61.872818  
596.500000	62.719750  
597.000000	63.516901  
597.500000	65.405659  
598.000000	66.835893  
598.500000	68.216848  
599.000000	69.087212  
599.500000	70.287113  
600.000000	70.302560  
600.500000	70.981401  
601.000000	72.918159  
601.500000	76.407075  
602.000000	77.812401  
602.500000	78.302007  
603.000000	78.662196  
603.500000	81.208045  
604.000000	83.396856  
604.500000	84.773856  
605.000000	85.271522  
605.500000	86.355174  
606.000000	88.159689  
606.500000	90.691969  
607.000000	93.322484  
607.500000	94.500060  
608.000000	94.844803  
608.500000	95.802128  
609.000000	98.282901  
609.500000	100.921537 
610.000000	102.060931 
610.500000	102.694446 
611.000000	103.825000 
611.500000	106.103484 
612.000000	108.112219 
612.500000	109.840840 
613.000000	111.762462 
613.500000	114.569530 
614.000000	118.021303 
614.500000	120.297515 
615.000000	121.012909 
615.500000	120.964818 
616.000000	122.358696 
616.500000	124.512583 
617.000000	127.394803 
617.500000	129.709772 
618.000000	131.556606 
618.500000	132.945727 
619.000000	134.866121 
619.500000	137.424234 
620.000000	140.322265 
620.500000	142.485893 
621.000000	144.260386 
621.500000	146.394401 
622.000000	149.433446 
622.500000	151.843492 
623.000000	154.188272 
623.500000	155.457992 
624.000000	156.938984 
624.500000	158.086446 
625.000000	159.569734 
625.500000	161.120287 
626.000000	163.378598 
626.500000	164.959696 
627.000000	167.209363 
627.500000	169.857954 
628.000000	173.224886 
628.500000	175.030734 
629.000000	177.216901 
629.500000	178.735333 
630.000000	182.287143 
630.500000	185.139765 
631.000000	188.342409 
631.500000	190.317159 
632.000000	192.833787 
632.500000	194.924386 
633.000000	197.529098 
633.500000	200.214030 
634.000000	202.196772 
634.500000	202.855128 
635.000000	202.430727 
635.500000	203.038439 
636.000000	205.482045 
636.500000	207.941250 
637.000000	207.855871 
637.500000	207.149643 
638.000000	208.039795 
638.500000	211.441212 
639.000000	213.787795 
639.500000	214.828530 
640.000000	215.308628 
640.500000	217.872742 
641.000000	220.051803 
641.500000	221.202106 
642.000000	220.343621 
642.500000	220.640681 
643.000000	222.375659 
643.500000	224.553537 
644.000000	224.347636 
644.500000	222.223136 
645.000000	220.913121 
645.500000	221.370560 
646.000000	222.220750 
646.500000	221.745825 
647.000000	222.102765 
647.500000	222.629583 
648.000000	223.813765 
648.500000	222.760189 
649.000000	221.082181 
649.500000	218.841696 
650.000000	218.760151 
650.500000	219.763227 
651.000000	220.731507 
651.500000	218.918484 
652.000000	216.794212 
652.500000	214.788090 
653.000000	212.939583 
653.500000	210.450159 
654.000000	208.790969 
654.500000	207.617515 
655.000000	205.536621 
655.500000	202.519280 
656.000000	199.750939 
656.500000	198.874674 
657.000000	197.874060 
657.500000	197.000568 
658.000000	193.401924 
658.500000	188.440613 
659.000000	182.880863 
659.500000	179.648916 
660.000000	178.453734 
660.500000	178.924174 
661.000000	178.503704 
661.500000	175.163250 
662.000000	169.436401 
662.500000	164.602136 
663.000000	162.130840 
663.500000	160.229121 
664.000000	157.099522 
664.500000	153.840151 
665.000000	151.152106 
665.500000	148.050128 
666.000000	144.003946 
666.500000	140.401833 
667.000000	137.653196 
667.500000	134.829962 
668.000000	131.792234 
668.500000	128.625598 
669.000000	125.473037 
669.500000	121.729219 
670.000000	117.904772 
670.500000	114.095257 
671.000000	110.535242 
671.500000	106.688659 
672.000000	103.938113 
672.500000	101.563954 
673.000000	99.751022  
673.500000	97.079340  
674.000000	94.272424  
674.500000	91.360833  
675.000000	88.875401  
675.500000	85.737795  
676.000000	82.222462  
676.500000	79.204530  
677.000000	77.057181  
677.500000	75.396090  
678.000000	73.145795  
678.500000	70.793598  
679.000000	68.349401  
679.500000	66.293272  
680.000000	64.406386  
680.500000	62.468765  
681.000000	60.150454  
681.500000	58.392666  
682.000000	57.262371  
682.500000	56.204409  
683.000000	54.126515  
683.500000	51.569636  
684.000000	49.626265  
684.500000	48.902621  
685.000000	47.881939  
685.500000	46.325000  
686.000000	44.194083  
686.500000	42.805340  
687.000000	41.826689  
687.500000	41.031189  
688.000000	39.622583  
688.500000	37.990424  
689.000000	36.350386  
689.500000	35.369378  
690.000000	34.626628  
690.500000	33.964439  
691.000000	32.902280  
691.500000	32.125696  
692.000000	31.505250  
692.500000	31.366613  
693.000000	30.607749  
693.500000	29.093075  
694.000000	27.213204  
694.500000	26.018515  
695.000000	25.609583  
695.500000	25.380356  
696.000000	25.027287  
696.500000	24.402636  
697.000000	23.842340  
697.500000	23.140401  
698.000000	22.577712  
698.500000	22.142484  
699.000000	21.356946  
699.500000	20.236780  
700.000000	19.243939  
700.500000	18.890500  
701.000000	18.925121  
701.500000	18.733053  
702.000000	17.955325  
702.500000	17.148765  
703.000000	16.765681  
703.500000	16.548795  
704.000000	16.422515  
704.500000	15.782015  
705.000000	15.406015  
705.500000	15.213446  
706.000000	15.148734  
706.500000	14.586719  
707.000000	13.956681  
707.500000	13.447204  
708.000000	13.424500  
708.500000	13.299803  
709.000000	12.863325  
709.500000	12.362916  
710.000000	11.965295  
710.500000	12.030863  
711.000000	12.350431  
711.500000	12.700818  
712.000000	12.603325  
712.500000	12.304174  
713.000000	11.687757  
713.500000	11.269795  
714.000000	10.827742  
714.500000	10.331121  
715.000000	9.936469   
715.500000	9.788393   
716.000000	9.819469   
716.500000	9.612500   
717.000000	9.296636   
717.500000	8.900984   
718.000000	8.987992   
718.500000	9.228606   
719.000000	9.326999   
719.500000	9.041939   
720.000000	8.675560   
720.500000	8.528136   
721.000000	8.481825   
721.500000	8.075825   
722.000000	7.699174   
722.500000	7.505621   
723.000000	7.612643   
723.500000	7.598931   
724.000000	7.829356   
724.500000	7.820386   
725.000000	7.734295   
725.500000	7.285280   
726.000000	7.108212   
726.500000	7.063462   
727.000000	6.962568   
727.500000	6.879234   
728.000000	6.776303   
728.500000	6.763833   
729.000000	6.496787   
729.500000	6.268757   
730.000000	6.163310   
730.500000	6.372363   
731.000000	6.675765   
731.500000	6.668250   
732.000000	6.417121   
732.500000	6.124689   
733.000000	6.208780   
733.500000	6.268371   
734.000000	6.068909   
734.500000	5.741522   
735.000000	5.514257   
735.500000	5.518090   
736.000000	5.571386   
736.500000	5.719924   
737.000000	5.666371   
737.500000	5.408318   
738.000000	5.133871   
738.500000	5.187621   
739.000000	5.382916   
739.500000	5.452613   
740.000000	5.279560   
740.500000	4.910840   
741.000000	4.604469   
741.500000	4.546007   
742.000000	4.806765   
742.500000	5.064227   
743.000000	4.975431   
743.500000	4.580151   
744.000000	4.408098   
744.500000	4.552181   
745.000000	4.615393   
745.500000	4.403871   
746.000000	4.290537   
746.500000	4.477159   
747.000000	4.786219   
747.500000	4.875484   
748.000000	4.841999   
748.500000	4.636522   
749.000000	4.353113   
749.500000	3.940242   
750.000000	3.700075   
750.500000	3.560810   
751.000000	3.579621   
751.500000	3.646090   
752.000000	3.770227   
752.500000	3.778818   
753.000000	3.684681   
753.500000	3.615393   
754.000000	3.743484   
754.500000	3.951500   
755.000000	3.937053   
755.500000	3.590621   
756.000000	3.297363   
756.500000	3.241727   
757.000000	3.487151   
757.500000	3.765106   
758.000000	3.916068   
758.500000	3.787621   
759.000000	3.551151   
759.500000	3.375886   
760.000000	3.474325   
760.500000	3.527287   
761.000000	3.462318   
761.500000	3.315712   
762.000000	3.413500   
762.500000	3.484515   
763.000000	3.446250   
763.500000	3.217507   
764.000000	3.195924   
764.500000	3.288666   
765.000000	3.402053   
765.500000	3.386287   
766.000000	3.273454   
766.500000	3.149446   
767.000000	3.171053   
767.500000	3.270128   
768.000000	3.365037   
768.500000	3.255234   
769.000000	3.208606   
769.500000	3.205871   
770.000000	3.431128   
770.500000	3.415333   
771.000000	3.261507   
771.500000	2.930015   
772.000000	2.923954   
772.500000	2.878840   
773.000000	2.789901   
773.500000	2.485348   
774.000000	2.484530   
774.500000	2.720196   
775.000000	3.042310   
775.500000	3.152340   
776.000000	3.151484   
776.500000	3.153674   
777.000000	3.097303   
777.500000	2.962674   
778.000000	2.657492   
778.500000	2.599439   
779.000000	2.795257   
779.500000	3.105340   
780.000000	3.079825   
780.500000	2.902431   
781.000000	2.815795   
781.500000	2.882393   
782.000000	2.937000   
782.500000	2.813772   
783.000000	2.726280   
783.500000	2.639416   
784.000000	2.648462   
784.500000	2.719507   
785.000000	2.887143   
785.500000	2.896712   
786.000000	2.745196   
786.500000	2.703863   
787.000000	2.744689   
787.500000	2.797416   
788.000000	2.680750   
788.500000	2.671234   
789.000000	2.671060   
789.500000	2.645272   
790.000000	2.627583   
790.500000	2.708234   
791.000000	2.722280   
791.500000	2.598128   
792.000000	2.566159   
792.500000	2.591045   
793.000000	2.538196   
793.500000	2.284431   
794.000000	2.059734   
794.500000	2.036598   
795.000000	2.146560   
795.500000	2.357878   
796.000000	2.575628   
796.500000	2.582098   
797.000000	2.342530   
797.500000	2.112537   
798.000000	2.122462   
798.500000	2.254356   
799.000000	2.275727   
799.500000	2.112750   
800.000000	1.961189   
800.500000	1.952742   
801.000000	1.973242   
801.500000	1.981083   
802.000000	1.873143   
802.500000	1.872492   
803.000000	2.003022   
803.500000	2.249939   
804.000000	2.313446   
804.500000	2.202545   
805.000000	2.006159   
805.500000	1.941378   
806.000000	1.907189   
806.500000	1.856590   
807.000000	1.731227   
807.500000	1.693348   
808.000000	1.747037   
808.500000	1.956931   
809.000000	2.126613   
809.500000	2.127143   
810.000000	1.946196   
810.500000	1.695136   
811.000000	1.588083   
811.500000	1.613742   
812.000000	1.710674   
812.500000	1.762128   
813.000000	1.739787   
813.500000	1.587439   
814.000000	1.425810   
814.500000	1.303204   
815.000000	1.263371   
815.500000	1.263545   
816.000000	1.230113   
816.500000	1.116378   
817.000000	1.256787   
817.500000	1.505030   
818.000000	1.775477   
818.500000	1.799848   
819.000000	1.753954   
819.500000	1.615590   
820.000000	1.512674   
820.500000	1.459393   
821.000000	1.660424   
821.500000	1.918151   
822.000000	2.019356   
822.500000	1.856462   
823.000000	1.827651   
823.500000	1.930106   
824.000000	2.258946   
824.500000	2.386575   
825.000000	2.495492   
825.500000	2.487424   
826.000000	2.413507   
826.500000	2.116704   
827.000000	1.890492   
827.500000	1.855325   
828.000000	1.889810   
828.500000	1.898628   
829.000000	1.707500   
829.500000	1.483393   
830.000000	1.259143   
830.500000	1.311090   
831.000000	1.458924   
831.500000	1.513401   
832.000000	1.320310   
832.500000	1.183446   
833.000000	1.141575   
833.500000	1.173674   
834.000000	1.190113   
834.500000	1.221037   
835.000000	1.153621   
835.500000	1.025833   
836.000000	0.907310   
836.500000	0.930719   
837.000000	1.012219   
837.500000	1.025007   
838.000000	0.946106   
838.500000	0.888416   
839.000000	0.831590   
839.500000	0.763219   
840.000000	0.707037   
840.500000	0.762636   
841.000000	0.844416   
841.500000	0.866378   
842.000000	0.806159   
842.500000	0.806931   
843.000000	0.783992   
843.500000	0.644666   
844.000000	0.409227   
844.500000	0.330568   
845.000000	0.400780   
845.500000	0.387462   
846.000000	0.276984   
846.500000	0.209583   
847.000000	0.318909   
847.500000	0.506128   
848.000000	0.649462   
848.500000	0.596181   
849.000000	0.429159   
849.500000	0.261749   
850.000000	0.327613   
850.500000	0.387560   
851.000000	0.255174   
851.500000	-0.027803  
852.000000	-0.120219  
852.500000	0.001712   
853.000000	0.181007   
853.500000	0.242886   
854.000000	0.205515   
854.500000	0.016333   
855.000000	-0.193454  
855.500000	-0.260590  
856.000000	-0.146628  
856.500000	0.046810   
857.000000	0.179348   
857.500000	0.221598   
858.000000	0.165007   
858.500000	0.060409   
859.000000	-0.109113  
859.500000	-0.250446  
860.000000	-0.362583  
860.500000	-0.285962  
861.000000	-0.127340  
861.500000	0.019007   
862.000000	0.045462   
862.500000	0.092628   
863.000000	0.113227   
863.500000	0.127636   
864.000000	0.004068   
864.500000	-0.093272  
865.000000	-0.162825  
865.500000	-0.041810  
866.000000	0.064416   
866.500000	0.069780   
867.000000	-0.048484  
867.500000	-0.079189  
868.000000	-0.006984  
868.500000	-0.005598  
869.000000	-0.119265  
869.500000	-0.230030  
870.000000	-0.141712  
870.500000	-0.022469  
871.000000	0.029363   
871.500000	-0.022030  
872.000000	-0.008636  
872.500000	0.060893   
873.000000	0.082325   
873.500000	0.006924   
874.000000	-0.088992  
874.500000	-0.096401  
875.000000	-0.006159  
875.500000	0.124090   
876.000000	0.207696   
876.500000	0.199121   
877.000000	0.103772   
877.500000	0.010977   
878.000000	-0.116840  
878.500000	-0.238045  
879.000000	-0.323803  
879.500000	-0.267045  
880.000000	-0.161757  
880.500000	-0.043931  
881.000000	-0.004106  
881.500000	0.001628   
882.000000	-0.027613  
882.500000	-0.061015  
883.000000	-0.043863  
883.500000	-0.020227  
884.000000	0.067303   
884.500000	0.114590   
885.000000	0.125030   
885.500000	0.038909   
886.000000	-0.056204  
886.500000	-0.129787  
887.000000	-0.086227  
887.500000	-0.110219  
888.000000	-0.179030  
888.500000	-0.346954  
889.000000	-0.446053  
889.500000	-0.460431  
890.000000	-0.364878  
890.500000	-0.223098  
891.000000	-0.060651  
891.500000	0.025856   
892.000000	0.002386   
892.500000	0.001030   
893.000000	-0.004204  
893.500000	0.081113   
894.000000	0.099621   
894.500000	0.125727   
895.000000	0.071962   
895.500000	0.025363   
896.000000	-0.054227  
896.500000	-0.090833  
897.000000	-0.183946  
897.500000	-0.254303  

