PE FL                   SPECTRUM    ASCII       PEDS        1.60        
  -1
SAAB89~1.SP
24/04/12
16:43:23.00
24/04/12
16:43:23.00
Jan

897.500000
1









LS55
405.00
5.00
5.00
SCAN
1
20
100
100
0
400
0
1
0
1
5
ON
450 405 
1 0 0
#HDR
-1
-1
#GR
NM

0.00002384185791015625
0.0
450.000000
0.500000
896
8
256.459545
-0.397295
#DATA
450.000000	0.544999   
450.500000	0.360681   
451.000000	0.132727   
451.500000	-0.030469  
452.000000	0.011295   
452.500000	0.047333   
453.000000	-0.001499  
453.500000	-0.147098  
454.000000	-0.132151  
454.500000	0.036242   
455.000000	0.208590   
455.500000	0.134871   
456.000000	-0.034022  
456.500000	-0.069098  
457.000000	0.053257   
457.500000	0.137280   
458.000000	0.036166   
458.500000	-0.057962  
459.000000	-0.014075  
459.500000	0.110681   
460.000000	0.134492   
460.500000	0.076560   
461.000000	-0.036219  
461.500000	-0.058280  
462.000000	-0.030719  
462.500000	-0.079280  
463.000000	-0.145825  
463.500000	-0.167265  
464.000000	-0.097583  
464.500000	0.043393   
465.000000	0.185946   
465.500000	0.217613   
466.000000	0.132674   
466.500000	0.081545   
467.000000	0.156151   
467.500000	0.298553   
468.000000	0.323962   
468.500000	0.315030   
469.000000	0.165098   
469.500000	-0.085537  
470.000000	-0.330446  
470.500000	-0.395628  
471.000000	-0.333030  
471.500000	-0.199068  
472.000000	-0.023053  
472.500000	0.018909   
473.000000	0.003696   
473.500000	-0.062833  
474.000000	-0.072242  
474.500000	-0.106500  
475.000000	-0.178000  
475.500000	-0.254931  
476.000000	-0.242962  
476.500000	-0.239969  
477.000000	-0.174469  
477.500000	-0.078765  
478.000000	0.003500   
478.500000	-0.014621  
479.000000	-0.001424  
479.500000	0.022159   
480.000000	0.064742   
480.500000	0.083189   
481.000000	0.092530   
481.500000	0.211757   
482.000000	0.253446   
482.500000	0.245022   
483.000000	0.159742   
483.500000	0.120712   
484.000000	0.031727   
484.500000	0.011984   
485.000000	0.162583   
485.500000	0.352030   
486.000000	0.370333   
486.500000	0.224606   
487.000000	0.072522   
487.500000	0.043515   
488.000000	0.090439   
488.500000	0.166386   
489.000000	0.138666   
489.500000	0.030090   
490.000000	-0.093507  
490.500000	0.069893   
491.000000	0.250636   
491.500000	0.381174   
492.000000	0.315098   
492.500000	0.344045   
493.000000	0.277840   
493.500000	0.235219   
494.000000	0.179893   
494.500000	0.169181   
495.000000	0.064992   
495.500000	-0.060954  
496.000000	0.022325   
496.500000	0.134090   
497.000000	0.165772   
497.500000	0.108128   
498.000000	0.228606   
498.500000	0.306007   
499.000000	0.316128   
499.500000	0.329454   
500.000000	0.542409   
500.500000	0.646696   
501.000000	0.660393   
501.500000	0.594204   
502.000000	0.638022   
502.500000	0.485121   
503.000000	0.365840   
503.500000	0.283030   
504.000000	0.466113   
504.500000	0.619022   
505.000000	0.779469   
505.500000	0.862742   
506.000000	0.954015   
506.500000	0.916818   
507.000000	0.898522   
507.500000	0.923386   
508.000000	0.962689   
508.500000	0.910098   
509.000000	0.824265   
509.500000	0.781878   
510.000000	0.920515   
510.500000	1.052666   
511.000000	1.090166   
511.500000	1.031916   
512.000000	0.964939   
512.500000	0.995022   
513.000000	1.049840   
513.500000	1.075219   
514.000000	1.086772   
514.500000	1.251409   
515.000000	1.504818   
515.500000	1.734530   
516.000000	1.825068   
516.500000	1.950265   
517.000000	2.148196   
517.500000	2.282772   
518.000000	2.097348   
518.500000	1.930469   
519.000000	1.956636   
519.500000	2.252272   
520.000000	2.382651   
520.500000	2.467863   
521.000000	2.499098   
521.500000	2.676901   
522.000000	2.706454   
522.500000	2.760280   
523.000000	2.836090   
523.500000	2.942106   
524.000000	2.983015   
524.500000	2.899916   
525.000000	2.893484   
525.500000	2.946689   
526.000000	3.071060   
526.500000	2.970454   
527.000000	2.992416   
527.500000	3.206818   
528.000000	3.607840   
528.500000	3.870401   
529.000000	3.997492   
529.500000	4.262454   
530.000000	4.621060   
530.500000	4.979227   
531.000000	5.099462   
531.500000	5.359545   
532.000000	5.772583   
532.500000	6.313583   
533.000000	6.545659   
533.500000	6.468325   
534.000000	6.465431   
534.500000	6.627045   
535.000000	6.903212   
535.500000	7.133856   
536.000000	7.528803   
536.500000	7.792666   
537.000000	8.164015   
537.500000	8.619106   
538.000000	9.150181   
538.500000	9.575560   
539.000000	9.818219   
539.500000	10.297674  
540.000000	10.730712  
540.500000	10.987560  
541.000000	10.823689  
541.500000	10.628848  
542.000000	10.639204  
542.500000	10.871946  
543.000000	11.237621  
543.500000	11.407219  
544.000000	11.570234  
544.500000	11.662962  
545.000000	11.867113  
545.500000	11.850068  
546.000000	11.811939  
546.500000	11.716946  
547.000000	11.623924  
547.500000	11.577757  
548.000000	11.618250  
548.500000	11.588583  
549.000000	11.506901  
549.500000	11.484598  
550.000000	11.766787  
550.500000	11.980803  
551.000000	11.863250  
551.500000	11.633409  
552.000000	11.725628  
552.500000	12.114393  
553.000000	12.539780  
553.500000	12.794818  
554.000000	12.713507  
554.500000	12.434621  
555.000000	12.094439  
555.500000	12.076522  
556.000000	12.478227  
556.500000	12.824787  
557.000000	12.875492  
557.500000	12.650734  
558.000000	13.039393  
558.500000	13.569734  
559.000000	14.177530  
559.500000	14.439530  
560.000000	14.996840  
560.500000	15.539037  
561.000000	16.053356  
561.500000	16.542909  
562.000000	17.251393  
562.500000	18.093159  
563.000000	18.364401  
563.500000	18.185022  
564.000000	17.909083  
564.500000	18.084750  
565.000000	18.810083  
565.500000	19.507651  
566.000000	20.120916  
566.500000	20.376287  
567.000000	20.742893  
567.500000	20.827977  
568.000000	21.336136  
568.500000	21.752651  
569.000000	22.431560  
569.500000	22.996795  
570.000000	23.852333  
570.500000	24.604287  
571.000000	24.985469  
571.500000	25.060166  
572.000000	25.123840  
572.500000	25.902507  
573.000000	26.518621  
573.500000	27.217416  
574.000000	27.829386  
574.500000	28.079575  
575.000000	27.915007  
575.500000	27.835886  
576.000000	28.377022  
576.500000	29.104090  
577.000000	29.575265  
577.500000	29.676810  
578.000000	30.068545  
578.500000	30.990075  
579.000000	32.258696  
579.500000	33.628196  
580.000000	33.588795  
580.500000	33.174492  
581.000000	33.415181  
581.500000	35.114318  
582.000000	36.810878  
582.500000	37.820219  
583.000000	37.668083  
583.500000	37.533818  
584.000000	37.566613  
584.500000	38.544537  
585.000000	39.878484  
585.500000	41.122295  
586.000000	41.427060  
586.500000	41.750750  
587.000000	42.390833  
587.500000	43.712272  
588.000000	45.323424  
588.500000	47.011712  
589.000000	48.172575  
589.500000	48.746424  
590.000000	49.072712  
590.500000	49.975181  
591.000000	51.326621  
591.500000	52.204613  
592.000000	52.595174  
592.500000	53.546772  
593.000000	55.352189  
593.500000	56.838704  
594.000000	57.582340  
594.500000	58.226318  
595.000000	59.618371  
595.500000	60.925295  
596.000000	61.894098  
596.500000	62.252484  
597.000000	62.618742  
597.500000	63.103962  
598.000000	64.305424  
598.500000	66.114007  
599.000000	67.686227  
599.500000	68.992015  
600.000000	70.354363  
600.500000	72.037772  
601.000000	73.717969  
601.500000	75.269371  
602.000000	76.017090  
602.500000	76.338590  
603.000000	76.963530  
603.500000	78.229590  
604.000000	79.935969  
604.500000	81.557106  
605.000000	83.689106  
605.500000	86.093136  
606.000000	88.541075  
606.500000	89.884439  
607.000000	90.737257  
607.500000	91.302651  
608.000000	92.890454  
608.500000	94.911477  
609.000000	96.249659  
609.500000	96.686113  
610.000000	98.141196  
610.500000	101.853507 
611.000000	106.498537 
611.500000	109.649545 
612.000000	110.507446 
612.500000	111.410378 
613.000000	113.274590 
613.500000	116.298113 
614.000000	118.977704 
614.500000	120.498651 
615.000000	121.522166 
615.500000	123.204121 
616.000000	125.613719 
616.500000	128.115848 
617.000000	129.625401 
617.500000	130.583537 
618.000000	132.227825 
618.500000	134.716174 
619.000000	137.221583 
619.500000	139.417765 
620.000000	141.088787 
620.500000	143.280583 
621.000000	145.576628 
621.500000	147.580878 
622.000000	150.212136 
622.500000	153.981954 
623.000000	157.332803 
623.500000	159.262909 
624.000000	160.653893 
624.500000	163.136356 
625.000000	166.695469 
625.500000	170.328181 
626.000000	172.808128 
626.500000	174.683780 
627.000000	176.552969 
627.500000	179.942780 
628.000000	183.341621 
628.500000	186.061659 
629.000000	187.709893 
629.500000	190.929159 
630.000000	193.744712 
630.500000	196.574159 
631.000000	198.662340 
631.500000	201.623825 
632.000000	203.747515 
632.500000	206.018696 
633.000000	207.040750 
633.500000	208.027242 
634.000000	209.234356 
634.500000	213.005530 
635.000000	216.909537 
635.500000	219.654689 
636.000000	220.150166 
636.500000	222.463045 
637.000000	225.612386 
637.500000	228.754113 
638.000000	230.277515 
638.500000	232.108666 
639.000000	234.225810 
639.500000	235.892969 
640.000000	236.180121 
640.500000	236.643787 
641.000000	239.803560 
641.500000	243.652227 
642.000000	245.771204 
642.500000	244.579810 
643.000000	243.395772 
643.500000	243.828333 
644.000000	246.226340 
644.500000	248.122810 
645.000000	249.706363 
645.500000	250.453742 
646.000000	250.846757 
646.500000	250.228083 
647.000000	250.643689 
647.500000	250.988106 
648.000000	252.168212 
648.500000	253.046939 
649.000000	254.760825 
649.500000	255.582856 
650.000000	256.459545 
650.500000	255.048515 
651.000000	252.963053 
651.500000	250.421750 
652.000000	249.578954 
652.500000	249.802515 
653.000000	249.592348 
653.500000	248.280818 
654.000000	246.358242 
654.500000	244.920727 
655.000000	243.007984 
655.500000	242.404560 
656.000000	240.717651 
656.500000	238.374462 
657.000000	234.857901 
657.500000	232.899787 
658.000000	232.540984 
658.500000	232.865492 
659.000000	231.714090 
659.500000	229.410818 
660.000000	226.265621 
660.500000	224.172500 
661.000000	221.549401 
661.500000	219.339992 
662.000000	216.084643 
662.500000	213.578666 
663.000000	209.831772 
663.500000	205.582378 
664.000000	200.635719 
664.500000	197.122628 
665.000000	195.174348 
665.500000	193.073174 
666.000000	190.170068 
666.500000	185.407060 
667.000000	180.656931 
667.500000	176.498242 
668.000000	173.883234 
668.500000	171.607833 
669.000000	168.328151 
669.500000	163.834340 
670.000000	159.185068 
670.500000	155.033181 
671.000000	151.363803 
671.500000	148.055636 
672.000000	144.790878 
672.500000	141.685106 
673.000000	138.122984 
673.500000	133.980462 
674.000000	129.247515 
674.500000	125.708666 
675.000000	123.001340 
675.500000	120.216393 
676.000000	116.329931 
676.500000	112.246507 
677.000000	109.004151 
677.500000	106.239530 
678.000000	103.511310 
678.500000	100.627628 
679.000000	97.709439  
679.500000	94.565977  
680.000000	91.237166  
680.500000	88.964553  
681.000000	86.941757  
681.500000	85.725931  
682.000000	82.869143  
682.500000	79.866696  
683.000000	76.861659  
683.500000	75.469431  
684.000000	73.959333  
684.500000	71.641628  
685.000000	68.665568  
685.500000	65.910969  
686.000000	64.076136  
686.500000	62.868348  
687.000000	61.857734  
687.500000	60.055946  
688.000000	57.577530  
688.500000	54.801651  
689.000000	52.439378  
689.500000	51.126969  
690.000000	50.480659  
690.500000	48.953204  
691.000000	46.635075  
691.500000	44.583333  
692.000000	44.379166  
692.500000	44.186628  
693.000000	42.651909  
693.500000	40.260219  
694.000000	38.707969  
694.500000	38.253227  
695.000000	37.844310  
695.500000	36.997166  
696.000000	35.474340  
696.500000	33.793477  
697.000000	32.289227  
697.500000	31.325946  
698.000000	30.634780  
698.500000	30.024113  
699.000000	29.389446  
699.500000	28.822689  
700.000000	28.086962  
700.500000	27.520750  
701.000000	26.725393  
701.500000	25.942590  
702.000000	24.831121  
702.500000	23.939530  
703.000000	23.094962  
703.500000	22.443674  
704.000000	22.050803  
704.500000	21.937030  
705.000000	21.554704  
705.500000	20.723492  
706.000000	20.276106  
706.500000	20.267409  
707.000000	19.952424  
707.500000	18.851939  
708.000000	18.187931  
708.500000	18.056681  
709.000000	18.020674  
709.500000	17.289416  
710.000000	17.065113  
710.500000	16.699121  
711.000000	16.118272  
711.500000	14.723765  
712.000000	14.237022  
712.500000	14.101795  
713.000000	14.222151  
713.500000	13.823666  
714.000000	13.897136  
714.500000	13.662303  
715.000000	13.414477  
715.500000	13.122454  
716.000000	13.219689  
716.500000	13.198901  
717.000000	13.037106  
717.500000	12.581712  
718.000000	12.163878  
718.500000	11.658007  
719.000000	11.256500  
719.500000	10.985924  
720.000000	10.775439  
720.500000	10.555075  
721.000000	10.545242  
721.500000	10.617507  
722.000000	10.412833  
722.500000	10.187431  
723.000000	10.013780  
723.500000	9.991522   
724.000000	9.613962   
724.500000	8.956446   
725.000000	8.497583   
725.500000	8.503871   
726.000000	8.601075   
726.500000	8.740416   
727.000000	8.768098   
727.500000	8.494424   
728.000000	8.314704   
728.500000	8.108772   
729.000000	8.074734   
729.500000	7.933356   
730.000000	7.943333   
730.500000	8.009856   
731.000000	8.040075   
731.500000	7.692143   
732.000000	7.342492   
732.500000	7.308734   
733.000000	7.517393   
733.500000	7.725954   
734.000000	7.530977   
734.500000	7.041901   
735.000000	6.623522   
735.500000	6.442901   
736.000000	6.590825   
736.500000	6.892446   
737.000000	7.021984   
737.500000	6.840121   
738.000000	6.629257   
738.500000	6.617242   
739.000000	6.617363   
739.500000	6.628515   
740.000000	6.326583   
740.500000	6.179242   
741.000000	6.004022   
741.500000	5.842143   
742.000000	5.565053   
742.500000	5.416765   
743.000000	5.322000   
743.500000	5.328568   
744.000000	5.394045   
744.500000	5.386810   
745.000000	5.218121   
745.500000	4.874106   
746.000000	4.741583   
746.500000	5.051636   
747.000000	5.349659   
747.500000	5.419606   
748.000000	5.125174   
748.500000	4.791227   
749.000000	4.578181   
749.500000	4.634015   
750.000000	4.689833   
750.500000	4.829719   
751.000000	4.935469   
751.500000	4.961234   
752.000000	4.623878   
752.500000	4.482878   
753.000000	4.503007   
753.500000	4.663606   
754.000000	4.393310   
754.500000	4.087098   
755.000000	3.837931   
755.500000	3.734196   
756.000000	3.768962   
756.500000	3.972439   
757.000000	4.263795   
757.500000	4.269090   
758.000000	4.151363   
758.500000	3.923742   
759.000000	3.762659   
759.500000	3.522007   
760.000000	3.518628   
760.500000	3.729704   
761.000000	4.200340   
761.500000	4.594674   
762.000000	4.651075   
762.500000	4.168863   
763.000000	3.717515   
763.500000	3.646393   
764.000000	3.834295   
764.500000	3.719181   
765.000000	3.488810   
765.500000	3.462424   
766.000000	3.613416   
766.500000	3.528431   
767.000000	3.347568   
767.500000	3.391545   
768.000000	3.568742   
768.500000	3.641689   
769.000000	3.450287   
769.500000	3.295719   
770.000000	3.248257   
770.500000	3.345265   
771.000000	3.356590   
771.500000	3.301022   
772.000000	3.235196   
772.500000	3.329060   
773.000000	3.435780   
773.500000	3.488113   
774.000000	3.236734   
774.500000	2.976098   
775.000000	2.728939   
775.500000	2.813075   
776.000000	2.890893   
776.500000	3.038507   
777.000000	3.139159   
777.500000	3.314939   
778.000000	3.337098   
778.500000	3.186492   
779.000000	3.003537   
779.500000	2.926848   
780.000000	2.942106   
780.500000	2.967636   
781.000000	2.996734   
781.500000	3.037787   
782.000000	3.057992   
782.500000	3.132583   
783.000000	3.153833   
783.500000	3.120651   
784.000000	2.838272   
784.500000	2.557704   
785.000000	2.361931   
785.500000	2.420250   
786.000000	2.504500   
786.500000	2.548954   
787.000000	2.577424   
787.500000	2.690522   
788.000000	2.818750   
788.500000	2.904325   
789.000000	2.957090   
789.500000	2.952977   
790.000000	2.807303   
790.500000	2.701909   
791.000000	2.681939   
791.500000	2.744143   
792.000000	2.747924   
792.500000	2.636757   
793.000000	2.533636   
793.500000	2.462303   
794.000000	2.525060   
794.500000	2.497462   
795.000000	2.275939   
795.500000	1.934590   
796.000000	1.913696   
796.500000	2.088204   
797.000000	2.250787   
797.500000	2.311174   
798.000000	2.421636   
798.500000	2.552719   
799.000000	2.526977   
799.500000	2.356613   
800.000000	2.223893   
800.500000	2.177583   
801.000000	2.037750   
801.500000	1.856818   
802.000000	1.597121   
802.500000	1.379386   
803.000000	1.346568   
803.500000	1.532424   
804.000000	1.766469   
804.500000	1.932575   
805.000000	1.950553   
805.500000	1.950030   
806.000000	1.879045   
806.500000	1.749000   
807.000000	1.551628   
807.500000	1.368893   
808.000000	1.197878   
808.500000	1.160393   
809.000000	1.362803   
809.500000	1.622856   
810.000000	1.766787   
810.500000	1.682159   
811.000000	1.674939   
811.500000	1.787174   
812.000000	1.715136   
812.500000	1.495348   
813.000000	1.474431   
813.500000	1.805931   
814.000000	2.035621   
814.500000	1.821719   
815.000000	1.400803   
815.500000	1.166924   
816.000000	1.163840   
816.500000	1.333272   
817.000000	1.483833   
817.500000	1.553356   
818.000000	1.383492   
818.500000	1.457772   
819.000000	1.683659   
819.500000	2.003909   
820.000000	1.877136   
820.500000	1.712462   
821.000000	1.652181   
821.500000	1.773022   
822.000000	1.856106   
822.500000	2.119772   
823.000000	2.367098   
823.500000	2.470522   
824.000000	2.290734   
824.500000	2.169575   
825.000000	2.137371   
825.500000	2.245666   
826.000000	2.255106   
826.500000	2.445204   
827.000000	2.546265   
827.500000	2.533060   
828.000000	2.283083   
828.500000	1.955439   
829.000000	1.658272   
829.500000	1.457931   
830.000000	1.302469   
830.500000	1.272643   
831.000000	1.338689   
831.500000	1.366181   
832.000000	1.314545   
832.500000	1.212750   
833.000000	1.127984   
833.500000	1.152674   
834.000000	1.141803   
834.500000	1.002348   
835.000000	0.885575   
835.500000	0.908272   
836.000000	1.128772   
836.500000	1.201598   
837.000000	1.150803   
837.500000	1.024780   
838.000000	1.012840   
838.500000	0.882742   
839.000000	0.756030   
839.500000	0.639522   
840.000000	0.616409   
840.500000	0.604015   
841.000000	0.647681   
841.500000	0.643492   
842.000000	0.484954   
842.500000	0.250757   
843.000000	0.219181   
843.500000	0.381348   
844.000000	0.601939   
844.500000	0.655901   
845.000000	0.592954   
845.500000	0.484962   
846.000000	0.531174   
846.500000	0.571212   
847.000000	0.529946   
847.500000	0.359946   
848.000000	0.250515   
848.500000	0.289272   
849.000000	0.397848   
849.500000	0.521583   
850.000000	0.527734   
850.500000	0.398166   
851.000000	0.172257   
851.500000	0.042462   
852.000000	-0.003659  
852.500000	0.003825   
853.000000	-0.047878  
853.500000	-0.067477  
854.000000	0.084446   
854.500000	0.313643   
855.000000	0.337484   
855.500000	0.090515   
856.000000	-0.035590  
856.500000	0.050931   
857.000000	0.191022   
857.500000	0.164598   
858.000000	0.140060   
858.500000	0.165984   
859.000000	0.130045   
859.500000	0.011000   
860.000000	-0.098424  
860.500000	-0.011628  
861.000000	0.086060   
861.500000	0.147666   
862.000000	0.084257   
862.500000	0.125590   
863.000000	0.203333   
863.500000	0.207772   
864.000000	0.096636   
864.500000	0.027628   
865.000000	0.072962   
865.500000	0.011984   
866.000000	-0.034659  
866.500000	-0.189128  
867.000000	-0.264522  
867.500000	-0.397295  
868.000000	-0.325719  
868.500000	-0.124189  
869.000000	0.128742   
869.500000	0.165272   
870.000000	0.083810   
870.500000	-0.060287  
871.000000	-0.142015  
871.500000	-0.128939  
872.000000	-0.055871  
872.500000	-0.048242  
873.000000	-0.033878  
873.500000	-0.041977  
874.000000	0.042386   
874.500000	0.049924   
875.000000	-0.038628  
875.500000	-0.113537  
876.000000	-0.022257  
876.500000	-0.004954  
877.000000	-0.053219  
877.500000	-0.101310  
878.000000	0.010462   
878.500000	0.045628   
879.000000	0.048537   
879.500000	0.032969   
880.000000	0.121015   
880.500000	0.151318   
881.000000	0.071575   
881.500000	0.029204   
882.000000	-0.032159  
882.500000	0.010280   
883.000000	0.021181   
883.500000	0.077954   
884.000000	-0.014757  
884.500000	0.012651   
885.000000	0.056643   
885.500000	0.130484   
886.000000	0.049545   
886.500000	-0.073401  
887.000000	-0.099128  
887.500000	0.003795   
888.000000	0.098075   
888.500000	0.004515   
889.000000	-0.150924  
889.500000	-0.238643  
890.000000	-0.158166  
890.500000	-0.075621  
891.000000	-0.062257  
891.500000	-0.046803  
892.000000	-0.037000  
892.500000	-0.044030  
893.000000	-0.141295  
893.500000	-0.149984  
894.000000	-0.103439  
894.500000	-0.061643  
895.000000	-0.088575  
895.500000	-0.165863  
896.000000	-0.220840  
896.500000	-0.215484  
897.000000	-0.119371  
897.500000	-0.020083  

