PE FL                   SPECTRUM    ASCII       PEDS        1.60        
  -1
SAA391~1.SP
24/04/12
17:13:19.00
24/04/12
17:13:19.00
Jan

897.500000
1









LS55
405.00
5.00
5.00
SCAN
1
20
100
100
0
400
0
1
0
1
5
ON
450 405 
1 0 0
#HDR
-1
-1
#GR
NM

0.00002384185791015625
0.0
450.000000
0.500000
896
8
204.757666
-0.473954
#DATA
450.000000	-0.202000  
450.500000	-0.247310  
451.000000	-0.362719  
451.500000	-0.393348  
452.000000	-0.222500  
452.500000	0.112227   
453.000000	0.226333   
453.500000	0.051833   
454.000000	-0.256037  
454.500000	-0.407325  
455.000000	-0.324075  
455.500000	-0.295787  
456.000000	-0.267606  
456.500000	-0.245681  
457.000000	-0.165189  
457.500000	-0.173234  
458.000000	-0.164916  
458.500000	-0.095598  
459.000000	0.025643   
459.500000	0.055037   
460.000000	-0.005189  
460.500000	0.047621   
461.000000	0.141053   
461.500000	0.175628   
462.000000	0.079939   
462.500000	-0.096416  
463.000000	-0.154856  
463.500000	-0.046378  
464.000000	0.000878   
464.500000	0.053734   
465.000000	0.113507   
465.500000	0.283340   
466.000000	0.329204   
466.500000	0.288363   
467.000000	0.115318   
467.500000	0.070954   
468.000000	0.175090   
468.500000	0.264469   
469.000000	0.285992   
469.500000	0.227522   
470.000000	0.344848   
470.500000	0.428553   
471.000000	0.396954   
471.500000	0.264143   
472.000000	0.068636   
472.500000	-0.010772  
473.000000	0.000469   
473.500000	0.208666   
474.000000	0.216590   
474.500000	0.095568   
475.000000	-0.060037  
475.500000	-0.024250  
476.000000	-0.119333  
476.500000	-0.184113  
477.000000	-0.101393  
477.500000	0.104363   
478.000000	0.125454   
478.500000	0.072454   
479.000000	0.106659   
479.500000	0.273159   
480.000000	0.317977   
480.500000	0.193659   
481.000000	0.052681   
481.500000	-0.045886  
482.000000	-0.064356  
482.500000	0.014242   
483.000000	0.100795   
483.500000	0.183257   
484.000000	0.160590   
484.500000	0.176174   
485.000000	0.106007   
485.500000	0.079833   
486.000000	-0.001439  
486.500000	0.020106   
487.000000	-0.029113  
487.500000	-0.103106  
488.000000	-0.160037  
488.500000	-0.080022  
489.000000	0.041825   
489.500000	0.139946   
490.000000	0.195234   
490.500000	0.285098   
491.000000	0.359515   
491.500000	0.415174   
492.000000	0.224416   
492.500000	-0.012909  
493.000000	-0.148151  
493.500000	0.086022   
494.000000	0.288015   
494.500000	0.385878   
495.000000	0.327636   
495.500000	0.336856   
496.000000	0.315621   
496.500000	0.361696   
497.000000	0.347075   
497.500000	0.257590   
498.000000	0.115469   
498.500000	0.203037   
499.000000	0.383931   
499.500000	0.442250   
500.000000	0.252772   
500.500000	0.198272   
501.000000	0.191507   
501.500000	0.266871   
502.000000	0.140719   
502.500000	0.228696   
503.000000	0.293530   
503.500000	0.513098   
504.000000	0.499007   
504.500000	0.575840   
505.000000	0.535765   
505.500000	0.640257   
506.000000	0.724696   
506.500000	0.940340   
507.000000	1.098439   
507.500000	1.112446   
508.000000	1.076515   
508.500000	1.042946   
509.000000	1.037537   
509.500000	0.947060   
510.000000	0.819136   
510.500000	0.755598   
511.000000	0.849484   
511.500000	1.027439   
512.000000	1.239310   
512.500000	1.260939   
513.000000	1.140045   
513.500000	1.080136   
514.000000	1.283401   
514.500000	1.577560   
515.000000	1.867977   
515.500000	1.975348   
516.000000	1.970037   
516.500000	1.878469   
517.000000	1.961500   
517.500000	2.236174   
518.000000	2.586712   
518.500000	2.740484   
519.000000	2.730045   
519.500000	2.593045   
520.000000	2.480265   
520.500000	2.493356   
521.000000	2.703992   
521.500000	2.941742   
522.000000	3.071825   
522.500000	3.054280   
523.000000	2.952386   
523.500000	2.916174   
524.000000	2.908007   
524.500000	3.125628   
525.000000	3.395530   
525.500000	3.640083   
526.000000	3.532901   
526.500000	3.622992   
527.000000	3.973083   
527.500000	4.543893   
528.000000	4.828098   
528.500000	4.880545   
529.000000	4.963106   
529.500000	5.219060   
530.000000	5.573227   
530.500000	5.662863   
531.000000	5.742212   
531.500000	6.006272   
532.000000	6.629196   
532.500000	7.087159   
533.000000	7.205734   
533.500000	7.147931   
534.000000	7.298659   
534.500000	7.332507   
535.000000	7.364742   
535.500000	7.657893   
536.000000	8.396893   
536.500000	9.232090   
537.000000	9.793280   
537.500000	9.939219   
538.000000	9.990833   
538.500000	10.191469  
539.000000	10.519212  
539.500000	10.902007  
540.000000	11.124409  
540.500000	11.382712  
541.000000	11.666613  
541.500000	12.118863  
542.000000	12.525833  
542.500000	12.688189  
543.000000	12.501590  
543.500000	12.350136  
544.000000	12.229689  
544.500000	12.236931  
545.000000	12.151727  
545.500000	12.216022  
546.000000	12.231893  
546.500000	12.334378  
547.000000	12.191075  
547.500000	12.036340  
548.000000	11.690560  
548.500000	11.560121  
549.000000	11.421878  
549.500000	11.567181  
550.000000	11.800469  
550.500000	12.062954  
551.000000	11.957916  
551.500000	11.738143  
552.000000	11.710628  
552.500000	11.941106  
553.000000	12.027848  
553.500000	12.072363  
554.000000	12.390053  
554.500000	12.602500  
555.000000	12.648583  
555.500000	12.448386  
556.000000	12.564863  
556.500000	12.784628  
557.000000	13.371537  
557.500000	13.922757  
558.000000	14.640674  
558.500000	14.772295  
559.000000	15.089659  
559.500000	15.606530  
560.000000	16.663507  
560.500000	17.451333  
561.000000	17.811431  
561.500000	17.551083  
562.000000	17.110765  
562.500000	17.152174  
563.000000	17.552916  
563.500000	18.297954  
564.000000	18.912060  
564.500000	19.734863  
565.000000	20.023992  
565.500000	20.026219  
566.000000	19.870272  
566.500000	20.600901  
567.000000	21.633128  
567.500000	22.402901  
568.000000	22.420583  
568.500000	22.575075  
569.000000	23.094371  
569.500000	23.866037  
570.000000	24.698833  
570.500000	25.450719  
571.000000	26.101992  
571.500000	26.041022  
572.000000	25.593522  
572.500000	25.198787  
573.000000	25.359143  
573.500000	26.264969  
574.000000	27.690340  
574.500000	29.090303  
575.000000	29.849037  
575.500000	30.098492  
576.000000	29.686696  
576.500000	29.911598  
577.000000	30.843606  
577.500000	32.076893  
578.000000	32.398939  
578.500000	31.957015  
579.000000	31.639659  
579.500000	32.369946  
580.000000	33.956492  
580.500000	35.255984  
581.000000	35.783378  
581.500000	35.719931  
582.000000	36.838901  
582.500000	37.845500  
583.000000	38.105545  
583.500000	37.194257  
584.000000	37.265787  
584.500000	38.188143  
585.000000	39.875636  
585.500000	40.952643  
586.000000	41.788484  
586.500000	42.694924  
587.000000	44.175030  
587.500000	45.524303  
588.000000	46.316166  
588.500000	46.449916  
589.000000	47.008151  
589.500000	47.877500  
590.000000	49.252803  
590.500000	50.087416  
591.000000	51.165303  
591.500000	52.080734  
592.000000	53.433810  
592.500000	54.531454  
593.000000	55.057492  
593.500000	55.484984  
594.000000	55.842772  
594.500000	56.673454  
595.000000	58.000030  
595.500000	60.009666  
596.000000	61.537212  
596.500000	62.331704  
597.000000	62.352378  
597.500000	62.713704  
598.000000	63.859893  
598.500000	65.836590  
599.000000	67.855727  
599.500000	69.273909  
600.000000	69.635128  
600.500000	70.001659  
601.000000	70.845530  
601.500000	72.459977  
602.000000	74.319742  
602.500000	76.177106  
603.000000	77.678151  
603.500000	78.526628  
604.000000	78.616053  
604.500000	79.394795  
605.000000	81.383651  
605.500000	84.235075  
606.000000	86.036166  
606.500000	87.108083  
607.000000	88.030636  
607.500000	89.896765  
608.000000	91.498931  
608.500000	92.697537  
609.000000	93.864613  
609.500000	95.457500  
610.000000	96.865886  
610.500000	98.166825  
611.000000	99.663242  
611.500000	101.304325 
612.000000	103.251886 
612.500000	105.394712 
613.000000	107.924075 
613.500000	109.644310 
614.000000	110.684772 
614.500000	112.423159 
615.000000	115.425583 
615.500000	118.222348 
616.000000	118.722068 
616.500000	119.293318 
617.000000	120.613143 
617.500000	123.817113 
618.000000	125.720113 
618.500000	126.283848 
619.000000	126.188484 
619.500000	128.913590 
620.000000	133.369128 
620.500000	137.063590 
621.000000	137.680946 
621.500000	137.257901 
622.000000	137.903727 
622.500000	140.422439 
623.000000	143.608295 
623.500000	147.550318 
624.000000	150.436628 
624.500000	152.224803 
625.000000	153.877719 
625.500000	156.081810 
626.000000	157.594045 
626.500000	159.071424 
627.000000	161.025969 
627.500000	163.626946 
628.000000	165.573136 
628.500000	167.333628 
629.000000	170.459553 
629.500000	173.880666 
630.000000	176.118454 
630.500000	176.241416 
631.000000	176.834984 
631.500000	178.334265 
632.000000	182.348689 
632.500000	185.905166 
633.000000	187.220386 
633.500000	185.898325 
634.000000	185.851280 
634.500000	187.926500 
635.000000	190.750083 
635.500000	190.911568 
636.000000	190.421984 
636.500000	191.155909 
637.000000	194.046795 
637.500000	196.162818 
638.000000	197.641621 
638.500000	198.316469 
639.000000	199.148439 
639.500000	200.097560 
640.000000	201.054818 
640.500000	201.814704 
641.000000	201.892287 
641.500000	200.562371 
642.000000	199.134712 
642.500000	198.730431 
643.000000	200.156113 
643.500000	202.116143 
644.000000	204.275878 
644.500000	204.757666 
645.000000	204.041045 
645.500000	202.681030 
646.000000	202.356575 
646.500000	202.690446 
647.000000	202.445386 
647.500000	200.664204 
648.000000	199.900454 
648.500000	199.946166 
649.000000	200.418356 
649.500000	199.585893 
650.000000	199.127166 
650.500000	198.149636 
651.000000	196.951007 
651.500000	195.200909 
652.000000	193.984204 
652.500000	192.084750 
653.000000	189.362106 
653.500000	187.709871 
654.000000	186.897363 
654.500000	185.348606 
655.000000	182.093795 
655.500000	179.570863 
656.000000	179.191106 
656.500000	179.054409 
657.000000	176.896431 
657.500000	173.139227 
658.000000	170.024886 
658.500000	167.796053 
659.000000	165.896424 
659.500000	164.073083 
660.000000	162.379893 
660.500000	160.132992 
661.000000	156.208916 
661.500000	151.600310 
662.000000	147.276310 
662.500000	143.789750 
663.000000	141.180553 
663.500000	139.750287 
664.000000	137.705583 
664.500000	134.064416 
665.000000	129.166106 
665.500000	125.192159 
666.000000	122.575272 
666.500000	120.338272 
667.000000	117.253060 
667.500000	113.927545 
668.000000	111.448053 
668.500000	109.384515 
669.000000	106.522507 
669.500000	103.417742 
670.000000	100.716015 
670.500000	97.795363  
671.000000	94.241371  
671.500000	90.968545  
672.000000	88.993621  
672.500000	87.817787  
673.000000	85.534340  
673.500000	82.367484  
674.000000	79.354750  
674.500000	77.059090  
675.000000	74.960825  
675.500000	72.655159  
676.000000	69.241583  
676.500000	66.986303  
677.000000	65.543916  
677.500000	64.822772  
678.000000	62.803037  
678.500000	60.668015  
679.000000	58.959386  
679.500000	58.144227  
680.000000	56.524522  
680.500000	54.378840  
681.000000	52.091318  
681.500000	50.341356  
682.000000	49.014946  
682.500000	47.731424  
683.000000	45.822212  
683.500000	43.732250  
684.000000	41.817598  
684.500000	41.104583  
685.000000	40.507068  
685.500000	39.470257  
686.000000	37.993022  
686.500000	37.191651  
687.000000	36.502242  
687.500000	35.572098  
688.000000	33.916378  
688.500000	32.774787  
689.000000	31.973287  
689.500000	31.161977  
690.000000	30.118787  
690.500000	29.584742  
691.000000	29.058848  
691.500000	28.116666  
692.000000	26.785439  
692.500000	25.837439  
693.000000	25.607787  
693.500000	25.519469  
694.000000	24.964401  
694.500000	24.170666  
695.000000	23.111659  
695.500000	21.995583  
696.000000	20.985916  
696.500000	20.572136  
697.000000	20.305431  
697.500000	20.186924  
698.000000	19.656000  
698.500000	18.790454  
699.000000	17.595992  
699.500000	17.083863  
700.000000	17.070083  
700.500000	17.013280  
701.000000	16.480401  
701.500000	16.361803  
702.000000	16.476409  
702.500000	16.153015  
703.000000	15.122151  
703.500000	14.150659  
704.000000	13.739613  
704.500000	13.571621  
705.000000	13.354356  
705.500000	13.017757  
706.000000	12.766522  
706.500000	12.503840  
707.000000	12.227189  
707.500000	11.840757  
708.000000	11.612946  
708.500000	11.832500  
709.000000	12.079363  
709.500000	11.987113  
710.000000	11.363424  
710.500000	11.053886  
711.000000	10.904871  
711.500000	10.946166  
712.000000	10.260522  
712.500000	9.899787   
713.000000	9.928431   
713.500000	10.527053  
714.000000	10.536287  
714.500000	10.198545  
715.000000	9.813522   
715.500000	9.449325   
716.000000	8.770848   
716.500000	8.149280   
717.000000	8.200749   
717.500000	8.676136   
718.000000	9.003628   
718.500000	8.919227   
719.000000	8.626946   
719.500000	8.286886   
720.000000	7.906272   
720.500000	7.518431   
721.000000	7.152363   
721.500000	6.754000   
722.000000	6.707636   
722.500000	6.944492   
723.000000	7.382250   
723.500000	7.584181   
724.000000	7.656621   
724.500000	7.361681   
725.000000	6.776166   
725.500000	6.194242   
726.000000	5.918810   
726.500000	6.105257   
727.000000	6.177621   
727.500000	6.068484   
728.000000	5.920613   
728.500000	6.103492   
729.000000	6.287348   
729.500000	6.278787   
730.000000	6.025674   
730.500000	5.702992   
731.000000	5.669553   
731.500000	5.852893   
732.000000	6.185257   
732.500000	6.283151   
733.000000	6.092568   
733.500000	5.749068   
734.000000	5.439053   
734.500000	5.396530   
735.000000	5.467424   
735.500000	5.437325   
736.000000	5.214674   
736.500000	5.122803   
737.000000	5.341318   
737.500000	5.434280   
738.000000	5.060227   
738.500000	4.417878   
739.000000	4.291416   
739.500000	4.513022   
740.000000	4.978356   
740.500000	5.104424   
741.000000	5.082068   
741.500000	4.972022   
742.000000	4.863484   
742.500000	4.731651   
743.000000	4.659939   
743.500000	4.756931   
744.000000	4.738045   
744.500000	4.562704   
745.000000	4.183924   
745.500000	4.120568   
746.000000	4.170053   
746.500000	4.344840   
747.000000	4.392098   
747.500000	4.321750   
748.000000	3.978742   
748.500000	3.642469   
749.000000	3.586431   
749.500000	3.990704   
750.000000	4.339962   
750.500000	4.356257   
751.000000	4.042310   
751.500000	3.760386   
752.000000	3.490719   
752.500000	3.472106   
753.000000	3.574712   
753.500000	3.816393   
754.000000	3.991409   
754.500000	4.090431   
755.000000	4.044227   
755.500000	3.752598   
756.000000	3.369409   
756.500000	3.288575   
757.000000	3.525325   
757.500000	3.680159   
758.000000	3.570712   
758.500000	3.548393   
759.000000	3.532553   
759.500000	3.546590   
760.000000	3.291219   
760.500000	3.116143   
761.000000	3.071863   
761.500000	3.186000   
762.000000	3.244931   
762.500000	3.201848   
763.000000	3.165962   
763.500000	3.221272   
764.000000	3.508265   
764.500000	3.696825   
765.000000	3.785734   
765.500000	3.621090   
766.000000	3.546378   
766.500000	3.431409   
767.000000	3.426772   
767.500000	3.376128   
768.000000	3.340787   
768.500000	3.180280   
769.000000	3.111848   
769.500000	3.134674   
770.000000	3.136772   
770.500000	3.036166   
771.000000	2.995083   
771.500000	3.170143   
772.000000	3.455886   
772.500000	3.398984   
773.000000	3.127454   
773.500000	2.830553   
774.000000	2.693500   
774.500000	2.633340   
775.000000	2.804689   
775.500000	3.032053   
776.000000	3.223136   
776.500000	3.037886   
777.000000	2.827606   
777.500000	2.812621   
778.000000	3.036863   
778.500000	3.114037   
779.000000	3.100507   
779.500000	2.989871   
780.000000	2.887825   
780.500000	2.682530   
781.000000	2.437340   
781.500000	2.290189   
782.000000	2.340825   
782.500000	2.498340   
783.000000	2.752583   
783.500000	2.896522   
784.000000	2.959356   
784.500000	2.765462   
785.000000	2.579196   
785.500000	2.488742   
786.000000	2.601628   
786.500000	2.634242   
787.000000	2.543795   
787.500000	2.432022   
788.000000	2.341719   
788.500000	2.264833   
789.000000	2.158901   
789.500000	2.304356   
790.000000	2.648098   
790.500000	2.851250   
791.000000	2.741196   
791.500000	2.514393   
792.000000	2.403174   
792.500000	2.518393   
793.000000	2.661984   
793.500000	2.642212   
794.000000	2.454371   
794.500000	2.332257   
795.000000	2.340719   
795.500000	2.480674   
796.000000	2.492484   
796.500000	2.392984   
797.000000	2.284780   
797.500000	2.245651   
798.000000	2.291196   
798.500000	2.289462   
799.000000	2.202977   
799.500000	2.047287   
800.000000	2.018295   
800.500000	1.956901   
801.000000	1.940318   
801.500000	1.893166   
802.000000	2.018636   
802.500000	2.120143   
803.000000	2.185234   
803.500000	2.052537   
804.000000	1.869090   
804.500000	1.540818   
805.000000	1.265257   
805.500000	1.190242   
806.000000	1.393333   
806.500000	1.710530   
807.000000	1.904659   
807.500000	1.835742   
808.000000	1.583575   
808.500000	1.305325   
809.000000	1.215439   
809.500000	1.356977   
810.000000	1.530696   
810.500000	1.578492   
811.000000	1.536606   
811.500000	1.382681   
812.000000	1.328590   
812.500000	1.383128   
813.000000	1.507181   
813.500000	1.598075   
814.000000	1.691515   
814.500000	1.777689   
815.000000	1.777181   
815.500000	1.697696   
816.000000	1.568590   
816.500000	1.588765   
817.000000	1.575674   
817.500000	1.571015   
818.000000	1.501863   
818.500000	1.444446   
819.000000	1.482075   
819.500000	1.601636   
820.000000	1.719053   
820.500000	1.701651   
821.000000	1.644000   
821.500000	1.652454   
822.000000	1.832977   
822.500000	2.103219   
823.000000	2.217242   
823.500000	2.185363   
824.000000	2.037689   
824.500000	2.070704   
825.000000	2.094537   
825.500000	2.172984   
826.000000	2.230037   
826.500000	2.315015   
827.000000	2.304477   
827.500000	2.119083   
828.000000	1.759227   
828.500000	1.561272   
829.000000	1.655659   
829.500000	1.780750   
830.000000	1.660560   
830.500000	1.444378   
831.000000	1.335674   
831.500000	1.327568   
832.000000	1.300166   
832.500000	1.325045   
833.000000	1.338522   
833.500000	1.228750   
834.000000	1.043674   
834.500000	0.944651   
835.000000	0.872462   
835.500000	0.752583   
836.000000	0.581310   
836.500000	0.566068   
837.000000	0.712234   
837.500000	0.950386   
838.000000	1.064689   
838.500000	1.002568   
839.000000	0.915628   
839.500000	0.891045   
840.000000	0.932545   
840.500000	0.917787   
841.000000	0.868954   
841.500000	0.734166   
842.000000	0.561121   
842.500000	0.389431   
843.000000	0.319484   
843.500000	0.352598   
844.000000	0.422545   
844.500000	0.475060   
845.000000	0.500999   
845.500000	0.459280   
846.000000	0.432810   
846.500000	0.333181   
847.000000	0.315287   
847.500000	0.339083   
848.000000	0.395636   
848.500000	0.394878   
849.000000	0.333068   
849.500000	0.247636   
850.000000	0.151871   
850.500000	0.138295   
851.000000	0.106659   
851.500000	0.123280   
852.000000	0.040621   
852.500000	-0.013053  
853.000000	-0.046719  
853.500000	0.067462   
854.000000	0.183696   
854.500000	0.221022   
855.000000	0.105219   
855.500000	0.030969   
856.000000	0.000219   
856.500000	0.047378   
857.000000	0.082242   
857.500000	0.121189   
858.000000	0.118856   
858.500000	0.104727   
859.000000	0.079318   
859.500000	0.094060   
860.000000	-0.041621  
860.500000	-0.102681  
861.000000	-0.136946  
861.500000	-0.047689  
862.000000	-0.093121  
862.500000	-0.112159  
863.000000	-0.169484  
863.500000	-0.054590  
864.000000	0.043666   
864.500000	0.135098   
865.000000	0.090810   
865.500000	-0.048371  
866.000000	-0.197007  
866.500000	-0.201378  
867.000000	-0.044674  
867.500000	0.141795   
868.000000	0.252386   
868.500000	0.258007   
869.000000	0.164553   
869.500000	-0.044833  
870.000000	-0.203643  
870.500000	-0.264818  
871.000000	-0.179818  
871.500000	-0.075007  
872.000000	0.019143   
872.500000	0.048621   
873.000000	0.047840   
873.500000	0.031568   
874.000000	0.051462   
874.500000	0.053242   
875.000000	-0.000174  
875.500000	-0.071469  
876.000000	-0.113181  
876.500000	-0.149151  
877.000000	-0.105750  
877.500000	-0.056159  
878.000000	0.052863   
878.500000	0.096901   
879.000000	0.110500   
879.500000	0.037446   
880.000000	-0.006045  
880.500000	-0.078424  
881.000000	-0.115219  
881.500000	-0.148810  
882.000000	-0.126113  
882.500000	-0.089803  
883.000000	-0.006742  
883.500000	0.054356   
884.000000	0.076931   
884.500000	0.031575   
885.000000	-0.058651  
885.500000	-0.148219  
886.000000	-0.232045  
886.500000	-0.232878  
887.000000	-0.184803  
887.500000	-0.046113  
888.000000	0.057606   
888.500000	0.127348   
889.000000	0.093666   
889.500000	0.026553   
890.000000	-0.108886  
890.500000	-0.333037  
891.000000	-0.473954  
891.500000	-0.415946  
892.000000	-0.204462  
892.500000	-0.082174  
893.000000	-0.039818  
893.500000	0.006712   
894.000000	-0.007780  
894.500000	-0.123621  
895.000000	-0.240212  
895.500000	-0.139371  
896.000000	-0.054242  
896.500000	0.025272   
897.000000	-0.033734  
897.500000	-0.052090  

