PE FL                   SPECTRUM    ASCII       PEDS        1.60        
  -1
SA9BC1~1.SP
24/04/12
16:26:16.00
24/04/12
16:26:16.00
Jan

897.500000
1









LS55
405.00
5.00
5.00
SCAN
1
20
100
100
0
400
0
1
0
1
5
ON
450 405 
1 0 0
#HDR
-1
-1
#GR
NM

0.00002384185791015625
0.0
450.000000
0.500000
896
8
286.924068
-0.531000
#DATA
450.000000	-0.531000  
450.500000	-0.094007  
451.000000	0.011272   
451.500000	-0.134378  
452.000000	-0.235954  
452.500000	-0.132416  
453.000000	0.021037   
453.500000	0.116136   
454.000000	0.080590   
454.500000	0.065848   
455.000000	0.030318   
455.500000	0.031909   
456.000000	0.017121   
456.500000	0.062121   
457.000000	0.115628   
457.500000	0.079250   
458.000000	0.028424   
458.500000	-0.044507  
459.000000	-0.073537  
459.500000	-0.081189  
460.000000	0.010553   
460.500000	0.089340   
461.000000	0.041696   
461.500000	-0.027787  
462.000000	-0.038765  
462.500000	-0.003462  
463.000000	0.003636   
463.500000	0.136022   
464.000000	0.332204   
464.500000	0.424530   
465.000000	0.244242   
465.500000	0.028962   
466.000000	0.041681   
466.500000	0.197969   
467.000000	0.302560   
467.500000	0.125954   
468.000000	0.029939   
468.500000	0.000060   
469.000000	0.103575   
469.500000	0.040310   
470.000000	0.123280   
470.500000	0.179500   
471.000000	0.252621   
471.500000	0.195000   
472.000000	0.072568   
472.500000	0.049598   
473.000000	0.072924   
473.500000	0.168356   
474.000000	0.060636   
474.500000	-0.130553  
475.000000	-0.285000  
475.500000	-0.029659  
476.000000	0.246128   
476.500000	0.296787   
477.000000	0.063704   
477.500000	-0.156560  
478.000000	-0.158446  
478.500000	0.034446   
479.000000	0.198598   
479.500000	0.240424   
480.000000	0.188818   
480.500000	0.169143   
481.000000	0.254015   
481.500000	0.343863   
482.000000	0.282742   
482.500000	0.234439   
483.000000	0.253772   
483.500000	0.335568   
484.000000	0.193780   
484.500000	0.033992   
485.000000	-0.131431  
485.500000	-0.104303  
486.000000	-0.083015  
486.500000	-0.044219  
487.000000	-0.101863  
487.500000	-0.175734  
488.000000	-0.135727  
488.500000	-0.017015  
489.000000	0.102795   
489.500000	0.109045   
490.000000	0.147916   
490.500000	0.192962   
491.000000	0.223068   
491.500000	0.178643   
492.000000	0.178643   
492.500000	0.133500   
493.000000	0.021681   
493.500000	0.015106   
494.000000	0.030545   
494.500000	0.010212   
495.000000	-0.115037  
495.500000	-0.091416  
496.000000	0.115560   
496.500000	0.263962   
497.000000	0.181363   
497.500000	0.155742   
498.000000	0.342742   
498.500000	0.465492   
499.000000	0.412462   
499.500000	0.289530   
500.000000	0.347462   
500.500000	0.557575   
501.000000	0.668030   
501.500000	0.636045   
502.000000	0.480121   
502.500000	0.436681   
503.000000	0.576015   
503.500000	0.811575   
504.000000	0.923825   
504.500000	0.921931   
505.000000	0.968128   
505.500000	1.008575   
506.000000	0.963250   
506.500000	0.795265   
507.000000	0.675575   
507.500000	0.722454   
508.000000	0.814636   
508.500000	0.887583   
509.000000	0.915530   
509.500000	0.993174   
510.000000	1.120007   
510.500000	1.290446   
511.000000	1.292022   
511.500000	1.107234   
512.000000	0.932037   
512.500000	0.943651   
513.000000	1.110053   
513.500000	1.217356   
514.000000	1.291416   
514.500000	1.395719   
515.000000	1.490719   
515.500000	1.508151   
516.000000	1.534833   
516.500000	1.719318   
517.000000	1.963212   
517.500000	2.115409   
518.000000	1.975219   
518.500000	1.953492   
519.000000	1.976000   
519.500000	1.992606   
520.000000	1.827962   
520.500000	2.026946   
521.000000	2.346765   
521.500000	2.578856   
522.000000	2.421143   
522.500000	2.408242   
523.000000	2.497575   
523.500000	2.543424   
524.000000	2.470765   
524.500000	2.546946   
525.000000	2.741409   
525.500000	2.922909   
526.000000	3.051015   
526.500000	3.207924   
527.000000	3.402924   
527.500000	3.530606   
528.000000	3.501537   
528.500000	3.448416   
529.000000	3.489181   
529.500000	3.723621   
530.000000	3.972431   
530.500000	4.304469   
531.000000	4.551242   
531.500000	4.705537   
532.000000	4.910878   
532.500000	5.355886   
533.000000	5.792393   
533.500000	5.895840   
534.000000	5.827492   
534.500000	6.028674   
535.000000	6.647568   
535.500000	7.235742   
536.000000	7.461553   
536.500000	7.584734   
537.000000	7.790954   
537.500000	8.366643   
538.000000	9.044416   
538.500000	9.620666   
539.000000	9.799886   
539.500000	9.789999   
540.000000	9.732787   
540.500000	10.070250  
541.000000	10.714719  
541.500000	11.204946  
542.000000	11.285287  
542.500000	11.476901  
543.000000	12.045348  
543.500000	12.493712  
544.000000	12.154492  
544.500000	11.800507  
545.000000	11.978037  
545.500000	12.377560  
546.000000	12.069666  
546.500000	11.474159  
547.000000	11.189810  
547.500000	11.309909  
548.000000	11.454666  
548.500000	11.631393  
549.000000	11.959530  
549.500000	12.015030  
550.000000	11.994537  
550.500000	11.634265  
551.000000	11.583446  
551.500000	11.547878  
552.000000	11.821787  
552.500000	11.663787  
553.000000	11.537234  
553.500000	11.502590  
554.000000	11.809575  
554.500000	12.079946  
555.000000	12.392250  
555.500000	12.753659  
556.000000	12.901159  
556.500000	12.641537  
557.000000	12.317871  
557.500000	12.529454  
558.000000	13.086000  
558.500000	13.691492  
559.000000	14.086287  
559.500000	14.170893  
560.000000	14.123878  
560.500000	14.784265  
561.000000	15.738787  
561.500000	16.248242  
562.000000	16.153628  
562.500000	16.191083  
563.000000	16.928378  
563.500000	17.656522  
564.000000	18.264409  
564.500000	18.411439  
565.000000	18.501439  
565.500000	18.189734  
566.000000	18.540545  
566.500000	19.333356  
567.000000	20.328045  
567.500000	20.888219  
568.000000	21.514060  
568.500000	22.170121  
569.000000	22.787598  
569.500000	23.229681  
570.000000	23.372340  
570.500000	23.687106  
571.000000	24.168553  
571.500000	25.034719  
572.000000	25.847333  
572.500000	26.610196  
573.000000	26.862204  
573.500000	26.997893  
574.000000	27.090666  
574.500000	27.736416  
575.000000	28.664310  
575.500000	29.263212  
576.000000	29.483681  
576.500000	29.416053  
577.000000	29.561681  
577.500000	30.011196  
578.000000	30.907522  
578.500000	31.560128  
579.000000	31.814371  
579.500000	31.651356  
580.000000	31.752234  
580.500000	32.053037  
581.000000	32.776151  
581.500000	34.157143  
582.000000	35.632871  
582.500000	36.332371  
583.000000	36.635280  
583.500000	37.431363  
584.000000	38.473878  
584.500000	38.921174  
585.000000	39.124643  
585.500000	39.926931  
586.000000	41.237242  
586.500000	41.722969  
587.000000	41.945318  
587.500000	42.769924  
588.000000	44.578999  
588.500000	45.956696  
589.000000	47.250840  
589.500000	48.272015  
590.000000	49.540234  
590.500000	50.546606  
591.000000	51.614909  
591.500000	52.820553  
592.000000	53.773424  
592.500000	54.727636  
593.000000	55.444378  
593.500000	56.304378  
594.000000	57.208689  
594.500000	58.979227  
595.000000	60.832098  
595.500000	62.270113  
596.000000	63.171962  
596.500000	63.791916  
597.000000	64.115954  
597.500000	64.275242  
598.000000	64.985583  
598.500000	66.546833  
599.000000	68.079924  
599.500000	69.832166  
600.000000	71.575439  
600.500000	73.656643  
601.000000	74.978537  
601.500000	76.304469  
602.000000	77.835242  
602.500000	80.025424  
603.000000	81.704348  
603.500000	82.215560  
604.000000	82.658863  
604.500000	83.496757  
605.000000	85.739507  
605.500000	87.628045  
606.000000	89.232568  
606.500000	89.776946  
607.000000	91.551681  
607.500000	94.045181  
608.000000	97.032803  
608.500000	99.305909  
609.000000	100.981325 
609.500000	102.476946 
610.000000	104.244810 
610.500000	105.899363 
611.000000	107.266196 
611.500000	108.907409 
612.000000	110.892113 
612.500000	112.875462 
613.000000	114.569431 
613.500000	116.796810 
614.000000	119.525568 
614.500000	122.561765 
615.000000	124.263106 
615.500000	126.446825 
616.000000	128.403090 
616.500000	131.920818 
617.000000	134.220969 
617.500000	136.492416 
618.000000	137.548212 
618.500000	140.587469 
619.000000	143.207446 
619.500000	146.120871 
620.000000	148.064727 
620.500000	151.027469 
621.000000	153.970772 
621.500000	156.752909 
622.000000	158.581030 
622.500000	161.131606 
623.000000	164.523795 
623.500000	167.725060 
624.000000	168.933901 
624.500000	169.666636 
625.000000	171.849780 
625.500000	176.220795 
626.000000	180.498621 
626.500000	184.074659 
627.000000	187.571090 
627.500000	191.375227 
628.000000	194.579371 
628.500000	196.209234 
629.000000	197.641992 
629.500000	201.123022 
630.000000	206.359848 
630.500000	209.951439 
631.000000	211.646310 
631.500000	214.198674 
632.000000	218.486295 
632.500000	221.561272 
633.000000	223.263651 
633.500000	225.775333 
634.000000	229.901265 
634.500000	232.383765 
635.000000	233.558803 
635.500000	236.171000 
636.000000	240.129242 
636.500000	243.338431 
637.000000	245.268265 
637.500000	247.996022 
638.000000	252.015712 
638.500000	255.312242 
639.000000	256.043856 
639.500000	255.683863 
640.000000	256.768833 
640.500000	259.333287 
641.000000	262.001840 
641.500000	263.696628 
642.000000	266.286000 
642.500000	269.852000 
643.000000	273.011568 
643.500000	275.489000 
644.000000	276.742643 
644.500000	277.422696 
645.000000	278.391780 
645.500000	279.775583 
646.000000	280.518886 
646.500000	280.782931 
647.000000	281.392007 
647.500000	282.796303 
648.000000	283.772734 
648.500000	285.831878 
649.000000	286.878242 
649.500000	286.924068 
650.000000	285.188840 
650.500000	284.485166 
651.000000	283.861727 
651.500000	283.700750 
652.000000	284.102659 
652.500000	284.261871 
653.000000	283.394727 
653.500000	281.201704 
654.000000	280.790659 
654.500000	280.924636 
655.000000	281.849962 
655.500000	282.591628 
656.000000	283.510424 
656.500000	281.767787 
657.000000	277.876303 
657.500000	273.363840 
658.000000	270.038643 
658.500000	269.616166 
659.000000	270.384280 
659.500000	270.080075 
660.000000	265.846280 
660.500000	261.226303 
661.000000	257.115522 
661.500000	256.190401 
662.000000	253.708757 
662.500000	251.547628 
663.000000	248.455000 
663.500000	246.561022 
664.000000	243.848606 
664.500000	240.452280 
665.000000	234.627696 
665.500000	229.146128 
666.000000	225.102924 
666.500000	223.405530 
667.000000	221.954765 
667.500000	218.878265 
668.000000	214.068462 
668.500000	209.142477 
669.000000	205.659530 
669.500000	202.631515 
670.000000	198.509060 
670.500000	194.480515 
671.000000	190.572856 
671.500000	186.320681 
672.000000	181.464863 
672.500000	176.583348 
673.000000	171.432803 
673.500000	166.393371 
674.000000	161.970159 
674.500000	158.818712 
675.000000	156.136765 
675.500000	152.068007 
676.000000	147.538287 
676.500000	143.418727 
677.000000	139.698621 
677.500000	136.195189 
678.000000	131.745530 
678.500000	128.059954 
679.000000	125.280901 
679.500000	123.076795 
680.000000	119.411863 
680.500000	115.448393 
681.000000	111.118712 
681.500000	108.132545 
682.000000	105.313742 
682.500000	102.356575 
683.000000	98.503166  
683.500000	95.121310  
684.000000	92.923878  
684.500000	91.213689  
685.000000	88.504886  
685.500000	85.057803  
686.000000	82.282621  
686.500000	80.411083  
687.000000	78.834583  
687.500000	76.496242  
688.000000	73.973121  
688.500000	71.619719  
689.000000	69.415901  
689.500000	66.933113  
690.000000	64.318636  
690.500000	62.539363  
691.000000	61.867606  
691.500000	61.673348  
692.000000	60.778151  
692.500000	58.344325  
693.000000	54.539666  
693.500000	51.449651  
694.000000	50.179848  
694.500000	50.366560  
695.000000	49.869272  
695.500000	48.337378  
696.000000	46.302257  
696.500000	44.582416  
697.000000	42.706136  
697.500000	41.083787  
698.000000	39.901583  
698.500000	38.754492  
699.000000	37.425886  
699.500000	36.105666  
700.000000	35.029734  
700.500000	33.993772  
701.000000	32.992727  
701.500000	32.159651  
702.000000	31.566727  
702.500000	30.881075  
703.000000	29.666696  
703.500000	28.355681  
704.000000	27.299500  
704.500000	26.708659  
705.000000	26.118803  
705.500000	25.198424  
706.000000	24.368037  
706.500000	24.131348  
707.000000	24.219075  
707.500000	23.916757  
708.000000	22.963128  
708.500000	21.846356  
709.000000	21.218590  
709.500000	20.950977  
710.000000	20.667946  
710.500000	19.979068  
711.000000	19.451477  
711.500000	19.086939  
712.000000	18.958840  
712.500000	18.285871  
713.000000	17.688378  
713.500000	17.336446  
714.000000	17.468204  
714.500000	17.054666  
715.000000	16.254772  
715.500000	15.566590  
716.000000	15.757371  
716.500000	16.100515  
717.000000	16.111045  
717.500000	15.472916  
718.000000	14.723689  
718.500000	13.903848  
719.000000	13.493378  
719.500000	13.313174  
720.000000	13.317742  
720.500000	12.977227  
721.000000	12.607727  
721.500000	12.411007  
722.000000	12.700659  
722.500000	12.819015  
723.000000	12.461378  
723.500000	11.681219  
724.000000	11.213492  
724.500000	10.996787  
725.000000	10.996621  
725.500000	10.704803  
726.000000	10.263378  
726.500000	9.735984   
727.000000	9.690568   
727.500000	9.860515   
728.000000	9.968348   
728.500000	9.589825   
729.000000	9.319068   
729.500000	9.274742   
730.000000	9.412098   
730.500000	9.247575   
731.000000	8.938295   
731.500000	8.661719   
732.000000	8.735151   
732.500000	8.717530   
733.000000	8.428174   
733.500000	7.833265   
734.000000	7.409037   
734.500000	7.251553   
735.000000	7.245522   
735.500000	7.171037   
736.000000	7.166378   
736.500000	7.166931   
737.000000	7.218121   
737.500000	7.189446   
738.000000	7.038030   
738.500000	6.736083   
739.000000	6.551378   
739.500000	6.492249   
740.000000	6.724424   
740.500000	6.870863   
741.000000	6.873439   
741.500000	6.638795   
742.000000	6.567462   
742.500000	6.573083   
743.000000	6.527590   
743.500000	6.090272   
744.000000	5.609946   
744.500000	5.371590   
745.000000	5.438787   
745.500000	5.560007   
746.000000	5.603643   
746.500000	5.535325   
747.000000	5.286674   
747.500000	5.080287   
748.000000	5.015174   
748.500000	5.268962   
749.000000	5.326272   
749.500000	5.317113   
750.000000	5.079234   
750.500000	4.965280   
751.000000	4.820151   
751.500000	4.905825   
752.000000	5.125954   
752.500000	5.318242   
753.000000	5.355712   
753.500000	5.091424   
754.000000	4.903431   
754.500000	4.728530   
755.000000	4.775545   
755.500000	4.832962   
756.000000	5.033121   
756.500000	4.951015   
757.000000	4.677090   
757.500000	4.353310   
758.000000	4.313378   
758.500000	4.455333   
759.000000	4.662136   
759.500000	4.744734   
760.000000	4.883984   
760.500000	4.699803   
761.000000	4.260840   
761.500000	3.767939   
762.000000	3.802257   
762.500000	4.040704   
763.000000	4.143272   
763.500000	3.819742   
764.000000	3.417212   
764.500000	3.347803   
765.000000	3.582083   
765.500000	4.034681   
766.000000	4.174780   
766.500000	4.057840   
767.000000	3.621803   
767.500000	3.433537   
768.000000	3.376378   
768.500000	3.493886   
769.000000	3.457962   
769.500000	3.453454   
770.000000	3.407871   
770.500000	3.463606   
771.000000	3.417181   
771.500000	3.404628   
772.000000	3.317257   
772.500000	3.404303   
773.000000	3.408704   
773.500000	3.413219   
774.000000	3.291598   
774.500000	3.312083   
775.000000	3.354515   
775.500000	3.349537   
776.000000	3.263560   
776.500000	3.265537   
777.000000	3.288462   
777.500000	3.242651   
778.000000	3.127227   
778.500000	3.071666   
779.000000	3.115795   
779.500000	3.245075   
780.000000	3.275333   
780.500000	3.083227   
781.000000	2.986287   
781.500000	3.135780   
782.000000	3.361924   
782.500000	3.182651   
783.000000	2.800515   
783.500000	2.556484   
784.000000	2.653818   
784.500000	2.862939   
785.000000	2.992780   
785.500000	2.962924   
786.000000	2.820946   
786.500000	2.750159   
787.000000	2.857416   
787.500000	2.940416   
788.000000	2.955515   
788.500000	2.834916   
789.000000	2.771378   
789.500000	2.597310   
790.000000	2.522007   
790.500000	2.615287   
791.000000	2.920181   
791.500000	3.042181   
792.000000	2.982136   
792.500000	2.855250   
793.000000	2.735128   
793.500000	2.518431   
794.000000	2.424446   
794.500000	2.377409   
795.000000	2.445772   
795.500000	2.335893   
796.000000	2.329393   
796.500000	2.390272   
797.000000	2.471977   
797.500000	2.465681   
798.000000	2.531295   
798.500000	2.526560   
799.000000	2.338666   
799.500000	2.142454   
800.000000	1.985181   
800.500000	2.011727   
801.000000	2.034537   
801.500000	2.118143   
802.000000	2.228583   
802.500000	2.225454   
803.000000	2.147159   
803.500000	2.091340   
804.000000	2.041833   
804.500000	1.863431   
805.000000	1.649325   
805.500000	1.543696   
806.000000	1.713522   
806.500000	1.997681   
807.000000	2.151825   
807.500000	2.078333   
808.000000	1.805553   
808.500000	1.682901   
809.000000	1.602409   
809.500000	1.644265   
810.000000	1.684825   
810.500000	1.966068   
811.000000	2.105643   
811.500000	2.105310   
812.000000	1.916704   
812.500000	1.842371   
813.000000	1.796750   
813.500000	1.768113   
814.000000	1.631409   
814.500000	1.601886   
815.000000	1.559242   
815.500000	1.589295   
816.000000	1.588386   
816.500000	1.740121   
817.000000	1.766886   
817.500000	1.670121   
818.000000	1.420250   
818.500000	1.419878   
819.000000	1.575818   
819.500000	1.601719   
820.000000	1.522530   
820.500000	1.616250   
821.000000	1.963886   
821.500000	2.220159   
822.000000	2.174325   
822.500000	1.961954   
823.000000	1.895628   
823.500000	2.027871   
824.000000	2.186878   
824.500000	2.215727   
825.000000	2.242053   
825.500000	2.276719   
826.000000	2.355871   
826.500000	2.272946   
827.000000	2.106113   
827.500000	1.923477   
828.000000	1.862530   
828.500000	1.792696   
829.000000	1.617075   
829.500000	1.409924   
830.000000	1.329045   
830.500000	1.410712   
831.000000	1.523803   
831.500000	1.554931   
832.000000	1.438628   
832.500000	1.283439   
833.000000	1.187143   
833.500000	1.304727   
834.000000	1.445787   
834.500000	1.512340   
835.000000	1.266712   
835.500000	1.063454   
836.000000	0.943318   
836.500000	1.075568   
837.000000	1.113333   
837.500000	1.035409   
838.000000	0.818871   
838.500000	0.706689   
839.000000	0.740613   
839.500000	0.871840   
840.000000	0.944128   
840.500000	0.811196   
841.000000	0.678636   
841.500000	0.629257   
842.000000	0.693477   
842.500000	0.625037   
843.000000	0.609924   
843.500000	0.621242   
844.000000	0.718734   
844.500000	0.719212   
845.000000	0.716212   
845.500000	0.698053   
846.000000	0.622810   
846.500000	0.504931   
847.000000	0.291378   
847.500000	0.014022   
848.000000	-0.223318  
848.500000	-0.182848  
849.000000	-0.033121  
849.500000	0.022727   
850.000000	-0.054719  
850.500000	-0.086954  
851.000000	0.011696   
851.500000	0.123484   
852.000000	0.345053   
852.500000	0.427454   
853.000000	0.395439   
853.500000	0.180128   
854.000000	0.103325   
854.500000	0.005590   
855.000000	0.024287   
855.500000	0.065621   
856.000000	0.144378   
856.500000	0.153772   
857.000000	0.061053   
857.500000	0.020416   
858.000000	-0.002090  
858.500000	0.065810   
859.000000	0.101886   
859.500000	0.164659   
860.000000	0.136727   
860.500000	0.029681   
861.000000	-0.097007  
861.500000	-0.145196  
862.000000	-0.028674  
862.500000	0.063280   
863.000000	0.068265   
863.500000	-0.055060  
864.000000	-0.100386  
864.500000	-0.057651  
865.000000	0.013590   
865.500000	0.067159   
866.000000	0.094174   
866.500000	0.150651   
867.000000	0.085681   
867.500000	-0.040083  
868.000000	-0.177606  
868.500000	-0.125575  
869.000000	-0.059515  
869.500000	-0.033348  
870.000000	-0.073575  
870.500000	-0.101439  
871.000000	-0.110257  
871.500000	-0.071757  
872.000000	-0.047446  
872.500000	-0.052750  
873.000000	-0.100007  
873.500000	-0.106856  
874.000000	-0.081666  
874.500000	-0.010022  
875.000000	-0.005174  
875.500000	0.030583   
876.000000	0.073310   
876.500000	0.146742   
877.000000	0.141969   
877.500000	0.114719   
878.000000	0.047992   
878.500000	0.060113   
879.000000	0.078045   
879.500000	0.111196   
880.000000	0.105340   
880.500000	0.120401   
881.000000	0.153606   
881.500000	0.170386   
882.000000	0.057265   
882.500000	-0.074636  
883.000000	-0.102507  
883.500000	-0.033787  
884.000000	0.070363   
884.500000	0.242325   
885.000000	0.342530   
885.500000	0.242159   
886.000000	0.020954   
886.500000	-0.058689  
887.000000	0.018765   
887.500000	0.035484   
888.000000	-0.079295  
888.500000	-0.139060  
889.000000	-0.047469  
889.500000	0.018378   
890.000000	-0.006136  
890.500000	-0.057545  
891.000000	-0.054204  
891.500000	-0.001893  
892.000000	0.017530   
892.500000	0.052590   
893.000000	0.095295   
893.500000	0.179863   
894.000000	0.163946   
894.500000	0.101265   
895.000000	-0.019212  
895.500000	-0.055015  
896.000000	-0.027454  
896.500000	0.036636   
897.000000	0.080439   
897.500000	0.083674   

