PE FL                   SPECTRUM    ASCII       PEDS        1.60        
  -1
SA9B99~1.SP
24/04/12
15:49:11.00
24/04/12
15:49:11.00
Jan

897.500000
1









LS55
405.00
5.00
5.00
SCAN
1
20
100
100
0
400
0
1
0
1
5
ON
450 405 
1 0 0
#HDR
-1
-1
#GR
NM

0.00002384185791015625
0.0
450.000000
0.500000
896
8
367.403757
-0.577000
#DATA
450.000000	-0.577000  
450.500000	-0.121545  
451.000000	0.111416   
451.500000	0.065507   
452.000000	0.072560   
452.500000	0.083098   
453.000000	0.073696   
453.500000	-0.111060  
454.000000	-0.129037  
454.500000	-0.097151  
455.000000	0.033954   
455.500000	-0.092469  
456.000000	-0.239840  
456.500000	-0.317303  
457.000000	-0.130378  
457.500000	0.087856   
458.000000	0.241727   
458.500000	0.270386   
459.000000	0.302212   
459.500000	0.331621   
460.000000	0.281598   
460.500000	0.206674   
461.000000	0.099113   
461.500000	0.035969   
462.000000	0.069765   
462.500000	0.310469   
463.000000	0.473303   
463.500000	0.352363   
464.000000	-0.021946  
464.500000	-0.209666  
465.000000	-0.201840  
465.500000	-0.047734  
466.000000	0.051621   
466.500000	0.045522   
467.000000	-0.080909  
467.500000	-0.068484  
468.000000	0.145462   
468.500000	0.293098   
469.000000	0.178257   
469.500000	0.072856   
470.000000	0.221530   
470.500000	0.530969   
471.000000	0.606499   
471.500000	0.422689   
472.000000	0.197318   
472.500000	0.156189   
473.000000	0.227348   
473.500000	0.236000   
474.000000	0.051621   
474.500000	-0.063022  
475.000000	-0.020901  
475.500000	0.134098   
476.000000	0.111772   
476.500000	-0.019742  
477.000000	-0.184234  
477.500000	-0.121022  
478.000000	0.042621   
478.500000	0.177484   
479.000000	0.136257   
479.500000	0.091280   
480.000000	0.037340   
480.500000	0.063280   
481.000000	0.113356   
481.500000	0.222113   
482.000000	0.253636   
482.500000	0.214000   
483.000000	0.236598   
483.500000	0.341530   
484.000000	0.462462   
484.500000	0.424431   
485.000000	0.398007   
485.500000	0.394893   
486.000000	0.357227   
486.500000	0.220462   
487.000000	0.126068   
487.500000	0.128333   
488.000000	0.155212   
488.500000	0.196000   
489.000000	0.211750   
489.500000	0.251848   
490.000000	0.303568   
490.500000	0.346295   
491.000000	0.424893   
491.500000	0.425636   
492.000000	0.361560   
492.500000	0.380280   
493.000000	0.404712   
493.500000	0.304750   
494.000000	0.037196   
494.500000	-0.160068  
495.000000	-0.053689  
495.500000	0.318583   
496.000000	0.618628   
496.500000	0.670749   
497.000000	0.530378   
497.500000	0.414492   
498.000000	0.400416   
498.500000	0.438068   
499.000000	0.440909   
499.500000	0.427916   
500.000000	0.365272   
500.500000	0.359159   
501.000000	0.382893   
501.500000	0.393492   
502.000000	0.369727   
502.500000	0.385681   
503.000000	0.557643   
503.500000	0.752909   
504.000000	0.871484   
504.500000	0.906477   
505.000000	0.970204   
505.500000	0.960098   
506.000000	0.893772   
506.500000	0.741492   
507.000000	0.648280   
507.500000	0.618500   
508.000000	0.590575   
508.500000	0.576477   
509.000000	0.568712   
509.500000	0.615825   
510.000000	0.700606   
510.500000	0.901583   
511.000000	1.098030   
511.500000	1.197068   
512.000000	1.161401   
512.500000	1.038310   
513.000000	1.090984   
513.500000	1.209696   
514.000000	1.375000   
514.500000	1.411621   
515.000000	1.528022   
515.500000	1.558916   
516.000000	1.557037   
516.500000	1.490712   
517.000000	1.550340   
517.500000	1.588363   
518.000000	1.653992   
518.500000	1.722106   
519.000000	1.942590   
519.500000	2.076765   
520.000000	2.165128   
520.500000	2.108053   
521.000000	2.052439   
521.500000	2.081416   
522.000000	2.311378   
522.500000	2.462356   
523.000000	2.408189   
523.500000	2.327363   
524.000000	2.411303   
524.500000	2.700068   
525.000000	2.960962   
525.500000	3.155954   
526.000000	3.258765   
526.500000	3.369772   
527.000000	3.406393   
527.500000	3.307825   
528.000000	3.108750   
528.500000	2.983560   
529.000000	3.135356   
529.500000	3.493227   
530.000000	3.920696   
530.500000	4.148931   
531.000000	4.221856   
531.500000	4.315348   
532.000000	4.524325   
532.500000	4.779249   
533.000000	5.144166   
533.500000	5.599795   
534.000000	6.218772   
534.500000	6.577333   
535.000000	6.697795   
535.500000	6.617128   
536.000000	6.748954   
536.500000	6.921174   
537.000000	7.307409   
537.500000	7.654196   
538.000000	8.179886   
538.500000	8.284977   
539.000000	8.209590   
539.500000	8.230810   
540.000000	8.732712   
540.500000	9.195515   
541.000000	9.613469   
541.500000	10.177113  
542.000000	10.759113  
542.500000	11.210772  
543.000000	11.196795  
543.500000	11.265545  
544.000000	11.243825  
544.500000	11.395128  
545.000000	11.571090  
545.500000	11.870250  
546.000000	12.072893  
546.500000	12.240681  
547.000000	12.284424  
547.500000	12.051196  
548.000000	11.847712  
548.500000	11.765696  
549.000000	11.973037  
549.500000	12.021378  
550.000000	12.000568  
550.500000	11.902772  
551.000000	11.922568  
551.500000	12.132840  
552.000000	12.644212  
552.500000	13.096401  
553.000000	12.963121  
553.500000	12.415507  
554.000000	12.124310  
554.500000	12.567871  
555.000000	13.152454  
555.500000	13.470871  
556.000000	13.736500  
556.500000	13.917727  
557.000000	14.144454  
557.500000	14.105772  
558.000000	14.149742  
558.500000	14.317462  
559.000000	14.720772  
559.500000	15.166901  
560.000000	15.604287  
560.500000	16.025477  
561.000000	16.418651  
561.500000	16.647000  
562.000000	16.487219  
562.500000	16.337856  
563.000000	16.573356  
563.500000	17.100734  
564.000000	17.598318  
564.500000	17.753053  
565.000000	18.255113  
565.500000	19.185022  
566.000000	20.097363  
566.500000	20.549424  
567.000000	20.657992  
567.500000	21.248371  
568.000000	22.258840  
568.500000	23.198257  
569.000000	23.388780  
569.500000	23.325765  
570.000000	23.248613  
570.500000	24.142121  
571.000000	25.401454  
571.500000	26.519704  
572.000000	26.993500  
572.500000	27.424856  
573.000000	28.002280  
573.500000	28.684075  
574.000000	28.954295  
574.500000	29.170696  
575.000000	29.969962  
575.500000	31.181931  
576.000000	32.158250  
576.500000	32.162772  
577.000000	31.832537  
577.500000	32.001749  
578.000000	32.738780  
578.500000	33.119643  
579.000000	33.436166  
579.500000	33.771765  
580.000000	34.687492  
580.500000	35.407371  
581.000000	36.112765  
581.500000	36.738992  
582.000000	37.805969  
582.500000	38.757393  
583.000000	39.622106  
583.500000	40.162166  
584.000000	40.456598  
584.500000	41.030712  
585.000000	42.025886  
585.500000	43.165825  
586.000000	44.107318  
586.500000	44.668159  
587.000000	45.460151  
587.500000	46.310007  
588.000000	47.515159  
588.500000	48.042515  
589.000000	49.703431  
589.500000	51.764772  
590.000000	54.068318  
590.500000	55.172856  
591.000000	56.153515  
591.500000	57.383545  
592.000000	58.802568  
592.500000	60.230219  
593.000000	61.481287  
593.500000	62.865189  
594.000000	62.855977  
594.500000	62.928333  
595.000000	63.538916  
595.500000	65.212037  
596.000000	67.090651  
596.500000	68.744030  
597.000000	70.192977  
597.500000	71.031643  
598.000000	71.885681  
598.500000	73.311106  
599.000000	76.092674  
599.500000	78.733234  
600.000000	80.205696  
600.500000	80.440924  
601.000000	80.807560  
601.500000	82.554204  
602.000000	84.848348  
602.500000	87.483083  
603.000000	89.331303  
603.500000	90.686977  
604.000000	91.117075  
604.500000	92.945439  
605.000000	95.293121  
605.500000	98.024280  
606.000000	99.508363  
606.500000	101.664833 
607.000000	103.559469 
607.500000	105.773560 
608.000000	107.722045 
608.500000	110.696477 
609.000000	112.960621 
609.500000	113.752030 
610.000000	113.745106 
610.500000	114.731356 
611.000000	118.044204 
611.500000	122.198719 
612.000000	125.095825 
612.500000	126.217075 
613.000000	128.045037 
613.500000	131.708598 
614.000000	136.086962 
614.500000	139.268272 
615.000000	141.228954 
615.500000	142.976901 
616.000000	144.734674 
616.500000	146.173174 
617.000000	148.553113 
617.500000	151.476068 
618.000000	155.821386 
618.500000	159.492992 
619.000000	163.394560 
619.500000	166.849121 
620.000000	170.427810 
620.500000	173.828984 
621.000000	177.060424 
621.500000	180.547977 
622.000000	183.461818 
622.500000	186.513575 
623.000000	189.393901 
623.500000	193.267530 
624.000000	196.470606 
624.500000	199.095174 
625.000000	201.167939 
625.500000	204.152196 
626.000000	209.121818 
626.500000	214.171696 
627.000000	217.789924 
627.500000	220.078371 
628.000000	222.654962 
628.500000	226.734469 
629.000000	231.101689 
629.500000	234.522121 
630.000000	237.627068 
630.500000	242.642363 
631.000000	248.982909 
631.500000	255.036090 
632.000000	258.728545 
632.500000	262.303522 
633.000000	266.850219 
633.500000	271.919924 
634.000000	275.582765 
634.500000	276.976227 
635.000000	278.265348 
635.500000	282.066969 
636.000000	286.874439 
636.500000	289.705507 
637.000000	291.618689 
637.500000	294.820136 
638.000000	299.989484 
638.500000	303.967431 
639.000000	307.118174 
639.500000	311.051136 
640.000000	316.710060 
640.500000	321.421446 
641.000000	324.388893 
641.500000	325.366765 
642.000000	326.824712 
642.500000	331.120340 
643.000000	335.683984 
643.500000	336.958492 
644.000000	335.949462 
644.500000	335.567287 
645.000000	339.187946 
645.500000	344.610681 
646.000000	350.470462 
646.500000	353.174416 
647.000000	354.817757 
647.500000	355.074924 
648.000000	355.678954 
648.500000	355.626984 
649.000000	356.089318 
649.500000	358.558954 
650.000000	361.161424 
650.500000	362.571234 
651.000000	362.146409 
651.500000	362.110833 
652.000000	363.621636 
652.500000	366.166477 
653.000000	367.403757 
653.500000	365.978234 
654.000000	365.104681 
654.500000	364.046651 
655.000000	363.349250 
655.500000	360.721681 
656.000000	360.262893 
656.500000	360.346886 
657.000000	361.302181 
657.500000	360.355303 
658.000000	359.635818 
658.500000	357.210166 
659.000000	353.762378 
659.500000	350.439242 
660.000000	348.836886 
660.500000	347.819621 
661.000000	346.471431 
661.500000	345.559727 
662.000000	344.611340 
662.500000	341.845977 
663.000000	337.726378 
663.500000	334.401962 
664.000000	330.945500 
664.500000	326.782386 
665.000000	322.836590 
665.500000	322.006530 
666.000000	321.556227 
666.500000	317.918053 
667.000000	310.676606 
667.500000	303.868689 
668.000000	299.328045 
668.500000	296.744734 
669.000000	293.684704 
669.500000	289.415924 
670.000000	285.124515 
670.500000	280.370454 
671.000000	274.677560 
671.500000	267.761696 
672.000000	261.386674 
672.500000	257.165553 
673.000000	254.258568 
673.500000	250.158363 
674.000000	244.800265 
674.500000	238.855113 
675.000000	232.789053 
675.500000	226.499651 
676.000000	220.713992 
676.500000	215.871454 
677.000000	211.234212 
677.500000	206.410643 
678.000000	200.893712 
678.500000	195.797053 
679.000000	190.795219 
679.500000	186.717401 
680.000000	181.953386 
680.500000	176.856416 
681.000000	170.693409 
681.500000	165.449704 
682.000000	160.538712 
682.500000	156.987856 
683.000000	154.174856 
683.500000	150.933568 
684.000000	146.553946 
684.500000	141.822416 
685.000000	137.034136 
685.500000	132.432719 
686.000000	127.794886 
686.500000	122.808742 
687.000000	118.096196 
687.500000	114.180303 
688.000000	111.954159 
688.500000	109.505060 
689.000000	105.919106 
689.500000	102.261795 
690.000000	100.109507 
690.500000	98.171734  
691.000000	95.262000  
691.500000	91.799954  
692.000000	88.200446  
692.500000	84.748181  
693.000000	81.813159  
693.500000	80.062234  
694.000000	78.741303  
694.500000	76.739356  
695.000000	74.212719  
695.500000	71.798462  
696.000000	70.176909  
696.500000	68.385909  
697.000000	66.063022  
697.500000	62.891628  
698.000000	60.321704  
698.500000	59.311242  
699.000000	59.004765  
699.500000	57.807651  
700.000000	55.614128  
700.500000	53.188143  
701.000000	50.856234  
701.500000	48.409348  
702.000000	46.458727  
702.500000	45.858780  
703.000000	46.409977  
703.500000	46.331871  
704.000000	44.748151  
704.500000	42.387280  
705.000000	40.429378  
705.500000	39.196068  
706.000000	37.848969  
706.500000	36.457704  
707.000000	35.347530  
707.500000	34.982363  
708.000000	34.683431  
708.500000	34.437060  
709.000000	33.765901  
709.500000	32.896090  
710.000000	31.701060  
710.500000	30.651318  
711.000000	29.853462  
711.500000	29.337924  
712.000000	28.948507  
712.500000	28.123984  
713.000000	27.105356  
713.500000	25.776772  
714.000000	25.304803  
714.500000	24.982303  
715.000000	24.892651  
715.500000	24.010219  
716.000000	22.980000  
716.500000	21.694477  
717.000000	21.080416  
717.500000	20.719075  
718.000000	20.756204  
718.500000	20.663053  
719.000000	20.266075  
719.500000	19.393696  
720.000000	18.525515  
720.500000	17.965454  
721.000000	17.867787  
721.500000	17.725727  
722.000000	17.358977  
722.500000	16.730318  
723.000000	16.275666  
723.500000	15.915204  
724.000000	15.846969  
724.500000	15.809159  
725.000000	15.655939  
725.500000	15.280886  
726.000000	14.810606  
726.500000	14.381393  
727.000000	14.109090  
727.500000	13.889916  
728.000000	13.695348  
728.500000	13.422295  
729.000000	13.068212  
729.500000	12.486469  
730.000000	12.383121  
730.500000	12.354325  
731.000000	12.414537  
731.500000	12.033507  
732.000000	11.844530  
732.500000	11.595318  
733.000000	11.441810  
733.500000	10.827348  
734.000000	10.295083  
734.500000	9.985825   
735.000000	10.032318  
735.500000	10.115234  
736.000000	10.229204  
736.500000	10.011825  
737.000000	9.346878   
737.500000	8.593303   
738.000000	8.386030   
738.500000	8.697931   
739.000000	8.944530   
739.500000	8.686303   
740.000000	8.327840   
740.500000	8.098606   
741.000000	8.187712   
741.500000	8.355386   
742.000000	8.340227   
742.500000	7.919545   
743.000000	7.597560   
743.500000	7.500083   
744.000000	7.547022   
744.500000	7.204045   
745.000000	6.890287   
745.500000	6.814674   
746.000000	6.949674   
746.500000	6.891742   
747.000000	6.763909   
747.500000	6.800022   
748.000000	7.014484   
748.500000	7.112893   
749.000000	6.903022   
749.500000	6.568356   
750.000000	6.231992   
750.500000	5.918704   
751.000000	5.857568   
751.500000	5.865553   
752.000000	6.127265   
752.500000	5.986666   
753.000000	5.815689   
753.500000	5.341219   
754.000000	5.142886   
754.500000	4.995393   
755.000000	5.178719   
755.500000	5.254098   
756.000000	5.071924   
756.500000	5.123909   
757.000000	5.557969   
757.500000	6.127628   
758.000000	6.021727   
758.500000	5.598621   
759.000000	5.204136   
759.500000	5.113969   
760.000000	5.001037   
760.500000	4.879249   
761.000000	4.840674   
761.500000	4.840409   
762.000000	4.791174   
762.500000	4.646007   
763.000000	4.434151   
763.500000	4.407659   
764.000000	4.451371   
764.500000	4.506742   
765.000000	4.367765   
765.500000	4.259734   
766.000000	4.120250   
766.500000	3.930803   
767.000000	3.683659   
767.500000	3.639734   
768.000000	3.790886   
768.500000	3.684121   
769.000000	3.520204   
769.500000	3.532189   
770.000000	3.957007   
770.500000	4.030621   
771.000000	3.844128   
771.500000	3.511000   
772.000000	3.454901   
772.500000	3.377060   
773.000000	3.294242   
773.500000	3.248772   
774.000000	3.423712   
774.500000	3.536227   
775.000000	3.479606   
775.500000	3.304454   
776.000000	3.263386   
776.500000	3.268515   
777.000000	3.385484   
777.500000	3.429598   
778.000000	3.537075   
778.500000	3.490446   
779.000000	3.436219   
779.500000	3.340295   
780.000000	3.283621   
780.500000	3.177409   
781.000000	3.225090   
781.500000	3.257840   
782.000000	3.244666   
782.500000	3.176393   
783.000000	3.210303   
783.500000	3.274045   
784.000000	3.266818   
784.500000	3.126181   
785.000000	2.926204   
785.500000	2.799901   
786.000000	2.827856   
786.500000	2.947689   
787.000000	2.972515   
787.500000	2.878045   
788.000000	2.778204   
788.500000	2.751560   
789.000000	2.714181   
789.500000	2.731780   
790.000000	2.841840   
790.500000	2.977265   
791.000000	2.955083   
791.500000	2.875022   
792.000000	2.863242   
792.500000	2.906280   
793.000000	2.894621   
793.500000	2.829098   
794.000000	2.707280   
794.500000	2.611106   
795.000000	2.643340   
795.500000	2.760583   
796.000000	2.819871   
796.500000	2.672886   
797.000000	2.481265   
797.500000	2.317386   
798.000000	2.303446   
798.500000	2.393659   
799.000000	2.579439   
799.500000	2.520674   
800.000000	2.305234   
800.500000	2.191613   
801.000000	2.182696   
801.500000	2.199393   
802.000000	2.097159   
802.500000	2.035113   
803.000000	2.035803   
803.500000	2.096553   
804.000000	2.097469   
804.500000	2.018439   
805.000000	1.912757   
805.500000	2.005492   
806.000000	2.238613   
806.500000	2.207909   
807.000000	1.964560   
807.500000	1.813537   
808.000000	1.820348   
808.500000	1.843060   
809.000000	1.945871   
809.500000	2.045393   
810.000000	1.908416   
810.500000	1.547984   
811.000000	1.418431   
811.500000	1.701833   
812.000000	2.000409   
812.500000	2.068075   
813.000000	1.945325   
813.500000	1.788310   
814.000000	1.717606   
814.500000	1.647606   
815.000000	1.647886   
815.500000	1.654401   
816.000000	1.756545   
816.500000	1.736500   
817.000000	1.649719   
817.500000	1.508446   
818.000000	1.565734   
818.500000	1.678992   
819.000000	1.650780   
819.500000	1.524022   
820.000000	1.455424   
820.500000	1.656696   
821.000000	1.866431   
821.500000	2.020022   
822.000000	2.191462   
822.500000	2.348984   
823.000000	2.357189   
823.500000	2.179568   
824.000000	2.116015   
824.500000	2.198992   
825.000000	2.329765   
825.500000	2.259742   
826.000000	2.183310   
826.500000	2.067030   
827.000000	2.006606   
827.500000	1.949856   
828.000000	1.818333   
828.500000	1.776886   
829.000000	1.757825   
829.500000	1.632803   
830.000000	1.267742   
830.500000	1.134969   
831.000000	1.201939   
831.500000	1.423553   
832.000000	1.226780   
832.500000	1.081143   
833.000000	1.027015   
833.500000	1.101068   
834.000000	0.927901   
834.500000	0.813765   
835.000000	0.897606   
835.500000	1.127378   
836.000000	1.206446   
836.500000	1.002909   
837.000000	0.860810   
837.500000	0.828522   
838.000000	0.903750   
838.500000	0.892151   
839.000000	0.904795   
839.500000	0.862742   
840.000000	0.776295   
840.500000	0.680916   
841.000000	0.751098   
841.500000	0.926136   
842.000000	0.920621   
842.500000	0.796128   
843.000000	0.735613   
843.500000	0.792643   
844.000000	0.874015   
844.500000	0.882878   
845.000000	0.735553   
845.500000	0.506015   
846.000000	0.397212   
846.500000	0.519037   
847.000000	0.739878   
847.500000	0.724325   
848.000000	0.522015   
848.500000	0.359893   
849.000000	0.417166   
849.500000	0.557643   
850.000000	0.675522   
850.500000	0.615439   
851.000000	0.529598   
851.500000	0.426931   
852.000000	0.372522   
852.500000	0.327007   
853.000000	0.284098   
853.500000	0.220015   
854.000000	0.137393   
854.500000	0.029174   
855.000000	-0.067886  
855.500000	-0.137863  
856.000000	-0.122121  
856.500000	-0.012810  
857.000000	0.115772   
857.500000	0.172295   
858.000000	0.128507   
858.500000	0.137742   
859.000000	0.209045   
859.500000	0.285856   
860.000000	0.262636   
860.500000	0.208083   
861.000000	0.110310   
861.500000	0.051749   
862.000000	0.115765   
862.500000	0.240500   
863.000000	0.316696   
863.500000	0.160143   
864.000000	-0.095060  
864.500000	-0.176560  
865.000000	-0.047863  
865.500000	0.123477   
866.000000	0.136825   
866.500000	0.016227   
867.000000	-0.114939  
867.500000	-0.064287  
868.000000	0.012015   
868.500000	0.119121   
869.000000	0.122280   
869.500000	0.069727   
870.000000	-0.043893  
870.500000	-0.051712  
871.000000	-0.096719  
871.500000	-0.114575  
872.000000	-0.118492  
872.500000	0.016727   
873.000000	0.141636   
873.500000	0.132848   
874.000000	-0.003242  
874.500000	-0.077113  
875.000000	-0.088030  
875.500000	-0.075598  
876.000000	-0.088280  
876.500000	-0.081780  
877.000000	-0.106893  
877.500000	-0.135537  
878.000000	-0.229045  
878.500000	-0.257249  
879.000000	-0.201689  
879.500000	-0.059530  
880.000000	-0.024545  
880.500000	-0.017621  
881.000000	-0.035863  
881.500000	0.057803   
882.000000	0.156250   
882.500000	0.090295   
883.000000	-0.091499  
883.500000	-0.180590  
884.000000	-0.048416  
884.500000	0.078568   
885.000000	0.103166   
885.500000	-0.026780  
886.000000	-0.076401  
886.500000	-0.129424  
887.000000	-0.119484  
887.500000	-0.129446  
888.000000	-0.128560  
888.500000	-0.221212  
889.000000	-0.262196  
889.500000	-0.303477  
890.000000	-0.254022  
890.500000	-0.205560  
891.000000	-0.148909  
891.500000	-0.130204  
892.000000	-0.011856  
892.500000	0.135924   
893.000000	0.207598   
893.500000	0.111787   
894.000000	-0.044393  
894.500000	-0.113583  
895.000000	-0.078712  
895.500000	-0.059386  
896.000000	-0.075545  
896.500000	-0.108363  
897.000000	-0.103992  
897.500000	-0.032522  

