PE FL                   SPECTRUM    ASCII       PEDS        1.60        
  -1
SAABA1~1.SP
24/04/12
17:17:36.00
24/04/12
17:17:36.00
Jan

897.500000
1









LS55
405.00
5.00
5.00
SCAN
1
20
100
100
0
400
0
1
0
1
5
ON
450 405 
1 0 0
#HDR
-1
-1
#GR
NM

0.00002384185791015625
0.0
450.000000
0.500000
896
8
194.995257
-0.362492
#DATA
450.000000	0.533000   
450.500000	0.160424   
451.000000	-0.022500  
451.500000	0.034325   
452.000000	0.096166   
452.500000	-0.027356  
453.000000	-0.182295  
453.500000	-0.135886  
454.000000	0.050159   
454.500000	0.215477   
455.000000	0.096651   
455.500000	-0.046749  
456.000000	-0.187242  
456.500000	-0.183454  
457.000000	-0.135689  
457.500000	-0.015734  
458.000000	0.012159   
458.500000	0.073530   
459.000000	0.071946   
459.500000	0.124984   
460.000000	0.116007   
460.500000	0.163234   
461.000000	0.161037   
461.500000	0.214303   
462.000000	0.152810   
462.500000	0.113227   
463.000000	0.022287   
463.500000	0.041189   
464.000000	0.105196   
464.500000	0.114734   
465.000000	0.119787   
465.500000	0.044977   
466.000000	0.036522   
466.500000	-0.035212  
467.000000	-0.041446  
467.500000	-0.111068  
468.000000	-0.009083  
468.500000	0.137568   
469.000000	0.291848   
469.500000	0.239159   
470.000000	0.153189   
470.500000	0.046674   
471.000000	0.002643   
471.500000	-0.035886  
472.000000	-0.034856  
472.500000	-0.091931  
473.000000	-0.169151  
473.500000	-0.276227  
474.000000	-0.303969  
474.500000	-0.275992  
475.000000	-0.221045  
475.500000	-0.155606  
476.000000	-0.176462  
476.500000	-0.102310  
477.000000	-0.046318  
477.500000	-0.000477  
478.000000	-0.103227  
478.500000	-0.081136  
479.000000	0.018916   
479.500000	0.183795   
480.000000	0.144469   
480.500000	0.007424   
481.000000	-0.060515  
481.500000	-0.001409  
482.000000	0.089295   
482.500000	0.200500   
483.000000	0.330151   
483.500000	0.397803   
484.000000	0.233772   
484.500000	0.000628   
485.000000	-0.005515  
485.500000	0.249500   
486.000000	0.430946   
486.500000	0.359166   
487.000000	0.118007   
487.500000	-0.048424  
488.000000	-0.056500  
488.500000	-0.019962  
489.000000	0.022136   
489.500000	0.062159   
490.000000	0.087015   
490.500000	0.066818   
491.000000	0.069590   
491.500000	0.062234   
492.000000	0.011651   
492.500000	-0.155219  
493.000000	-0.148636  
493.500000	0.009946   
494.000000	0.194151   
494.500000	0.175196   
495.000000	0.132227   
495.500000	0.057545   
496.000000	0.090462   
496.500000	0.144159   
497.000000	0.234037   
497.500000	0.225166   
498.000000	0.265530   
498.500000	0.340272   
499.000000	0.390795   
499.500000	0.196257   
500.000000	-0.056522  
500.500000	-0.025530  
501.000000	0.260416   
501.500000	0.574121   
502.000000	0.628113   
502.500000	0.493757   
503.000000	0.287848   
503.500000	0.267643   
504.000000	0.424757   
504.500000	0.684272   
505.000000	0.832462   
505.500000	0.861265   
506.000000	0.861507   
506.500000	0.948659   
507.000000	1.044734   
507.500000	1.071484   
508.000000	1.015098   
508.500000	1.102704   
509.000000	1.219098   
509.500000	1.295287   
510.000000	1.225742   
510.500000	1.169401   
511.000000	1.232583   
511.500000	1.318757   
512.000000	1.354340   
512.500000	1.167583   
513.000000	1.071045   
513.500000	1.163772   
514.000000	1.523348   
514.500000	1.765075   
515.000000	1.859946   
515.500000	1.839356   
516.000000	1.858787   
516.500000	1.838196   
517.000000	1.955348   
517.500000	2.316780   
518.000000	2.650090   
518.500000	2.791931   
519.000000	2.593265   
519.500000	2.382151   
520.000000	2.255098   
520.500000	2.384651   
521.000000	2.493651   
521.500000	2.612909   
522.000000	2.599818   
522.500000	2.661840   
523.000000	2.822772   
523.500000	2.984977   
524.000000	3.090628   
524.500000	3.074060   
525.000000	3.215015   
525.500000	3.435242   
526.000000	3.580939   
526.500000	3.556045   
527.000000	3.667757   
527.500000	4.060780   
528.000000	4.495318   
528.500000	4.743090   
529.000000	4.909575   
529.500000	5.166310   
530.000000	5.616333   
530.500000	5.957356   
531.000000	6.070659   
531.500000	5.955424   
532.000000	6.194810   
532.500000	6.663340   
533.000000	7.276234   
533.500000	7.476265   
534.000000	7.549030   
534.500000	7.732280   
535.000000	8.156537   
535.500000	8.638560   
536.000000	8.845454   
536.500000	8.959196   
537.000000	8.871174   
537.500000	8.974598   
538.000000	9.141598   
538.500000	9.825060   
539.000000	10.396613  
539.500000	10.808810  
540.000000	10.979280  
540.500000	11.566583  
541.000000	12.233348  
541.500000	12.752257  
542.000000	12.774924  
542.500000	12.544356  
543.000000	12.243295  
543.500000	11.998166  
544.000000	11.848363  
544.500000	11.803000  
545.000000	11.963431  
545.500000	12.184803  
546.000000	12.208833  
546.500000	11.863674  
547.000000	11.596742  
547.500000	11.727113  
548.000000	11.942234  
548.500000	12.079893  
549.000000	12.170340  
549.500000	12.450515  
550.000000	12.525280  
550.500000	12.165045  
551.000000	11.553303  
551.500000	11.377068  
552.000000	11.637333  
552.500000	12.217848  
553.000000	12.485659  
553.500000	12.586954  
554.000000	12.469174  
554.500000	12.749022  
555.000000	13.049886  
555.500000	13.533590  
556.000000	13.762984  
556.500000	14.083613  
557.000000	14.139530  
557.500000	14.183068  
558.000000	14.265492  
558.500000	14.334833  
559.000000	14.389659  
559.500000	14.678946  
560.000000	15.556969  
560.500000	16.669500  
561.000000	17.330909  
561.500000	17.592181  
562.000000	17.630750  
562.500000	17.986340  
563.000000	18.304666  
563.500000	18.853000  
564.000000	19.112378  
564.500000	19.873606  
565.000000	20.440553  
565.500000	20.796901  
566.000000	20.809007  
566.500000	21.230000  
567.000000	21.814530  
567.500000	22.084795  
568.000000	21.765704  
568.500000	21.852424  
569.000000	22.814121  
569.500000	24.028454  
570.000000	24.620969  
570.500000	24.228666  
571.000000	23.768727  
571.500000	23.831363  
572.000000	24.571742  
572.500000	25.181340  
573.000000	25.788242  
573.500000	26.273734  
574.000000	26.915371  
574.500000	27.648272  
575.000000	28.466590  
575.500000	29.067416  
576.000000	29.229454  
576.500000	28.792287  
577.000000	28.561507  
577.500000	28.883053  
578.000000	30.184931  
578.500000	31.471750  
579.000000	32.788742  
579.500000	33.656121  
580.000000	34.660962  
580.500000	34.850886  
581.000000	34.669856  
581.500000	34.285621  
582.000000	34.794863  
582.500000	35.691174  
583.000000	36.671696  
583.500000	37.262992  
584.000000	38.015280  
584.500000	38.794265  
585.000000	40.164439  
585.500000	41.711787  
586.000000	43.109795  
586.500000	43.717803  
587.000000	44.260742  
587.500000	44.765598  
588.000000	45.666568  
588.500000	46.401409  
589.000000	46.837916  
589.500000	47.089659  
590.000000	47.455318  
590.500000	48.793280  
591.000000	50.453462  
591.500000	51.847712  
592.000000	52.203924  
592.500000	52.639272  
593.000000	53.816712  
593.500000	55.412037  
594.000000	56.413219  
594.500000	56.378674  
595.000000	56.487348  
595.500000	57.369424  
596.000000	59.195537  
596.500000	60.619924  
597.000000	61.248954  
597.500000	61.851825  
598.000000	63.327606  
598.500000	65.731727  
599.000000	67.222280  
599.500000	67.845825  
600.000000	68.172045  
600.500000	69.497166  
601.000000	70.683265  
601.500000	71.996916  
602.000000	72.708818  
602.500000	74.274734  
603.000000	75.995454  
603.500000	77.731954  
604.000000	79.123310  
604.500000	80.443439  
605.000000	81.561590  
605.500000	82.685257  
606.000000	83.921416  
606.500000	85.338174  
607.000000	86.725636  
607.500000	88.120219  
608.000000	89.668348  
608.500000	91.202856  
609.000000	92.390886  
609.500000	93.568287  
610.000000	95.712954  
610.500000	98.400674  
611.000000	100.996166 
611.500000	102.419462 
612.000000	103.014583 
612.500000	102.923992 
613.000000	103.953598 
613.500000	106.049227 
614.000000	108.423977 
614.500000	109.791643 
615.000000	111.355909 
615.500000	113.817977 
616.000000	116.588500 
616.500000	118.574363 
617.000000	120.176689 
617.500000	121.887545 
618.000000	122.852416 
618.500000	124.608401 
619.000000	126.998007 
619.500000	129.984954 
620.000000	131.441666 
620.500000	132.722727 
621.000000	134.893689 
621.500000	138.310030 
622.000000	140.907439 
622.500000	142.572924 
623.000000	143.285371 
623.500000	144.400325 
624.000000	144.673219 
624.500000	145.925712 
625.000000	147.866666 
625.500000	152.296628 
626.000000	155.474742 
626.500000	156.943878 
627.000000	156.544621 
627.500000	157.453462 
628.000000	160.154568 
628.500000	162.990704 
629.000000	165.093727 
629.500000	165.966113 
630.000000	167.662568 
630.500000	169.038530 
631.000000	171.141901 
631.500000	172.583416 
632.000000	174.273219 
632.500000	175.564659 
633.000000	176.967871 
633.500000	177.833136 
634.000000	179.203560 
634.500000	181.204234 
635.000000	183.506045 
635.500000	185.194969 
636.000000	185.452174 
636.500000	185.173916 
637.000000	185.379121 
637.500000	186.924931 
638.000000	188.895704 
638.500000	190.154568 
639.000000	190.730431 
639.500000	191.543068 
640.000000	192.294977 
640.500000	192.491068 
641.000000	192.927621 
641.500000	194.016916 
642.000000	194.565742 
642.500000	193.675787 
643.000000	193.124446 
643.500000	193.331204 
644.000000	194.727666 
644.500000	194.995257 
645.000000	194.881696 
645.500000	194.179878 
646.000000	194.554727 
646.500000	194.694674 
647.000000	194.525833 
647.500000	192.818893 
648.000000	191.397886 
648.500000	190.307265 
649.000000	189.585393 
649.500000	189.177318 
650.000000	189.392651 
650.500000	188.052833 
651.000000	184.926946 
651.500000	181.431212 
652.000000	180.247696 
652.500000	180.903916 
653.000000	180.735507 
653.500000	179.364681 
654.000000	177.349939 
654.500000	175.326674 
655.000000	172.879196 
655.500000	170.382583 
656.000000	168.099984 
656.500000	165.819189 
657.000000	163.987492 
657.500000	161.722303 
658.000000	159.108530 
658.500000	156.320234 
659.000000	153.962931 
659.500000	151.976848 
660.000000	148.891333 
660.500000	146.333878 
661.000000	143.973363 
661.500000	141.649416 
662.000000	137.866583 
662.500000	133.646848 
663.000000	130.467371 
663.500000	128.276121 
664.000000	126.677401 
664.500000	123.312856 
665.000000	119.001681 
665.500000	114.666401 
666.000000	112.209977 
666.500000	110.584287 
667.000000	108.563750 
667.500000	105.848946 
668.000000	102.702636 
668.500000	99.503113  
669.000000	96.568037  
669.500000	93.773939  
670.000000	91.243628  
670.500000	88.625939  
671.000000	86.494719  
671.500000	84.162310  
672.000000	81.655242  
672.500000	78.596454  
673.000000	75.654477  
673.500000	73.385356  
674.000000	72.050492  
674.500000	70.417780  
675.000000	68.357159  
675.500000	65.761666  
676.000000	63.111318  
676.500000	60.563386  
677.000000	58.960803  
677.500000	57.827348  
678.000000	56.404333  
678.500000	54.744795  
679.000000	53.162666  
679.500000	51.921106  
680.000000	50.738303  
680.500000	49.505696  
681.000000	48.013924  
681.500000	45.631363  
682.000000	43.393249  
682.500000	41.845439  
683.000000	41.446651  
683.500000	40.482946  
684.000000	39.248666  
684.500000	37.950371  
685.000000	36.927787  
685.500000	35.763189  
686.000000	34.396348  
686.500000	33.033083  
687.000000	31.950318  
687.500000	31.129780  
688.000000	30.293151  
688.500000	29.428803  
689.000000	28.443371  
689.500000	27.868083  
690.000000	27.685045  
690.500000	27.480469  
691.000000	26.575045  
691.500000	25.220393  
692.000000	23.783318  
692.500000	22.655704  
693.000000	22.112765  
693.500000	22.012545  
694.000000	22.304151  
694.500000	21.787325  
695.000000	20.950363  
695.500000	19.895954  
696.000000	19.510045  
696.500000	19.318886  
697.000000	19.116106  
697.500000	18.483750  
698.000000	17.594787  
698.500000	16.325545  
699.000000	15.523681  
699.500000	15.184098  
700.000000	15.472401  
700.500000	15.206878  
701.000000	14.867689  
701.500000	14.261424  
702.000000	14.074477  
702.500000	13.673659  
703.000000	13.360424  
703.500000	13.129227  
704.000000	13.060386  
704.500000	12.789583  
705.000000	12.440969  
705.500000	12.484856  
706.000000	12.749378  
706.500000	12.435378  
707.000000	11.542734  
707.500000	10.690901  
708.000000	10.532916  
708.500000	10.459053  
709.000000	10.552030  
709.500000	10.757333  
710.000000	10.937113  
710.500000	10.392431  
711.000000	9.792310   
711.500000	9.741462   
712.000000	10.259954  
712.500000	10.250484  
713.000000	9.703333   
713.500000	9.026590   
714.000000	8.652189   
714.500000	8.487818   
715.000000	8.600106   
715.500000	8.839666   
716.000000	9.055734   
716.500000	8.893393   
717.000000	8.413083   
717.500000	7.844787   
718.000000	7.601848   
718.500000	7.780939   
719.000000	7.914446   
719.500000	7.715803   
720.000000	7.307977   
720.500000	7.226992   
721.000000	7.241174   
721.500000	7.195931   
722.000000	6.932106   
722.500000	7.045234   
723.000000	7.097674   
723.500000	6.977636   
724.000000	6.544166   
724.500000	6.476378   
725.000000	6.501863   
725.500000	6.493590   
726.000000	6.065015   
726.500000	5.857371   
727.000000	5.808871   
727.500000	5.920250   
728.000000	6.007257   
728.500000	6.212537   
729.000000	6.268446   
729.500000	6.191545   
730.000000	5.868689   
730.500000	5.614992   
731.000000	5.373424   
731.500000	5.347174   
732.000000	5.409803   
732.500000	5.585386   
733.000000	5.605340   
733.500000	5.544992   
734.000000	5.434416   
734.500000	5.460075   
735.000000	5.594446   
735.500000	5.570621   
736.000000	5.299106   
736.500000	4.768363   
737.000000	4.464606   
737.500000	4.377439   
738.000000	4.554136   
738.500000	4.509060   
739.000000	4.554500   
739.500000	4.601287   
740.000000	4.750037   
740.500000	4.593515   
741.000000	4.477060   
741.500000	4.572068   
742.000000	4.800848   
742.500000	4.676939   
743.000000	4.303234   
743.500000	4.025696   
744.000000	3.977401   
744.500000	3.850984   
745.000000	3.838696   
745.500000	3.908651   
746.000000	4.024318   
746.500000	3.909946   
747.000000	3.822507   
747.500000	3.792000   
748.000000	3.814946   
748.500000	3.739643   
749.000000	3.700810   
749.500000	3.778931   
750.000000	3.964681   
750.500000	4.059393   
751.000000	3.984174   
751.500000	3.703515   
752.000000	3.417553   
752.500000	3.264204   
753.000000	3.326575   
753.500000	3.368886   
754.000000	3.444818   
754.500000	3.406128   
755.000000	3.490924   
755.500000	3.601462   
756.000000	3.667909   
756.500000	3.625757   
757.000000	3.706689   
757.500000	3.843371   
758.000000	3.822007   
758.500000	3.589022   
759.000000	3.347340   
759.500000	3.274704   
760.000000	3.148863   
760.500000	3.041598   
761.000000	3.069750   
761.500000	3.242159   
762.000000	3.284431   
762.500000	3.209977   
763.000000	3.115166   
763.500000	3.194439   
764.000000	3.294772   
764.500000	3.347931   
765.000000	3.252219   
765.500000	3.164560   
766.000000	3.127174   
766.500000	3.134378   
767.000000	3.079515   
767.500000	3.050719   
768.000000	3.206257   
768.500000	3.364757   
769.000000	3.357136   
769.500000	3.142712   
770.000000	3.103530   
770.500000	3.171477   
771.000000	3.296280   
771.500000	3.265219   
772.000000	3.296045   
772.500000	3.207772   
773.000000	2.954250   
773.500000	2.604356   
774.000000	2.607984   
774.500000	2.883537   
775.000000	3.107878   
775.500000	3.024757   
776.000000	2.925939   
776.500000	2.984227   
777.000000	3.163734   
777.500000	3.190242   
778.000000	2.991212   
778.500000	2.785363   
779.000000	2.728871   
779.500000	2.845787   
780.000000	2.951916   
780.500000	2.975977   
781.000000	2.893409   
781.500000	2.839166   
782.000000	2.865840   
782.500000	2.957803   
783.000000	2.972954   
783.500000	2.876409   
784.000000	2.824242   
784.500000	2.770833   
785.000000	2.696424   
785.500000	2.556143   
786.000000	2.527560   
786.500000	2.558924   
787.000000	2.694712   
787.500000	2.769909   
788.000000	2.776083   
788.500000	2.553515   
789.000000	2.373431   
789.500000	2.352333   
790.000000	2.545356   
790.500000	2.714174   
791.000000	2.847886   
791.500000	2.774931   
792.000000	2.566545   
792.500000	2.354121   
793.000000	2.360401   
793.500000	2.439833   
794.000000	2.384954   
794.500000	2.172719   
795.000000	2.078181   
795.500000	2.206636   
796.000000	2.391492   
796.500000	2.551106   
797.000000	2.657545   
797.500000	2.662045   
798.000000	2.461916   
798.500000	2.088303   
799.000000	1.817962   
799.500000	1.799856   
800.000000	1.944151   
800.500000	1.979053   
801.000000	1.901825   
801.500000	1.693530   
802.000000	1.558333   
802.500000	1.631136   
803.000000	1.747825   
803.500000	1.766015   
804.000000	1.675492   
804.500000	1.612810   
805.000000	1.616340   
805.500000	1.627106   
806.000000	1.622818   
806.500000	1.694090   
807.000000	1.850696   
807.500000	1.867189   
808.000000	1.800090   
808.500000	1.611219   
809.000000	1.425704   
809.500000	1.335484   
810.000000	1.383431   
810.500000	1.358734   
811.000000	1.309537   
811.500000	1.272984   
812.000000	1.357598   
812.500000	1.464174   
813.000000	1.480189   
813.500000	1.472886   
814.000000	1.446128   
814.500000	1.377000   
815.000000	1.226977   
815.500000	1.219348   
816.000000	1.281575   
816.500000	1.475484   
817.000000	1.589916   
817.500000	1.585363   
818.000000	1.453454   
818.500000	1.391628   
819.000000	1.345681   
819.500000	1.362803   
820.000000	1.430750   
820.500000	1.611818   
821.000000	1.798484   
821.500000	1.920000   
822.000000	2.064409   
822.500000	2.357409   
823.000000	2.564681   
823.500000	2.550424   
824.000000	2.401030   
824.500000	2.210742   
825.000000	2.071969   
825.500000	1.921863   
826.000000	1.927469   
826.500000	2.017189   
827.000000	2.107159   
827.500000	2.032318   
828.000000	1.849689   
828.500000	1.678712   
829.000000	1.501939   
829.500000	1.352500   
830.000000	1.161969   
830.500000	1.131143   
831.000000	1.143803   
831.500000	1.138136   
832.000000	1.057787   
832.500000	1.018287   
833.000000	1.079651   
833.500000	1.116840   
834.000000	1.171386   
834.500000	1.159954   
835.000000	1.113045   
835.500000	1.061196   
836.000000	1.081560   
836.500000	1.094765   
837.000000	1.022075   
837.500000	0.844499   
838.000000	0.719848   
838.500000	0.758803   
839.000000	0.806181   
839.500000	0.761348   
840.000000	0.658060   
840.500000	0.687196   
841.000000	0.792083   
841.500000	0.869992   
842.000000	0.779477   
842.500000	0.664393   
843.000000	0.567174   
843.500000	0.526446   
844.000000	0.440401   
844.500000	0.414878   
845.000000	0.471446   
845.500000	0.576931   
846.000000	0.487962   
846.500000	0.431583   
847.000000	0.382742   
847.500000	0.401916   
848.000000	0.142621   
848.500000	-0.041984  
849.000000	-0.098462  
849.500000	0.171795   
850.000000	0.316439   
850.500000	0.404825   
851.000000	0.325719   
851.500000	0.303787   
852.000000	0.243234   
852.500000	0.246037   
853.000000	0.260174   
853.500000	0.289113   
854.000000	0.336439   
854.500000	0.341348   
855.000000	0.257628   
855.500000	0.064310   
856.000000	-0.009022  
856.500000	0.046818   
857.000000	0.120613   
857.500000	0.030060   
858.000000	-0.038606  
858.500000	0.038507   
859.000000	0.018212   
859.500000	-0.110674  
860.000000	-0.277212  
860.500000	-0.253287  
861.000000	-0.238984  
861.500000	-0.223424  
862.000000	-0.194780  
862.500000	-0.039962  
863.000000	0.074159   
863.500000	0.022393   
864.000000	-0.140121  
864.500000	-0.205136  
865.000000	-0.077590  
865.500000	0.065681   
866.000000	0.016803   
866.500000	-0.117628  
867.000000	-0.141689  
867.500000	-0.055833  
868.000000	-0.098780  
868.500000	-0.255553  
869.000000	-0.362492  
869.500000	-0.308250  
870.000000	-0.188174  
870.500000	-0.060984  
871.000000	-0.072712  
871.500000	-0.144189  
872.000000	-0.244045  
872.500000	-0.194712  
873.000000	-0.070477  
873.500000	0.063045   
874.000000	-0.027856  
874.500000	-0.113659  
875.000000	-0.109553  
875.500000	0.014196   
876.000000	0.095386   
876.500000	0.012651   
877.000000	-0.078696  
877.500000	-0.061636  
878.000000	0.093424   
878.500000	0.143848   
879.000000	0.097598   
879.500000	-0.075363  
880.000000	-0.122204  
880.500000	-0.103719  
881.000000	-0.038159  
881.500000	-0.017068  
882.000000	-0.021242  
882.500000	-0.059840  
883.000000	-0.045287  
883.500000	-0.051825  
884.000000	-0.058848  
884.500000	-0.137083  
885.000000	-0.183083  
885.500000	-0.205833  
886.000000	-0.114378  
886.500000	-0.085454  
887.000000	-0.096469  
887.500000	-0.165515  
888.000000	-0.077674  
888.500000	0.035303   
889.000000	0.106287   
889.500000	0.015151   
890.000000	-0.093356  
890.500000	-0.232378  
891.000000	-0.244204  
891.500000	-0.158219  
892.000000	-0.027886  
892.500000	-0.080522  
893.000000	-0.193431  
893.500000	-0.298166  
894.000000	-0.214909  
894.500000	-0.109530  
895.000000	-0.003537  
895.500000	-0.054303  
896.000000	-0.112492  
896.500000	-0.158303  
897.000000	-0.075795  
897.500000	0.014075   

