PE FL                   SPECTRUM    ASCII       PEDS        1.60        
  -1
SAA3A9~1.SP
24/04/12
16:47:39.00
24/04/12
16:47:39.00
Jan

897.500000
1









LS55
405.00
5.00
5.00
SCAN
1
20
100
100
0
400
0
1
0
1
5
ON
450 405 
1 0 0
#HDR
-1
-1
#GR
NM

0.00002384185791015625
0.0
450.000000
0.500000
896
8
236.821939
-0.346454
#DATA
450.000000	0.843000   
450.500000	0.112643   
451.000000	-0.192431  
451.500000	-0.144810  
452.000000	-0.052757  
452.500000	-0.066590  
453.000000	-0.036803  
453.500000	0.048772   
454.000000	0.113409   
454.500000	0.067356   
455.000000	0.020287   
455.500000	0.081227   
456.000000	0.198136   
456.500000	0.224757   
457.000000	0.099643   
457.500000	-0.120340  
458.000000	-0.279924  
458.500000	-0.346454  
459.000000	-0.270287  
459.500000	-0.112000  
460.000000	0.012022   
460.500000	-0.004651  
461.000000	-0.102227  
461.500000	-0.077696  
462.000000	0.093431   
462.500000	0.228378   
463.000000	0.167810   
463.500000	0.131484   
464.000000	0.161348   
464.500000	0.162757   
465.000000	0.081939   
465.500000	0.100704   
466.000000	0.314962   
466.500000	0.352234   
467.000000	0.121916   
467.500000	-0.244954  
468.000000	-0.220871  
468.500000	-0.037454  
469.000000	0.170787   
469.500000	0.169553   
470.000000	0.279545   
470.500000	0.392590   
471.000000	0.452560   
471.500000	0.270250   
472.000000	0.101196   
472.500000	0.026954   
473.000000	-0.002492  
473.500000	-0.106681  
474.000000	-0.229401  
474.500000	-0.275151  
475.000000	-0.169954  
475.500000	0.034628   
476.000000	0.217053   
476.500000	0.307356   
477.000000	0.226356   
477.500000	0.100356   
478.000000	-0.031106  
478.500000	-0.196606  
479.000000	-0.249287  
479.500000	-0.081863  
480.000000	0.228863   
480.500000	0.370871   
481.000000	0.268174   
481.500000	0.126121   
482.000000	0.084871   
482.500000	0.126909   
483.000000	0.132818   
483.500000	0.208969   
484.000000	0.197969   
484.500000	0.112265   
485.000000	-0.129416  
485.500000	-0.215780  
486.000000	-0.124287  
486.500000	0.025833   
487.000000	0.044931   
487.500000	0.014113   
488.000000	-0.017901  
488.500000	-0.036712  
489.000000	-0.054757  
489.500000	-0.032469  
490.000000	0.065984   
490.500000	0.102280   
491.000000	0.003659   
491.500000	-0.092818  
492.000000	-0.070848  
492.500000	0.074568   
493.000000	0.170984   
493.500000	0.158946   
494.000000	0.094204   
494.500000	-0.009765  
495.000000	-0.043030  
495.500000	0.065969   
496.000000	0.386613   
496.500000	0.630166   
497.000000	0.621613   
497.500000	0.394053   
498.000000	0.263606   
498.500000	0.323727   
499.000000	0.383590   
499.500000	0.457280   
500.000000	0.327280   
500.500000	0.291674   
501.000000	0.272750   
501.500000	0.415969   
502.000000	0.477022   
502.500000	0.443272   
503.000000	0.384265   
503.500000	0.385787   
504.000000	0.341598   
504.500000	0.187469   
505.000000	0.259166   
505.500000	0.520219   
506.000000	0.761196   
506.500000	0.793424   
507.000000	0.694136   
507.500000	0.762909   
508.000000	0.828636   
508.500000	0.891628   
509.000000	0.813848   
509.500000	0.924984   
510.000000	1.071840   
510.500000	1.328280   
511.000000	1.371431   
511.500000	1.312166   
512.000000	1.103371   
512.500000	1.081250   
513.000000	1.317674   
513.500000	1.664840   
514.000000	1.806174   
514.500000	1.804219   
515.000000	1.810909   
515.500000	1.932159   
516.000000	1.888037   
516.500000	1.821189   
517.000000	1.824454   
517.500000	2.174371   
518.000000	2.436462   
518.500000	2.541734   
519.000000	2.344265   
519.500000	2.267257   
520.000000	2.234492   
520.500000	2.277863   
521.000000	2.390681   
521.500000	2.671174   
522.000000	2.847272   
522.500000	2.755356   
523.000000	2.576303   
523.500000	2.524000   
524.000000	2.654492   
524.500000	2.806333   
525.000000	3.020219   
525.500000	3.330477   
526.000000	3.672053   
526.500000	3.870946   
527.000000	3.853863   
527.500000	3.781734   
528.000000	3.871212   
528.500000	4.157075   
529.000000	4.444083   
529.500000	4.603393   
530.000000	4.611575   
530.500000	4.847856   
531.000000	5.253765   
531.500000	5.607507   
532.000000	5.582219   
532.500000	5.673803   
533.000000	6.105469   
533.500000	6.794303   
534.000000	6.915878   
534.500000	6.633136   
535.000000	6.477749   
535.500000	6.906681   
536.000000	7.442401   
536.500000	7.856446   
537.000000	8.121606   
537.500000	8.523045   
538.000000	8.714151   
538.500000	8.698537   
539.000000	8.859318   
539.500000	9.509818   
540.000000	10.091181  
540.500000	10.647803  
541.000000	11.237712  
541.500000	11.889977  
542.000000	12.087015  
542.500000	11.806727  
543.000000	11.327477  
543.500000	10.992946  
544.000000	10.703022  
544.500000	10.562454  
545.000000	10.802946  
545.500000	11.211613  
546.000000	11.557409  
546.500000	11.807712  
547.000000	11.815643  
547.500000	11.744795  
548.000000	11.435893  
548.500000	11.234242  
549.000000	11.160787  
549.500000	11.381613  
550.000000	11.485401  
550.500000	11.597325  
551.000000	11.559666  
551.500000	11.591409  
552.000000	11.565765  
552.500000	11.677000  
553.000000	11.611053  
553.500000	11.573075  
554.000000	11.561651  
554.500000	11.617507  
555.000000	11.655886  
555.500000	11.778219  
556.000000	12.189265  
556.500000	12.462431  
557.000000	12.632007  
557.500000	12.666318  
558.000000	12.967030  
558.500000	13.505886  
559.000000	14.176734  
559.500000	14.856583  
560.000000	15.235075  
560.500000	15.487265  
561.000000	15.652242  
561.500000	15.954060  
562.000000	16.131795  
562.500000	16.435568  
563.000000	16.893333  
563.500000	17.347454  
564.000000	17.494007  
564.500000	17.815484  
565.000000	18.488901  
565.500000	19.390022  
566.000000	20.080810  
566.500000	20.183856  
567.000000	20.020659  
567.500000	19.916992  
568.000000	20.555318  
568.500000	21.552613  
569.000000	22.570477  
569.500000	22.712462  
570.000000	22.762954  
570.500000	23.329340  
571.000000	24.707166  
571.500000	26.026840  
572.000000	26.271757  
572.500000	25.655719  
573.000000	25.253378  
573.500000	25.592507  
574.000000	26.253143  
574.500000	26.445780  
575.000000	26.766878  
575.500000	27.482333  
576.000000	28.882803  
576.500000	29.818378  
577.000000	30.299484  
577.500000	30.293643  
578.000000	30.465704  
578.500000	30.694287  
579.000000	30.905189  
579.500000	31.394075  
580.000000	31.941568  
580.500000	32.936348  
581.000000	33.659113  
581.500000	34.211083  
582.000000	34.438499  
582.500000	35.052931  
583.000000	36.094075  
583.500000	37.451621  
584.000000	38.726136  
584.500000	39.221818  
585.000000	39.012166  
585.500000	38.702174  
586.000000	39.937416  
586.500000	41.584454  
587.000000	42.543719  
587.500000	42.407424  
588.000000	43.061666  
588.500000	43.982348  
589.000000	45.056454  
589.500000	45.849469  
590.000000	47.195022  
590.500000	48.175333  
591.000000	48.385606  
591.500000	48.987772  
592.000000	49.909325  
592.500000	51.429030  
593.000000	52.718803  
593.500000	54.693810  
594.000000	55.835916  
594.500000	56.478810  
595.000000	56.071295  
595.500000	56.984015  
596.000000	58.750992  
596.500000	60.979015  
597.000000	62.470037  
597.500000	63.466037  
598.000000	63.542280  
598.500000	63.577000  
599.000000	64.111000  
599.500000	65.555159  
600.000000	67.556553  
600.500000	68.938363  
601.000000	70.182856  
601.500000	71.700530  
602.000000	73.577272  
602.500000	75.293166  
603.000000	76.200840  
603.500000	76.836037  
604.000000	78.024484  
604.500000	79.814462  
605.000000	81.384568  
605.500000	83.003651  
606.000000	85.086568  
606.500000	87.285659  
607.000000	88.468916  
607.500000	88.732522  
608.000000	89.891719  
608.500000	92.445462  
609.000000	95.357166  
609.500000	97.616325  
610.000000	98.663106  
610.500000	100.400121 
611.000000	102.040166 
611.500000	103.699303 
612.000000	104.640409 
612.500000	106.614234 
613.000000	108.539242 
613.500000	110.327598 
614.000000	112.094409 
614.500000	114.407909 
615.000000	117.123507 
615.500000	118.714712 
616.000000	120.519757 
616.500000	122.166015 
617.000000	124.739053 
617.500000	126.830621 
618.000000	129.331560 
618.500000	131.468909 
619.000000	133.862537 
619.500000	135.679212 
620.000000	136.670386 
620.500000	136.946166 
621.000000	138.302219 
621.500000	140.795954 
622.000000	143.893189 
622.500000	146.419969 
623.000000	149.288893 
623.500000	152.004787 
624.000000	154.671386 
624.500000	155.808151 
625.000000	156.639272 
625.500000	157.714803 
626.000000	160.388000 
626.500000	163.989037 
627.000000	167.952537 
627.500000	171.150712 
628.000000	173.900265 
628.500000	176.657484 
629.000000	178.743234 
629.500000	180.043219 
630.000000	181.120871 
630.500000	184.637621 
631.000000	189.717598 
631.500000	193.675833 
632.000000	194.437962 
632.500000	194.507151 
633.000000	196.151598 
633.500000	199.429181 
634.000000	201.639106 
634.500000	202.508174 
635.000000	203.704886 
635.500000	206.623378 
636.000000	209.714962 
636.500000	212.352371 
637.000000	214.464568 
637.500000	216.684659 
638.000000	217.927575 
638.500000	218.678431 
639.000000	219.899681 
639.500000	221.450022 
640.000000	223.535575 
640.500000	224.345333 
641.000000	224.930257 
641.500000	224.463090 
642.000000	224.729015 
642.500000	225.771984 
643.000000	228.100901 
643.500000	230.207098 
644.000000	232.161856 
644.500000	233.054045 
645.000000	233.674719 
645.500000	234.190287 
646.000000	234.946734 
646.500000	236.015242 
647.000000	236.821939 
647.500000	236.735356 
648.000000	236.220712 
648.500000	235.346780 
649.000000	234.810681 
649.500000	234.704856 
650.000000	234.675242 
650.500000	235.209128 
651.000000	235.834666 
651.500000	236.092628 
652.000000	235.213386 
652.500000	232.709409 
653.000000	229.779606 
653.500000	228.357393 
654.000000	227.963272 
654.500000	227.847340 
655.000000	226.921515 
655.500000	225.866136 
656.000000	224.643939 
656.500000	223.058037 
657.000000	220.220848 
657.500000	217.130674 
658.000000	214.278053 
658.500000	212.086037 
659.000000	210.392022 
659.500000	208.566030 
660.000000	206.609636 
660.500000	203.767234 
661.000000	200.653909 
661.500000	197.169083 
662.000000	194.495469 
662.500000	193.239128 
663.000000	191.646439 
663.500000	188.390901 
664.000000	183.518151 
664.500000	179.571803 
665.000000	176.699174 
665.500000	174.285431 
666.000000	171.138666 
666.500000	167.562075 
667.000000	164.107772 
667.500000	160.808393 
668.000000	158.369522 
668.500000	155.637272 
669.000000	152.021537 
669.500000	147.824962 
670.000000	143.315704 
670.500000	140.137537 
671.000000	137.076787 
671.500000	133.843742 
672.000000	129.670477 
672.500000	126.542484 
673.000000	123.637098 
673.500000	120.775469 
674.000000	117.120871 
674.500000	113.310416 
675.000000	110.190363 
675.500000	107.564909 
676.000000	106.052174 
676.500000	104.269234 
677.000000	101.226363 
677.500000	96.686712  
678.000000	92.848265  
678.500000	90.147242  
679.000000	87.988484  
679.500000	85.541712  
680.000000	82.783151  
680.500000	80.757106  
681.000000	78.891901  
681.500000	77.067568  
682.000000	74.459083  
682.500000	72.015363  
683.000000	69.509537  
683.500000	67.901022  
684.000000	65.694106  
684.500000	63.722454  
685.000000	61.234227  
685.500000	58.831325  
686.000000	56.201833  
686.500000	55.010363  
687.000000	54.578681  
687.500000	53.713909  
688.000000	51.567136  
688.500000	49.817068  
689.000000	48.928818  
689.500000	47.620651  
690.000000	45.674818  
690.500000	43.768545  
691.000000	42.441871  
691.500000	41.144825  
692.000000	39.977924  
692.500000	38.356500  
693.000000	36.678909  
693.500000	34.756022  
694.000000	33.934530  
694.500000	33.132856  
695.000000	32.452310  
695.500000	31.027628  
696.000000	30.631371  
696.500000	30.000053  
697.000000	29.750257  
697.500000	28.783030  
698.000000	28.047666  
698.500000	26.854159  
699.000000	25.784484  
699.500000	24.844257  
700.000000	24.779060  
700.500000	24.338060  
701.000000	23.389969  
701.500000	22.287454  
702.000000	21.907969  
702.500000	21.521189  
703.000000	21.172295  
703.500000	20.561181  
704.000000	20.307742  
704.500000	19.952856  
705.000000	19.576818  
705.500000	18.971333  
706.000000	18.513204  
706.500000	18.260477  
707.000000	18.300287  
707.500000	17.901689  
708.000000	17.049598  
708.500000	15.815696  
709.000000	15.160469  
709.500000	14.821128  
710.000000	14.974613  
710.500000	14.706484  
711.000000	14.431128  
711.500000	14.016818  
712.000000	14.006022  
712.500000	13.830189  
713.000000	13.778583  
713.500000	13.585583  
714.000000	13.377424  
714.500000	12.804901  
715.000000	12.142121  
715.500000	11.457946  
716.000000	11.172295  
716.500000	11.417113  
717.000000	11.851681  
717.500000	11.741878  
718.000000	11.199075  
718.500000	10.626704  
719.000000	10.531060  
719.500000	10.372318  
720.000000	9.764462   
720.500000	9.347818   
721.000000	9.390833   
721.500000	9.789909   
722.000000	9.789462   
722.500000	9.627810   
723.000000	9.419113   
723.500000	9.496325   
724.000000	9.260416   
724.500000	9.034795   
725.000000	8.787469   
725.500000	8.605325   
726.000000	8.281621   
726.500000	7.854204   
727.000000	7.405787   
727.500000	7.190287   
728.000000	7.099719   
728.500000	7.083151   
729.000000	7.026030   
729.500000	7.132689   
730.000000	7.386931   
730.500000	7.657409   
731.000000	7.702189   
731.500000	7.573810   
732.000000	7.398219   
732.500000	7.286340   
733.000000	7.168287   
733.500000	6.951272   
734.000000	6.632280   
734.500000	6.390681   
735.000000	6.241992   
735.500000	6.106174   
736.000000	5.920969   
736.500000	5.762204   
737.000000	5.670189   
737.500000	5.596318   
738.000000	5.428856   
738.500000	5.234969   
739.000000	5.180560   
739.500000	5.423727   
740.000000	5.697696   
740.500000	5.681962   
741.000000	5.313393   
741.500000	5.202280   
742.000000	5.399363   
742.500000	5.644590   
743.000000	5.442363   
743.500000	5.161636   
744.000000	5.117628   
744.500000	5.469833   
745.000000	5.568439   
745.500000	5.232818   
746.000000	4.576189   
746.500000	4.315401   
747.000000	4.411500   
747.500000	4.695128   
748.000000	4.847340   
748.500000	4.955143   
749.000000	4.755719   
749.500000	4.432984   
750.000000	4.174893   
750.500000	4.265280   
751.000000	4.394007   
751.500000	4.348166   
752.000000	4.024272   
752.500000	4.067363   
753.000000	4.194075   
753.500000	4.427242   
754.000000	4.368545   
754.500000	4.306871   
755.000000	4.124742   
755.500000	4.073265   
756.000000	3.992916   
756.500000	4.039477   
757.000000	3.993530   
757.500000	3.850734   
758.000000	3.569681   
758.500000	3.591939   
759.000000	3.673022   
759.500000	3.778734   
760.000000	3.440143   
760.500000	3.272901   
761.000000	3.326712   
761.500000	3.729303   
762.000000	3.828712   
762.500000	3.722060   
763.000000	3.662060   
763.500000	3.695939   
764.000000	3.712492   
764.500000	3.513696   
765.000000	3.284204   
765.500000	3.313151   
766.000000	3.459303   
766.500000	3.756454   
767.000000	3.857257   
767.500000	3.898189   
768.000000	3.563037   
768.500000	3.343166   
769.000000	3.109598   
769.500000	3.191303   
770.000000	3.044787   
770.500000	3.060969   
771.000000	3.135477   
771.500000	3.399265   
772.000000	3.361772   
772.500000	3.219113   
773.000000	2.882704   
773.500000	2.909098   
774.000000	2.988386   
774.500000	3.196212   
775.000000	3.197454   
775.500000	3.189825   
776.000000	3.098931   
776.500000	3.116734   
777.000000	3.096871   
777.500000	3.135227   
778.000000	3.120742   
778.500000	3.064909   
779.000000	3.001871   
779.500000	3.063901   
780.000000	3.242621   
780.500000	3.331787   
781.000000	3.316121   
781.500000	3.267386   
782.000000	3.157416   
782.500000	2.855000   
783.000000	2.559962   
783.500000	2.540704   
784.000000	2.776560   
784.500000	2.742333   
785.000000	2.535386   
785.500000	2.376727   
786.000000	2.479143   
786.500000	2.566681   
787.000000	2.632015   
787.500000	2.683007   
788.000000	2.670742   
788.500000	2.576015   
789.000000	2.512174   
789.500000	2.585121   
790.000000	2.416454   
790.500000	2.156325   
791.000000	2.078553   
791.500000	2.447939   
792.000000	2.789075   
792.500000	2.778242   
793.000000	2.484871   
793.500000	2.240984   
794.000000	2.176674   
794.500000	2.281734   
795.000000	2.346446   
795.500000	2.285765   
796.000000	2.145651   
796.500000	2.090886   
797.000000	2.061848   
797.500000	2.045992   
798.000000	2.120431   
798.500000	2.053454   
799.000000	1.862204   
799.500000	1.654090   
800.000000	1.834106   
800.500000	2.078507   
801.000000	2.176416   
801.500000	2.049901   
802.000000	2.103500   
802.500000	2.212053   
803.000000	2.209962   
803.500000	2.062878   
804.000000	1.917757   
804.500000	1.934416   
805.000000	2.055181   
805.500000	2.108856   
806.000000	2.029803   
806.500000	1.946015   
807.000000	1.790409   
807.500000	1.704348   
808.000000	1.574280   
808.500000	1.677553   
809.000000	1.741537   
809.500000	1.728818   
810.000000	1.539810   
810.500000	1.504666   
811.000000	1.541022   
811.500000	1.622166   
812.000000	1.696136   
812.500000	1.746772   
813.000000	1.822931   
813.500000	1.690954   
814.000000	1.459378   
814.500000	1.378825   
815.000000	1.556060   
815.500000	1.703166   
816.000000	1.581045   
816.500000	1.348590   
817.000000	1.352030   
817.500000	1.490484   
818.000000	1.494136   
818.500000	1.532007   
819.000000	1.705765   
819.500000	1.819871   
820.000000	1.719848   
820.500000	1.566909   
821.000000	1.651340   
821.500000	2.034310   
822.000000	2.501113   
822.500000	2.530393   
823.000000	2.228303   
823.500000	1.913037   
824.000000	2.134598   
824.500000	2.448742   
825.000000	2.612545   
825.500000	2.495583   
826.000000	2.452666   
826.500000	2.260613   
827.000000	2.151007   
827.500000	2.168250   
828.000000	2.217984   
828.500000	2.079257   
829.000000	1.789742   
829.500000	1.479136   
830.000000	1.343795   
830.500000	1.313280   
831.000000	1.318030   
831.500000	1.211893   
832.000000	1.064143   
832.500000	1.012878   
833.000000	1.113174   
833.500000	1.176469   
834.000000	1.248742   
834.500000	1.261143   
835.000000	1.214068   
835.500000	1.055924   
836.000000	0.921098   
836.500000	0.815651   
837.000000	0.870924   
837.500000	0.941742   
838.000000	1.059871   
838.500000	1.024363   
839.000000	0.992416   
839.500000	0.881901   
840.000000	0.854310   
840.500000	0.831212   
841.000000	0.906787   
841.500000	0.944477   
842.000000	0.913750   
842.500000	0.768666   
843.000000	0.615689   
843.500000	0.578742   
844.000000	0.535719   
844.500000	0.503121   
845.000000	0.366825   
845.500000	0.285537   
846.000000	0.263227   
846.500000	0.314954   
847.000000	0.327984   
847.500000	0.340333   
848.000000	0.297636   
848.500000	0.160174   
849.000000	-0.014030  
849.500000	-0.142121  
850.000000	-0.102015  
850.500000	0.007515   
851.000000	0.039151   
851.500000	0.033249   
852.000000	0.023136   
852.500000	0.017469   
853.000000	0.007196   
853.500000	0.054946   
854.000000	0.182045   
854.500000	0.212613   
855.000000	0.101939   
855.500000	-0.028916  
856.000000	-0.018962  
856.500000	0.018416   
857.000000	-0.009492  
857.500000	-0.124386  
858.000000	-0.162984  
858.500000	-0.074416  
859.000000	0.057727   
859.500000	0.207136   
860.000000	0.227015   
860.500000	0.178257   
861.000000	0.063984   
861.500000	-0.011469  
862.000000	-0.029378  
862.500000	0.015075   
863.000000	0.022681   
863.500000	-0.023075  
864.000000	-0.124931  
864.500000	-0.189234  
865.000000	-0.142227  
865.500000	-0.079196  
866.000000	-0.069984  
866.500000	-0.052030  
867.000000	-0.005007  
867.500000	0.016318   
868.000000	-0.067030  
868.500000	-0.197401  
869.000000	-0.279931  
869.500000	-0.232083  
870.000000	-0.084507  
870.500000	0.095969   
871.000000	0.068234   
871.500000	-0.117757  
872.000000	-0.300484  
872.500000	-0.231659  
873.000000	-0.044575  
873.500000	0.117848   
874.000000	0.103287   
874.500000	0.031954   
875.000000	-0.015977  
875.500000	0.022128   
876.000000	0.017030   
876.500000	-0.016795  
877.000000	-0.011742  
877.500000	0.101696   
878.000000	0.118174   
878.500000	0.025924   
879.000000	-0.143128  
879.500000	-0.191007  
880.000000	-0.179401  
880.500000	-0.093318  
881.000000	-0.058325  
881.500000	-0.032969  
882.000000	-0.080500  
882.500000	-0.101348  
883.000000	-0.120098  
883.500000	-0.094242  
884.000000	-0.042068  
884.500000	-0.011810  
885.000000	-0.031939  
885.500000	-0.120772  
886.000000	-0.169537  
886.500000	-0.137590  
887.000000	-0.054992  
887.500000	-0.050250  
888.000000	-0.148689  
888.500000	-0.208818  
889.000000	-0.150780  
889.500000	-0.047515  
890.000000	-0.005659  
890.500000	0.066484   
891.000000	0.128416   
891.500000	0.084969   
892.000000	-0.078431  
892.500000	-0.123878  
893.000000	-0.015318  
893.500000	0.120045   
894.000000	0.107795   
894.500000	0.062280   
895.000000	0.032143   
895.500000	0.058333   
896.000000	0.093689   
896.500000	0.120795   
897.000000	0.146272   
897.500000	0.087128   

