PE FL                   SPECTRUM    ASCII       PEDS        1.60        
  -1
SA9BC5~1.SP
24/04/12
16:40:31.00
24/04/12
16:40:31.00
Jan

897.500000
1









LS55
405.00
5.00
5.00
SCAN
1
20
100
100
0
400
0
1
0
1
5
ON
450 405 
1 0 0
#HDR
-1
-1
#GR
NM

0.00002384185791015625
0.0
450.000000
0.500000
896
8
262.579393
-0.485916
#DATA
450.000000	0.578999   
450.500000	0.243704   
451.000000	-0.004204  
451.500000	-0.146113  
452.000000	-0.229651  
452.500000	-0.223469  
453.000000	-0.188371  
453.500000	-0.062075  
454.000000	0.053681   
454.500000	0.049651   
455.000000	-0.067204  
455.500000	-0.225560  
456.000000	-0.178833  
456.500000	0.074159   
457.000000	0.349969   
457.500000	0.481151   
458.000000	0.395878   
458.500000	0.265204   
459.000000	0.181181   
459.500000	0.195401   
460.000000	0.222643   
460.500000	0.142613   
461.000000	-0.024083  
461.500000	-0.101318  
462.000000	0.079863   
462.500000	0.281469   
463.000000	0.308128   
463.500000	0.091219   
464.000000	-0.086681  
464.500000	-0.170651  
465.000000	-0.144348  
465.500000	-0.092651  
466.000000	0.034371   
466.500000	0.010651   
467.000000	0.049257   
467.500000	0.170204   
468.000000	0.415477   
468.500000	0.347696   
469.000000	0.065075   
469.500000	-0.172651  
470.000000	-0.132803  
470.500000	0.024090   
471.000000	0.149378   
471.500000	0.210500   
472.000000	0.188272   
472.500000	0.160848   
473.000000	0.273810   
473.500000	0.400939   
474.000000	0.349946   
474.500000	0.216537   
475.000000	0.206825   
475.500000	0.272628   
476.000000	0.252166   
476.500000	0.207424   
477.000000	0.127492   
477.500000	0.099212   
478.000000	-0.044446  
478.500000	-0.043462  
479.000000	0.107939   
479.500000	0.403325   
480.000000	0.517325   
480.500000	0.438257   
481.000000	0.112515   
481.500000	-0.092825  
482.000000	-0.156151  
482.500000	-0.006560  
483.000000	-0.030734  
483.500000	-0.192787  
484.000000	-0.485916  
484.500000	-0.350742  
485.000000	0.083545   
485.500000	0.506840   
486.000000	0.528462   
486.500000	0.363121   
487.000000	0.246242   
487.500000	0.193310   
488.000000	0.097325   
488.500000	-0.019446  
489.000000	0.062045   
489.500000	0.204750   
490.000000	0.289901   
490.500000	0.121348   
491.000000	-0.107121  
491.500000	-0.281909  
492.000000	-0.156318  
492.500000	-0.039136  
493.000000	0.117946   
493.500000	0.054499   
494.000000	0.055477   
494.500000	0.007348   
495.000000	0.215977   
495.500000	0.454136   
496.000000	0.640939   
496.500000	0.507325   
497.000000	0.294537   
497.500000	0.173628   
498.000000	0.191727   
498.500000	0.123037   
499.000000	0.045249   
499.500000	0.109386   
500.000000	0.393386   
500.500000	0.646310   
501.000000	0.669393   
501.500000	0.613636   
502.000000	0.629249   
502.500000	0.603280   
503.000000	0.444181   
503.500000	0.380681   
504.000000	0.478939   
504.500000	0.664492   
505.000000	0.701757   
505.500000	0.746803   
506.000000	0.846977   
506.500000	0.921530   
507.000000	0.782363   
507.500000	0.659803   
508.000000	0.611469   
508.500000	0.655416   
509.000000	0.717325   
509.500000	0.815030   
510.000000	0.916500   
510.500000	0.926484   
511.000000	0.811083   
511.500000	0.713833   
512.000000	0.708613   
512.500000	0.938075   
513.000000	1.209787   
513.500000	1.391924   
514.000000	1.167704   
514.500000	1.134242   
515.000000	1.329810   
515.500000	1.716174   
516.000000	1.686515   
516.500000	1.506151   
517.000000	1.370689   
517.500000	1.515477   
518.000000	1.789871   
518.500000	1.909431   
519.000000	2.018166   
519.500000	1.999757   
520.000000	2.128780   
520.500000	2.099946   
521.000000	2.192196   
521.500000	2.316856   
522.000000	2.668575   
522.500000	2.794765   
523.000000	2.735371   
523.500000	2.555363   
524.000000	2.550015   
524.500000	2.736356   
525.000000	3.012371   
525.500000	3.154545   
526.000000	3.296522   
526.500000	3.352378   
527.000000	3.499636   
527.500000	3.554037   
528.000000	3.852378   
528.500000	4.086931   
529.000000	4.371106   
529.500000	4.422810   
530.000000	4.556803   
530.500000	4.855863   
531.000000	5.229090   
531.500000	5.340856   
532.000000	5.134742   
532.500000	5.257431   
533.000000	5.637022   
533.500000	6.206515   
534.000000	6.302409   
534.500000	6.499098   
535.000000	6.641166   
535.500000	6.976121   
536.000000	7.276590   
536.500000	7.848704   
537.000000	8.497174   
537.500000	9.178030   
538.000000	9.817325   
538.500000	9.949545   
539.000000	9.813053   
539.500000	9.692053   
540.000000	10.283659  
540.500000	11.095083  
541.000000	11.548568  
541.500000	11.384992  
542.000000	11.186522  
542.500000	11.384992  
543.000000	11.697560  
543.500000	12.010060  
544.000000	12.173666  
544.500000	12.302151  
545.000000	12.197757  
545.500000	11.923500  
546.000000	11.609901  
546.500000	11.433348  
547.000000	11.328166  
547.500000	11.256075  
548.000000	11.182878  
548.500000	11.264318  
549.000000	11.487840  
549.500000	11.737969  
550.000000	11.790871  
550.500000	11.681409  
551.000000	11.627992  
551.500000	11.628333  
552.000000	11.567454  
552.500000	11.776795  
553.000000	12.259318  
553.500000	12.733462  
554.000000	12.728106  
554.500000	12.652606  
555.000000	12.601143  
555.500000	12.833174  
556.000000	12.902613  
556.500000	12.972909  
557.000000	13.073969  
557.500000	13.345454  
558.000000	13.711613  
558.500000	14.241151  
559.000000	14.576159  
559.500000	14.716954  
560.000000	14.766962  
560.500000	15.257045  
561.000000	15.966393  
561.500000	16.648477  
562.000000	16.607181  
562.500000	16.406787  
563.000000	16.303462  
563.500000	16.790992  
564.000000	17.160189  
564.500000	17.798924  
565.000000	18.606446  
565.500000	19.541257  
566.000000	20.230477  
566.500000	20.615500  
567.000000	20.861174  
567.500000	20.881128  
568.000000	20.897651  
568.500000	21.334136  
569.000000	22.776553  
569.500000	24.150310  
570.000000	24.830750  
570.500000	24.783189  
571.000000	24.714606  
571.500000	25.044431  
572.000000	25.276727  
572.500000	25.632969  
573.000000	25.994840  
573.500000	26.484348  
574.000000	26.665416  
574.500000	27.402916  
575.000000	28.386174  
575.500000	29.544068  
576.000000	29.883113  
576.500000	29.723621  
577.000000	29.688727  
577.500000	30.349931  
578.000000	31.669924  
578.500000	32.639909  
579.000000	33.116037  
579.500000	33.025984  
580.000000	33.643356  
580.500000	34.338931  
581.000000	35.111522  
581.500000	35.323643  
582.000000	35.853310  
582.500000	36.344871  
583.000000	37.109833  
583.500000	37.807446  
584.000000	39.064886  
584.500000	40.107537  
585.000000	40.952166  
585.500000	41.348371  
586.000000	42.213863  
586.500000	43.035621  
587.000000	43.930590  
587.500000	44.827795  
588.000000	46.221560  
588.500000	47.399113  
589.000000	47.909954  
589.500000	48.311151  
590.000000	49.341772  
590.500000	50.697734  
591.000000	51.766530  
591.500000	52.596356  
592.000000	53.767651  
592.500000	54.985318  
593.000000	56.038030  
593.500000	57.167227  
594.000000	58.589598  
594.500000	59.227499  
595.000000	59.426818  
595.500000	59.675499  
596.000000	60.940053  
596.500000	62.647613  
597.000000	64.591583  
597.500000	66.100507  
598.000000	66.767492  
598.500000	66.881454  
599.000000	68.265409  
599.500000	71.107750  
600.000000	73.384818  
600.500000	74.101431  
601.000000	73.896780  
601.500000	74.608416  
602.000000	75.645856  
602.500000	76.791212  
603.000000	78.051522  
603.500000	79.917136  
604.000000	81.502000  
604.500000	83.609674  
605.000000	85.850151  
605.500000	88.110765  
606.000000	89.888575  
606.500000	91.473106  
607.000000	93.372598  
607.500000	95.020507  
608.000000	95.843568  
608.500000	96.724689  
609.000000	98.458393  
609.500000	100.776545 
610.000000	103.095818 
610.500000	104.506166 
611.000000	105.634151 
611.500000	107.173787 
612.000000	108.965545 
612.500000	110.763621 
613.000000	113.905659 
613.500000	117.466727 
614.000000	120.230871 
614.500000	121.278772 
615.000000	122.435363 
615.500000	124.556053 
616.000000	127.174583 
616.500000	129.164090 
617.000000	131.483765 
617.500000	134.467439 
618.000000	137.530545 
618.500000	139.597666 
619.000000	141.426969 
619.500000	143.288734 
620.000000	145.287507 
620.500000	146.854492 
621.000000	148.780143 
621.500000	151.841719 
622.000000	154.366515 
622.500000	156.048219 
623.000000	158.150560 
623.500000	161.699295 
624.000000	164.955863 
624.500000	167.690272 
625.000000	170.520022 
625.500000	173.313931 
626.000000	175.317060 
626.500000	175.955325 
627.000000	177.443590 
627.500000	180.646704 
628.000000	185.186583 
628.500000	189.259613 
629.000000	192.707325 
629.500000	196.038878 
630.000000	200.091113 
630.500000	203.662053 
631.000000	206.501257 
631.500000	208.397113 
632.000000	210.274189 
632.500000	211.624507 
633.000000	213.833674 
633.500000	216.505166 
634.000000	219.006621 
634.500000	220.694613 
635.000000	222.178000 
635.500000	224.614128 
636.000000	227.361030 
636.500000	230.085128 
637.000000	231.674719 
637.500000	233.708750 
638.000000	236.436848 
638.500000	238.593083 
639.000000	240.296901 
639.500000	241.919833 
640.000000	244.176681 
640.500000	245.555734 
641.000000	247.070765 
641.500000	248.426287 
642.000000	250.214515 
642.500000	251.222068 
643.000000	252.230765 
643.500000	253.100348 
644.000000	253.831371 
644.500000	254.747704 
645.000000	255.980583 
645.500000	256.308666 
646.000000	255.905515 
646.500000	255.584045 
647.000000	256.361886 
647.500000	258.404924 
648.000000	260.939621 
648.500000	262.579393 
649.000000	261.787462 
649.500000	260.856272 
650.000000	259.960159 
650.500000	260.317916 
651.000000	259.323159 
651.500000	258.451628 
652.000000	256.598840 
652.500000	256.378310 
653.000000	257.007128 
653.500000	258.216522 
654.000000	257.831431 
654.500000	256.600030 
655.000000	255.835689 
655.500000	254.818825 
656.000000	253.692772 
656.500000	251.642553 
657.000000	249.636598 
657.500000	246.860174 
658.000000	243.867878 
658.500000	240.488227 
659.000000	237.602015 
659.500000	235.512681 
660.000000	233.328621 
660.500000	230.914984 
661.000000	228.022166 
661.500000	226.180871 
662.000000	224.986674 
662.500000	222.878212 
663.000000	219.426969 
663.500000	215.077007 
664.000000	211.374825 
664.500000	207.695151 
665.000000	205.212189 
665.500000	202.427757 
666.000000	199.487575 
666.500000	196.197787 
667.000000	192.297757 
667.500000	188.469053 
668.000000	183.787954 
668.500000	179.909909 
669.000000	176.035787 
669.500000	173.138083 
670.000000	168.817946 
670.500000	164.339643 
671.000000	159.817272 
671.500000	156.517621 
672.000000	154.153416 
672.500000	150.557143 
673.000000	145.668340 
673.500000	140.078507 
674.000000	136.509689 
674.500000	133.173553 
675.000000	130.160068 
675.500000	126.467280 
676.000000	123.998371 
676.500000	121.388901 
677.000000	118.644106 
677.500000	114.921143 
678.000000	111.078060 
678.500000	107.872590 
679.000000	105.727060 
679.500000	103.389628 
680.000000	99.565742  
680.500000	95.014424  
681.000000	91.161613  
681.500000	88.290333  
682.000000	85.710560  
682.500000	83.641310  
683.000000	81.747500  
683.500000	79.632606  
684.000000	77.419621  
684.500000	75.504560  
685.000000	73.151886  
685.500000	70.507234  
686.000000	68.072613  
686.500000	66.441431  
687.000000	64.480363  
687.500000	62.050795  
688.000000	59.511250  
688.500000	57.693136  
689.000000	56.010636  
689.500000	54.761340  
690.000000	53.245871  
690.500000	51.700166  
691.000000	50.042606  
691.500000	48.629962  
692.000000	47.493931  
692.500000	45.939424  
693.000000	44.014560  
693.500000	42.103856  
694.000000	41.078757  
694.500000	40.209606  
695.000000	39.482098  
695.500000	38.207181  
696.000000	37.147454  
696.500000	36.364401  
697.000000	35.595340  
697.500000	34.633280  
698.000000	33.599136  
698.500000	32.589924  
699.000000	31.235530  
699.500000	29.817583  
700.000000	28.856189  
700.500000	28.702946  
701.000000	28.651833  
701.500000	28.019992  
702.000000	27.255030  
702.500000	26.527590  
703.000000	25.769242  
703.500000	24.727893  
704.000000	23.792780  
704.500000	22.863219  
705.000000	22.188189  
705.500000	21.618045  
706.000000	21.318280  
706.500000	20.841234  
707.000000	20.251719  
707.500000	19.565386  
708.000000	19.243303  
708.500000	18.595136  
709.000000	17.889803  
709.500000	17.111636  
710.000000	16.964909  
710.500000	16.979393  
711.000000	16.887848  
711.500000	16.360348  
712.000000	15.860060  
712.500000	15.443939  
713.000000	15.412280  
713.500000	15.387621  
714.000000	15.245560  
714.500000	14.632227  
715.000000	13.978363  
715.500000	13.462189  
716.000000	13.451090  
716.500000	13.408757  
717.000000	13.191840  
717.500000	12.694500  
718.000000	12.283371  
718.500000	12.257825  
719.000000	12.319287  
719.500000	12.233303  
720.000000	11.828833  
720.500000	11.427939  
721.000000	11.257446  
721.500000	11.168886  
722.000000	10.993742  
722.500000	10.369537  
723.000000	10.068666  
723.500000	10.083325  
724.000000	10.573363  
724.500000	10.321219  
725.000000	9.600742   
725.500000	8.667287   
726.000000	8.384848   
726.500000	8.450007   
727.000000	8.803015   
727.500000	9.132742   
728.000000	9.177098   
728.500000	8.802818   
729.000000	8.352249   
729.500000	7.925666   
730.000000	7.669810   
730.500000	7.498931   
731.000000	7.639742   
731.500000	7.702090   
732.000000	7.622030   
732.500000	7.455318   
733.000000	7.501772   
733.500000	7.419780   
734.000000	7.159106   
734.500000	7.014636   
735.000000	7.268946   
735.500000	7.550659   
736.000000	7.290446   
736.500000	6.762628   
737.000000	6.519363   
737.500000	6.710909   
738.000000	6.696371   
738.500000	6.261803   
739.000000	5.672530   
739.500000	5.646750   
740.000000	6.075500   
740.500000	6.235030   
741.000000	6.076750   
741.500000	5.648098   
742.000000	5.612401   
742.500000	5.630507   
743.000000	5.812439   
743.500000	5.687371   
744.000000	5.643068   
744.500000	5.416909   
745.000000	5.406916   
745.500000	5.432363   
746.000000	5.312424   
746.500000	5.139280   
747.000000	5.145280   
747.500000	5.460636   
748.000000	5.575204   
748.500000	5.395159   
749.000000	4.984166   
749.500000	4.831371   
750.000000	4.692666   
750.500000	4.612689   
751.000000	4.510393   
751.500000	4.502045   
752.000000	4.290787   
752.500000	4.142946   
753.000000	4.056492   
753.500000	4.099000   
754.000000	4.016515   
754.500000	4.028962   
755.000000	3.989765   
755.500000	4.039568   
756.000000	4.063492   
756.500000	4.281977   
757.000000	4.436212   
757.500000	4.298583   
758.000000	4.019340   
758.500000	3.779916   
759.000000	3.722106   
759.500000	3.682462   
760.000000	3.996674   
760.500000	4.243946   
761.000000	4.351893   
761.500000	4.065719   
762.000000	3.899946   
762.500000	3.874856   
763.000000	3.940553   
763.500000	3.936590   
764.000000	3.934901   
764.500000	3.838257   
765.000000	3.659946   
765.500000	3.733143   
766.000000	3.977037   
766.500000	4.090643   
767.000000	3.914106   
767.500000	3.617181   
768.000000	3.421863   
768.500000	3.230704   
769.000000	3.244265   
769.500000	3.298272   
770.000000	3.398439   
770.500000	3.405780   
771.000000	3.525840   
771.500000	3.564053   
772.000000	3.523901   
772.500000	3.400628   
773.000000	3.439075   
773.500000	3.467174   
774.000000	3.320856   
774.500000	3.264939   
775.000000	3.298363   
775.500000	3.324181   
776.000000	3.151643   
776.500000	3.032553   
777.000000	3.006840   
777.500000	3.086984   
778.000000	2.939613   
778.500000	2.954886   
779.000000	3.138113   
779.500000	3.374378   
780.000000	3.269386   
780.500000	2.980757   
781.000000	2.782371   
781.500000	2.846886   
782.000000	2.926439   
782.500000	2.884189   
783.000000	2.766984   
783.500000	2.625446   
784.000000	2.597575   
784.500000	2.686712   
785.000000	2.859886   
785.500000	2.956621   
786.000000	3.049121   
786.500000	2.989560   
787.000000	2.848454   
787.500000	2.690765   
788.000000	2.728204   
788.500000	2.808893   
789.000000	2.862356   
789.500000	2.895931   
790.000000	2.956484   
790.500000	2.971696   
791.000000	2.844030   
791.500000	2.619280   
792.000000	2.408500   
792.500000	2.339098   
793.000000	2.446704   
793.500000	2.616946   
794.000000	2.735083   
794.500000	2.772530   
795.000000	2.730727   
795.500000	2.580219   
796.000000	2.439901   
796.500000	2.194287   
797.000000	1.996378   
797.500000	1.934643   
798.000000	2.289106   
798.500000	2.481250   
799.000000	2.436454   
799.500000	2.026250   
800.000000	1.762946   
800.500000	1.575939   
801.000000	1.600803   
801.500000	1.742742   
802.000000	2.029992   
802.500000	2.256477   
803.000000	2.126825   
803.500000	1.738196   
804.000000	1.360166   
804.500000	1.357378   
805.000000	1.652136   
805.500000	1.937318   
806.000000	1.954113   
806.500000	1.843227   
807.000000	1.807719   
807.500000	1.995719   
808.000000	2.227818   
808.500000	2.082681   
809.000000	1.744818   
809.500000	1.488553   
810.000000	1.602780   
810.500000	1.782984   
811.000000	1.908553   
811.500000	1.852083   
812.000000	1.753166   
812.500000	1.592522   
813.000000	1.432189   
813.500000	1.468507   
814.000000	1.529500   
814.500000	1.630477   
815.000000	1.601492   
815.500000	1.520477   
816.000000	1.494075   
816.500000	1.571212   
817.000000	1.612954   
817.500000	1.500606   
818.000000	1.372628   
818.500000	1.386583   
819.000000	1.690113   
819.500000	1.929931   
820.000000	2.067378   
820.500000	2.087189   
821.000000	1.998265   
821.500000	1.864969   
822.000000	1.891431   
822.500000	2.162469   
823.000000	2.400454   
823.500000	2.414060   
824.000000	2.312090   
824.500000	2.369151   
825.000000	2.353977   
825.500000	2.221901   
826.000000	2.116977   
826.500000	2.142977   
827.000000	2.121643   
827.500000	1.954068   
828.000000	1.790212   
828.500000	1.715863   
829.000000	1.668825   
829.500000	1.633878   
830.000000	1.578454   
830.500000	1.563901   
831.000000	1.459666   
831.500000	1.293136   
832.000000	1.136303   
832.500000	1.127689   
833.000000	1.240189   
833.500000	1.327901   
834.000000	1.314068   
834.500000	1.192424   
835.000000	1.168787   
835.500000	1.124333   
836.000000	1.120348   
836.500000	0.995356   
837.000000	0.903553   
837.500000	0.830401   
838.000000	0.870053   
838.500000	0.971212   
839.000000	1.011469   
839.500000	0.932499   
840.000000	0.788181   
840.500000	0.682696   
841.000000	0.595939   
841.500000	0.586121   
842.000000	0.613272   
842.500000	0.740863   
843.000000	0.883780   
843.500000	0.989121   
844.000000	1.016265   
844.500000	0.884833   
845.000000	0.690098   
845.500000	0.622295   
846.000000	0.645318   
846.500000	0.503196   
847.000000	0.190143   
847.500000	-0.009795  
848.000000	0.087727   
848.500000	0.284416   
849.000000	0.362106   
849.500000	0.340962   
850.000000	0.351416   
850.500000	0.376416   
851.000000	0.409143   
851.500000	0.399560   
852.000000	0.373681   
852.500000	0.316189   
853.000000	0.289856   
853.500000	0.256083   
854.000000	0.214598   
854.500000	0.094681   
855.000000	-0.099212  
855.500000	-0.209469  
856.000000	-0.193515  
856.500000	-0.104818  
857.000000	-0.085886  
857.500000	-0.095181  
858.000000	-0.064227  
858.500000	0.047909   
859.000000	0.170303   
859.500000	0.284984   
860.000000	0.292810   
860.500000	0.242969   
861.000000	0.215924   
861.500000	0.203750   
862.000000	0.186568   
862.500000	0.124810   
863.000000	0.023727   
863.500000	-0.103371  
864.000000	-0.174196  
864.500000	-0.173863  
865.000000	-0.108924  
865.500000	-0.119333  
866.000000	-0.136893  
866.500000	-0.148553  
867.000000	-0.219909  
867.500000	-0.321045  
868.000000	-0.303795  
868.500000	-0.140136  
869.000000	0.044151   
869.500000	0.090977   
870.000000	0.088242   
870.500000	0.076234   
871.000000	0.054204   
871.500000	0.008749   
872.000000	0.076166   
872.500000	0.147477   
873.000000	0.145128   
873.500000	-0.014651  
874.000000	-0.173159  
874.500000	-0.148871  
875.000000	0.014696   
875.500000	0.119000   
876.000000	0.044000   
876.500000	-0.074969  
877.000000	-0.086075  
877.500000	0.013090   
878.000000	0.079287   
878.500000	0.089825   
879.000000	0.032848   
879.500000	-0.055583  
880.000000	-0.095068  
880.500000	0.029060   
881.000000	0.134143   
881.500000	0.071757   
882.000000	-0.087810  
882.500000	-0.169500  
883.000000	-0.148984  
883.500000	-0.174757  
884.000000	-0.224636  
884.500000	-0.242636  
885.000000	-0.167674  
885.500000	-0.098386  
886.000000	0.006227   
886.500000	-0.000992  
887.000000	-0.110575  
887.500000	-0.252106  
888.000000	-0.307295  
888.500000	-0.328848  
889.000000	-0.304348  
889.500000	-0.219946  
890.000000	-0.022015  
890.500000	0.070704   
891.000000	0.015295   
891.500000	-0.114189  
892.000000	-0.103825  
892.500000	-0.175477  
893.000000	-0.261946  
893.500000	-0.318765  
894.000000	-0.121348  
894.500000	0.036643   
895.000000	0.084507   
895.500000	0.027439   
896.000000	0.060075   
896.500000	0.102719   
897.000000	0.070537   
897.500000	-0.078962  

