PE FL                   SPECTRUM    ASCII       PEDS        1.60        
  -1
SA8BC1~1.SP
24/04/12
15:29:13.00
24/04/12
15:29:13.00
Jan

897.500000
1









LS55
405.00
5.00
5.00
SCAN
1
20
100
100
0
400
0
1
0
1
5
ON
450 405 
1 0 0
#HDR
-1
-1
#GR
NM

0.00002384185791015625
0.0
450.000000
0.500000
896
8
397.346265
-0.382500
#DATA
450.000000	0.437000   
450.500000	0.246734   
451.000000	0.272704   
451.500000	0.347712   
452.000000	0.298007   
452.500000	0.271424   
453.000000	0.250780   
453.500000	0.081863   
454.000000	-0.199621  
454.500000	-0.382500  
455.000000	-0.348295  
455.500000	-0.321030  
456.000000	-0.160250  
456.500000	0.059765   
457.000000	0.329401   
457.500000	0.325318   
458.000000	0.152651   
458.500000	-0.043500  
459.000000	0.026007   
459.500000	0.281712   
460.000000	0.445272   
460.500000	0.329901   
461.000000	0.060272   
461.500000	0.027969   
462.000000	0.230325   
462.500000	0.403083   
463.000000	0.295878   
463.500000	0.062204   
464.000000	0.050492   
464.500000	0.222954   
465.000000	0.366946   
465.500000	0.263674   
466.000000	0.208219   
466.500000	0.131340   
467.000000	0.129893   
467.500000	-0.002992  
468.000000	-0.091909  
468.500000	-0.115734  
469.000000	-0.025303  
469.500000	0.059750   
470.000000	0.078446   
470.500000	0.086446   
471.000000	0.095295   
471.500000	0.162462   
472.000000	0.148545   
472.500000	0.164424   
473.000000	0.198075   
473.500000	0.206651   
474.000000	0.085659   
474.500000	-0.059909  
475.000000	-0.027492  
475.500000	0.233984   
476.000000	0.450325   
476.500000	0.415719   
477.000000	0.211681   
477.500000	0.007272   
478.000000	-0.175848  
478.500000	-0.263636  
479.000000	-0.148962  
479.500000	0.123795   
480.000000	0.301810   
480.500000	0.349901   
481.000000	0.358712   
481.500000	0.399984   
482.000000	0.321333   
482.500000	0.188992   
483.000000	0.094492   
483.500000	0.096045   
484.000000	0.169015   
484.500000	0.144666   
485.000000	0.121401   
485.500000	0.043492   
486.000000	0.176840   
486.500000	0.189825   
487.000000	0.151280   
487.500000	-0.016840  
488.000000	0.114189   
488.500000	0.177719   
489.000000	0.192878   
489.500000	0.168409   
490.000000	0.300310   
490.500000	0.516090   
491.000000	0.579212   
491.500000	0.578818   
492.000000	0.533106   
492.500000	0.605537   
493.000000	0.451946   
493.500000	0.305166   
494.000000	0.102795   
494.500000	0.242068   
495.000000	0.350583   
495.500000	0.415000   
496.000000	0.247704   
496.500000	0.225136   
497.000000	0.316136   
497.500000	0.467098   
498.000000	0.458840   
498.500000	0.381621   
499.000000	0.418083   
499.500000	0.604257   
500.000000	0.780969   
500.500000	0.631030   
501.000000	0.402477   
501.500000	0.253613   
502.000000	0.379750   
502.500000	0.436712   
503.000000	0.426537   
503.500000	0.363318   
504.000000	0.531727   
504.500000	0.741704   
505.000000	0.877613   
505.500000	0.823909   
506.000000	0.707818   
506.500000	0.789575   
507.000000	0.971749   
507.500000	1.082750   
508.000000	0.947689   
508.500000	0.861560   
509.000000	0.905416   
509.500000	1.055007   
510.000000	1.112643   
510.500000	1.095136   
511.000000	1.091401   
511.500000	1.137659   
512.000000	1.186151   
512.500000	1.204977   
513.000000	1.206560   
513.500000	1.339431   
514.000000	1.410651   
514.500000	1.372621   
515.000000	1.303727   
515.500000	1.484507   
516.000000	1.655613   
516.500000	1.585378   
517.000000	1.481643   
517.500000	1.647469   
518.000000	2.074909   
518.500000	2.142765   
519.000000	2.010189   
519.500000	1.877492   
520.000000	1.965598   
520.500000	1.879030   
521.000000	1.810015   
521.500000	1.941340   
522.000000	2.325083   
522.500000	2.502090   
523.000000	2.511909   
523.500000	2.418946   
524.000000	2.467651   
524.500000	2.494212   
525.000000	2.621022   
525.500000	2.731522   
526.000000	2.989378   
526.500000	3.111522   
527.000000	3.228265   
527.500000	3.371946   
528.000000	3.659560   
528.500000	3.900575   
529.000000	3.975750   
529.500000	3.841628   
530.000000	3.760863   
530.500000	3.896462   
531.000000	4.155984   
531.500000	4.395856   
532.000000	4.739174   
532.500000	5.287818   
533.000000	5.908356   
533.500000	6.071674   
534.000000	6.124545   
534.500000	6.263931   
535.000000	6.614878   
535.500000	6.802553   
536.000000	7.272113   
536.500000	7.629833   
537.000000	7.924833   
537.500000	7.766310   
538.000000	8.049431   
538.500000	8.614083   
539.000000	9.306030   
539.500000	9.601045   
540.000000	9.876749   
540.500000	10.247083  
541.000000	10.863727  
541.500000	11.360909  
542.000000	11.307227  
542.500000	11.053651  
543.000000	11.057416  
543.500000	11.527666  
544.000000	11.911363  
544.500000	12.018166  
545.000000	11.840015  
545.500000	11.819871  
546.000000	11.895992  
546.500000	12.179121  
547.000000	12.421878  
547.500000	12.478477  
548.000000	12.296083  
548.500000	12.215522  
549.000000	12.299568  
549.500000	12.279060  
550.000000	12.465219  
550.500000	12.401492  
551.000000	12.312477  
551.500000	11.918090  
552.000000	11.986621  
552.500000	12.440818  
553.000000	13.111750  
553.500000	13.369363  
554.000000	13.487469  
554.500000	13.845537  
555.000000	14.112712  
555.500000	14.057636  
556.000000	13.726825  
556.500000	13.806340  
557.000000	14.335863  
557.500000	14.867515  
558.000000	14.825272  
558.500000	14.870409  
559.000000	15.385863  
559.500000	15.904893  
560.000000	15.951628  
560.500000	15.851227  
561.000000	15.957939  
561.500000	16.600931  
562.000000	17.384545  
562.500000	18.039128  
563.000000	18.225871  
563.500000	18.106250  
564.000000	18.423280  
564.500000	19.362250  
565.000000	20.190295  
565.500000	20.703803  
566.000000	21.044765  
566.500000	21.745060  
567.000000	22.501575  
567.500000	23.089159  
568.000000	23.199515  
568.500000	23.605431  
569.000000	24.471462  
569.500000	25.669113  
570.000000	26.336931  
570.500000	26.491969  
571.000000	26.790704  
571.500000	27.466787  
572.000000	28.053530  
572.500000	28.415674  
573.000000	28.785500  
573.500000	29.490545  
574.000000	30.249818  
574.500000	30.787833  
575.000000	31.262787  
575.500000	31.920492  
576.000000	32.685681  
576.500000	33.206469  
577.000000	33.534606  
577.500000	34.139515  
578.000000	34.940931  
578.500000	35.817439  
579.000000	36.462856  
579.500000	36.960946  
580.000000	37.285484  
580.500000	38.063098  
581.000000	38.962575  
581.500000	40.072916  
582.000000	40.849999  
582.500000	41.895401  
583.000000	42.967909  
583.500000	44.026969  
584.000000	44.076969  
584.500000	44.176333  
585.000000	44.346151  
585.500000	45.482696  
586.000000	46.428106  
586.500000	47.576636  
587.000000	48.590128  
587.500000	50.727310  
588.000000	52.282416  
588.500000	53.139530  
589.000000	53.547863  
589.500000	54.600098  
590.000000	55.888022  
590.500000	57.249068  
591.000000	59.116189  
591.500000	61.318757  
592.000000	63.153287  
592.500000	63.630969  
593.000000	64.035098  
593.500000	64.832628  
594.000000	66.759151  
594.500000	68.839628  
595.000000	70.376287  
595.500000	70.677492  
596.000000	71.664825  
596.500000	73.847977  
597.000000	76.711787  
597.500000	78.718583  
598.000000	79.842560  
598.500000	80.624621  
599.000000	81.341916  
599.500000	82.953522  
600.000000	85.263348  
600.500000	88.065568  
601.000000	88.965378  
601.500000	89.533325  
602.000000	90.650583  
602.500000	93.627234  
603.000000	95.941537  
603.500000	97.504189  
604.000000	98.121962  
604.500000	100.441560 
605.000000	103.302992 
605.500000	106.098689 
606.000000	107.788492 
606.500000	109.582295 
607.000000	111.443575 
607.500000	113.217878 
608.000000	114.815393 
608.500000	117.057712 
609.000000	119.622727 
609.500000	122.181750 
610.000000	124.884954 
610.500000	127.861583 
611.000000	130.601651 
611.500000	132.588969 
612.000000	135.174946 
612.500000	137.559053 
613.000000	140.261242 
613.500000	142.702772 
614.000000	146.379060 
614.500000	150.448356 
615.000000	154.324719 
615.500000	156.456090 
616.000000	157.878166 
616.500000	160.330189 
617.000000	163.949287 
617.500000	168.057113 
618.000000	171.848401 
618.500000	174.826242 
619.000000	177.741893 
619.500000	180.370492 
620.000000	184.369689 
620.500000	188.087825 
621.000000	191.353371 
621.500000	193.366696 
622.000000	197.096401 
622.500000	201.406901 
623.000000	206.186727 
623.500000	209.526901 
624.000000	214.360318 
624.500000	217.587795 
625.000000	220.391075 
625.500000	221.552098 
626.000000	226.730356 
626.500000	232.348250 
627.000000	237.739757 
627.500000	239.695053 
628.000000	242.452484 
628.500000	246.843431 
629.000000	251.631916 
629.500000	255.403106 
630.000000	258.635689 
630.500000	262.713757 
631.000000	268.187757 
631.500000	273.328598 
632.000000	277.418871 
632.500000	279.948787 
633.000000	283.525053 
633.500000	287.904643 
634.000000	294.984689 
634.500000	300.822325 
635.000000	305.623499 
635.500000	308.434007 
636.000000	311.706484 
636.500000	314.964098 
637.000000	317.890446 
637.500000	320.822878 
638.000000	324.174848 
638.500000	327.701310 
639.000000	331.328227 
639.500000	336.198446 
640.000000	341.754007 
640.500000	345.665810 
641.000000	347.453037 
641.500000	349.224962 
642.000000	353.919856 
642.500000	358.101386 
643.000000	361.493045 
643.500000	363.994515 
644.000000	368.615000 
644.500000	372.407780 
645.000000	373.870075 
645.500000	373.380242 
646.000000	375.249037 
646.500000	380.492030 
647.000000	385.109606 
647.500000	387.329704 
648.000000	386.899537 
648.500000	387.147840 
649.000000	387.438590 
649.500000	388.078765 
650.000000	388.411954 
650.500000	388.735280 
651.000000	389.945212 
651.500000	392.185848 
652.000000	395.465113 
652.500000	395.631212 
653.000000	394.826310 
653.500000	393.982954 
654.000000	396.070477 
654.500000	397.346265 
655.000000	396.903250 
655.500000	394.506303 
656.000000	393.351242 
656.500000	393.742696 
657.000000	395.033386 
657.500000	394.775083 
658.000000	393.268598 
658.500000	389.737674 
659.000000	387.122522 
659.500000	386.341303 
660.000000	387.615416 
660.500000	385.964280 
661.000000	382.181515 
661.500000	378.015212 
662.000000	376.389136 
662.500000	372.906954 
663.000000	368.416772 
663.500000	365.032060 
664.000000	363.623530 
664.500000	361.294477 
665.000000	357.812363 
665.500000	353.795234 
666.000000	348.898000 
666.500000	346.434227 
667.000000	344.838030 
667.500000	343.729159 
668.000000	337.684234 
668.500000	331.176795 
669.000000	325.181871 
669.500000	321.657674 
670.000000	315.530363 
670.500000	310.920886 
671.000000	306.143075 
671.500000	303.268287 
672.000000	297.957121 
672.500000	292.750416 
673.000000	286.860674 
673.500000	283.735303 
674.000000	279.139734 
674.500000	273.705681 
675.000000	266.632598 
675.500000	260.852772 
676.000000	255.703053 
676.500000	249.057500 
677.000000	240.795909 
677.500000	234.084659 
678.000000	229.901909 
678.500000	226.319409 
679.000000	221.178931 
679.500000	215.226227 
680.000000	210.231409 
680.500000	205.318083 
681.000000	197.859393 
681.500000	190.322507 
682.000000	185.020628 
682.500000	181.895560 
683.000000	178.142772 
683.500000	172.357219 
684.000000	165.987818 
684.500000	161.464083 
685.000000	159.096189 
685.500000	157.245537 
686.000000	153.148969 
686.500000	146.455121 
687.000000	139.834621 
687.500000	135.763000 
688.000000	132.344325 
688.500000	128.830840 
689.000000	125.004659 
689.500000	121.388613 
690.000000	117.760325 
690.500000	114.821325 
691.000000	112.342628 
691.500000	109.820954 
692.000000	106.486204 
692.500000	102.732689 
693.000000	98.334522  
693.500000	94.356643  
694.000000	91.257583  
694.500000	88.938522  
695.000000	85.578568  
695.500000	82.064234  
696.000000	79.414234  
696.500000	77.130159  
697.000000	74.730477  
697.500000	72.806007  
698.000000	71.857181  
698.500000	70.604530  
699.000000	68.358984  
699.500000	65.616333  
700.000000	63.426287  
700.500000	61.411992  
701.000000	59.616090  
701.500000	57.826810  
702.000000	55.836272  
702.500000	53.775037  
703.000000	52.349469  
703.500000	51.817356  
704.000000	51.121371  
704.500000	49.334007  
705.000000	46.779325  
705.500000	45.135886  
706.000000	44.201750  
706.500000	43.543772  
707.000000	42.001136  
707.500000	40.648984  
708.000000	39.402765  
708.500000	38.905196  
709.000000	38.128939  
709.500000	37.328500  
710.000000	36.022318  
710.500000	35.125765  
711.000000	34.311280  
711.500000	33.940196  
712.000000	33.098795  
712.500000	31.930833  
713.000000	30.525780  
713.500000	29.855772  
714.000000	29.521462  
714.500000	29.014916  
715.000000	28.384765  
715.500000	27.759204  
716.000000	27.227424  
716.500000	26.166863  
717.000000	25.262628  
717.500000	24.730053  
718.000000	24.484939  
718.500000	23.763371  
719.000000	23.067575  
719.500000	22.611969  
720.000000	22.115340  
720.500000	21.509681  
721.000000	20.932083  
721.500000	20.424689  
722.000000	19.657303  
722.500000	18.855666  
723.000000	18.335424  
723.500000	18.266939  
724.000000	18.255318  
724.500000	18.028053  
725.000000	17.593212  
725.500000	17.124757  
726.000000	16.810113  
726.500000	16.421143  
727.000000	15.926825  
727.500000	15.499507  
728.000000	15.335393  
728.500000	14.909204  
729.000000	14.124287  
729.500000	13.493757  
730.000000	13.546446  
730.500000	13.780750  
731.000000	13.745772  
731.500000	13.323939  
732.000000	12.899068  
732.500000	12.474977  
733.000000	12.216856  
733.500000	12.105530  
734.000000	11.955257  
734.500000	11.776409  
735.000000	11.478136  
735.500000	11.359659  
736.000000	11.170113  
736.500000	11.327174  
737.000000	11.412469  
737.500000	11.328287  
738.000000	10.815984  
738.500000	10.320772  
739.000000	10.085318  
739.500000	9.810636   
740.000000	9.579090   
740.500000	9.479257   
741.000000	9.658575   
741.500000	9.370121   
742.000000	8.733946   
742.500000	8.167045   
743.000000	8.008598   
743.500000	8.076219   
744.000000	8.137598   
744.500000	8.335696   
745.000000	8.560083   
745.500000	8.397113   
746.000000	7.687454   
746.500000	7.078401   
747.000000	6.923621   
747.500000	7.151931   
748.000000	7.289560   
748.500000	7.182712   
749.000000	7.192340   
749.500000	7.307969   
750.000000	7.376583   
750.500000	7.068204   
751.000000	6.688848   
751.500000	6.443780   
752.000000	6.631825   
752.500000	6.744484   
753.000000	6.559909   
753.500000	6.119030   
754.000000	6.014757   
754.500000	6.074765   
755.000000	6.164734   
755.500000	5.921651   
756.000000	5.709416   
756.500000	5.716500   
757.000000	5.979151   
757.500000	6.081628   
758.000000	5.673325   
758.500000	5.216787   
759.000000	4.947060   
759.500000	5.192621   
760.000000	5.342181   
760.500000	5.620712   
761.000000	5.651227   
761.500000	5.506280   
762.000000	5.154954   
762.500000	5.081090   
763.000000	5.207227   
763.500000	5.235356   
764.000000	5.008878   
764.500000	4.766356   
765.000000	4.551613   
765.500000	4.396553   
766.000000	4.373545   
766.500000	4.540439   
767.000000	4.475484   
767.500000	4.124530   
768.000000	3.819136   
768.500000	3.922787   
769.000000	4.160803   
769.500000	4.220545   
770.000000	4.121242   
770.500000	4.002356   
771.000000	4.024030   
771.500000	4.094022   
772.000000	4.248386   
772.500000	4.162257   
773.000000	4.010545   
773.500000	4.040363   
774.000000	4.133227   
774.500000	4.124704   
775.000000	3.926628   
775.500000	3.891772   
776.000000	3.742954   
776.500000	3.467734   
777.000000	3.164159   
777.500000	3.306098   
778.000000	3.663219   
778.500000	3.652393   
779.000000	3.346643   
779.500000	2.997333   
780.000000	3.064242   
780.500000	3.159234   
781.000000	3.220787   
781.500000	3.105939   
782.000000	3.048954   
782.500000	3.067689   
783.000000	3.158212   
783.500000	3.275310   
784.000000	3.218128   
784.500000	3.168666   
785.000000	3.185143   
785.500000	3.351765   
786.000000	3.355651   
786.500000	3.138651   
787.000000	2.810780   
787.500000	2.694257   
788.000000	2.848810   
788.500000	3.109606   
789.000000	3.242939   
789.500000	3.153939   
790.000000	3.032189   
790.500000	2.998553   
791.000000	3.059151   
791.500000	3.091068   
792.000000	2.986992   
792.500000	2.889128   
793.000000	2.902734   
793.500000	2.981151   
794.000000	3.000924   
794.500000	2.968969   
795.000000	2.928643   
795.500000	2.887651   
796.000000	2.868924   
796.500000	2.751613   
797.000000	2.615333   
797.500000	2.457045   
798.000000	2.475606   
798.500000	2.696500   
799.000000	2.882848   
799.500000	2.836992   
800.000000	2.651666   
800.500000	2.452007   
801.000000	2.312825   
801.500000	2.144757   
802.000000	2.166560   
802.500000	2.325037   
803.000000	2.510772   
803.500000	2.385962   
804.000000	2.174280   
804.500000	2.101871   
805.000000	2.203000   
805.500000	2.295348   
806.000000	2.196878   
806.500000	2.118507   
807.000000	2.078113   
807.500000	2.207507   
808.000000	2.204409   
808.500000	2.178212   
809.000000	2.014727   
809.500000	1.868689   
810.000000	1.739318   
810.500000	1.750886   
811.000000	1.741060   
811.500000	1.764787   
812.000000	1.818712   
812.500000	1.979916   
813.000000	2.023825   
813.500000	1.891537   
814.000000	1.824924   
814.500000	1.968530   
815.000000	2.096946   
815.500000	2.031295   
816.000000	1.819666   
816.500000	1.622234   
817.000000	1.559166   
817.500000	1.542984   
818.000000	1.634295   
818.500000	1.752022   
819.000000	1.821363   
819.500000	1.691909   
820.000000	1.535575   
820.500000	1.426333   
821.000000	1.532825   
821.500000	1.676053   
822.000000	1.898856   
822.500000	2.169712   
823.000000	2.480500   
823.500000	2.638053   
824.000000	2.607946   
824.500000	2.499393   
825.000000	2.532227   
825.500000	2.560484   
826.000000	2.556568   
826.500000	2.326886   
827.000000	2.101772   
827.500000	1.967462   
828.000000	1.924000   
828.500000	1.822242   
829.000000	1.712795   
829.500000	1.671681   
830.000000	1.588962   
830.500000	1.482696   
831.000000	1.316492   
831.500000	1.353977   
832.000000	1.406666   
832.500000	1.451727   
833.000000	1.431742   
833.500000	1.380212   
834.000000	1.257477   
834.500000	1.159454   
835.000000	1.143575   
835.500000	1.180924   
836.000000	1.178393   
836.500000	1.181128   
837.000000	1.130522   
837.500000	1.059712   
838.000000	0.900386   
838.500000	0.829348   
839.000000	0.852159   
839.500000	0.974689   
840.000000	0.947803   
840.500000	0.924424   
841.000000	0.880840   
841.500000	0.901090   
842.000000	0.827840   
842.500000	0.804219   
843.000000	0.796924   
843.500000	0.724613   
844.000000	0.602128   
844.500000	0.549840   
845.000000	0.539409   
845.500000	0.424060   
846.000000	0.329749   
846.500000	0.268689   
847.000000	0.360886   
847.500000	0.406969   
848.000000	0.510765   
848.500000	0.496204   
849.000000	0.395439   
849.500000	0.288234   
850.000000	0.360939   
850.500000	0.451098   
851.000000	0.425477   
851.500000	0.371439   
852.000000	0.362409   
852.500000	0.501174   
853.000000	0.523818   
853.500000	0.420969   
854.000000	0.142871   
854.500000	0.088401   
855.000000	0.197924   
855.500000	0.309295   
856.000000	0.187113   
856.500000	0.073606   
857.000000	0.091053   
857.500000	0.123030   
858.000000	0.093924   
858.500000	0.048689   
859.000000	0.086651   
859.500000	0.102045   
860.000000	0.086446   
860.500000	0.033242   
861.000000	0.001621   
861.500000	0.021795   
862.000000	0.117765   
862.500000	0.219219   
863.000000	0.175946   
863.500000	0.062545   
864.000000	0.005613   
864.500000	-0.010280  
865.000000	-0.037613  
865.500000	-0.113310  
866.000000	-0.118704  
866.500000	-0.126174  
867.000000	-0.132181  
867.500000	-0.227090  
868.000000	-0.147568  
868.500000	-0.133212  
869.000000	-0.047136  
869.500000	-0.044810  
870.000000	0.038090   
870.500000	0.010340   
871.000000	0.045174   
871.500000	0.011878   
872.000000	0.050401   
872.500000	0.071886   
873.000000	0.102893   
873.500000	0.103727   
874.000000	0.110818   
874.500000	0.122159   
875.000000	0.134825   
875.500000	0.061015   
876.000000	-0.081537  
876.500000	-0.185000  
877.000000	-0.182500  
877.500000	-0.059098  
878.000000	0.049022   
878.500000	-0.006265  
879.000000	-0.164234  
879.500000	-0.153613  
880.000000	-0.014090  
880.500000	0.081780   
881.000000	0.063992   
881.500000	0.001007   
882.000000	0.024878   
882.500000	0.005363   
883.000000	-0.003878  
883.500000	-0.078696  
884.000000	-0.164818  
884.500000	-0.279984  
885.000000	-0.281045  
885.500000	-0.179886  
886.000000	-0.035992  
886.500000	0.062196   
887.000000	0.040431   
887.500000	0.047939   
888.000000	0.009234   
888.500000	-0.035750  
889.000000	-0.036666  
889.500000	0.094469   
890.000000	0.121060   
890.500000	-0.029643  
891.000000	-0.222446  
891.500000	-0.150560  
892.000000	0.019318   
892.500000	0.007386   
893.000000	-0.159696  
893.500000	-0.214931  
894.000000	-0.069477  
894.500000	0.206553   
895.000000	0.385007   
895.500000	0.412537   
896.000000	0.358719   
896.500000	0.279871   
897.000000	0.187424   
897.500000	0.078325   

