PE FL                   SPECTRUM    ASCII       PEDS        1.60        
  -1
SA8385~1.SP
24/04/12
15:30:38.00
24/04/12
15:30:38.00
Jan

897.500000
1









LS55
405.00
5.00
5.00
SCAN
1
20
100
100
0
400
0
1
0
1
5
ON
450 405 
1 0 0
#HDR
-1
-1
#GR
NM

0.00002384185791015625
0.0
450.000000
0.500000
896
8
396.632545
-0.333000
#DATA
450.000000	-0.333000  
450.500000	0.075522   
451.000000	0.233689   
451.500000	0.187318   
452.000000	0.135727   
452.500000	0.161196   
453.000000	0.223765   
453.500000	0.352340   
454.000000	0.467454   
454.500000	0.354136   
455.000000	0.236924   
455.500000	0.269530   
456.000000	0.507916   
456.500000	0.585704   
457.000000	0.385765   
457.500000	0.085969   
458.000000	0.020371   
458.500000	0.145734   
459.000000	0.270742   
459.500000	0.273537   
460.000000	0.213628   
460.500000	0.118803   
461.000000	0.109022   
461.500000	0.175916   
462.000000	0.365719   
462.500000	0.496651   
463.000000	0.506318   
463.500000	0.343780   
464.000000	0.038219   
464.500000	-0.119325  
465.000000	-0.057424  
465.500000	0.197037   
466.000000	0.258765   
466.500000	0.285818   
467.000000	0.349204   
467.500000	0.484454   
468.000000	0.434848   
468.500000	0.242939   
469.000000	0.087568   
469.500000	-0.090136  
470.000000	-0.226030  
470.500000	-0.199219  
471.000000	0.087734   
471.500000	0.241931   
472.000000	0.183060   
472.500000	-0.004454  
473.000000	0.049856   
473.500000	0.154765   
474.000000	0.267545   
474.500000	0.145477   
475.000000	0.136530   
475.500000	0.142863   
476.000000	0.236969   
476.500000	0.108977   
477.000000	-0.033886  
477.500000	-0.054598  
478.000000	0.070106   
478.500000	0.090787   
479.000000	0.040727   
479.500000	0.082643   
480.000000	0.041257   
480.500000	0.018007   
481.000000	0.029901   
481.500000	0.188954   
482.000000	0.254840   
482.500000	0.314386   
483.000000	0.317977   
483.500000	0.421727   
484.000000	0.398590   
484.500000	0.254121   
485.000000	0.152598   
485.500000	0.194848   
486.000000	0.352181   
486.500000	0.428325   
487.000000	0.392060   
487.500000	0.319204   
488.000000	0.317159   
488.500000	0.235742   
489.000000	0.165651   
489.500000	0.164909   
490.000000	0.209954   
490.500000	0.244606   
491.000000	0.238333   
491.500000	0.245500   
492.000000	0.281553   
492.500000	0.267189   
493.000000	0.183659   
493.500000	0.107893   
494.000000	0.163598   
494.500000	0.227939   
495.000000	0.320030   
495.500000	0.305765   
496.000000	0.318386   
496.500000	0.308257   
497.000000	0.395507   
497.500000	0.525924   
498.000000	0.689651   
498.500000	0.775833   
499.000000	0.625833   
499.500000	0.446469   
500.000000	0.370219   
500.500000	0.534515   
501.000000	0.588113   
501.500000	0.464265   
502.000000	0.234492   
502.500000	0.213863   
503.000000	0.358681   
503.500000	0.608613   
504.000000	0.807681   
504.500000	0.827560   
505.000000	0.736560   
505.500000	0.640909   
506.000000	0.621287   
506.500000	0.631674   
507.000000	0.776325   
507.500000	0.974015   
508.000000	1.075901   
508.500000	1.028780   
509.000000	0.983666   
509.500000	1.040212   
510.000000	1.061250   
510.500000	0.965090   
511.000000	0.916454   
511.500000	1.059545   
512.000000	1.286734   
512.500000	1.367795   
513.000000	1.296560   
513.500000	1.255181   
514.000000	1.436159   
514.500000	1.564446   
515.000000	1.619878   
515.500000	1.608704   
516.000000	1.749174   
516.500000	1.837257   
517.000000	1.801409   
517.500000	1.624643   
518.000000	1.663318   
518.500000	1.751636   
519.000000	1.849742   
519.500000	1.833840   
520.000000	1.908462   
520.500000	2.105840   
521.000000	2.421787   
521.500000	2.599393   
522.000000	2.522295   
522.500000	2.173727   
523.000000	1.925878   
523.500000	2.105280   
524.000000	2.353863   
524.500000	2.610893   
525.000000	2.712795   
525.500000	2.939045   
526.000000	3.064924   
526.500000	3.264113   
527.000000	3.279015   
527.500000	3.441280   
528.000000	3.542007   
528.500000	3.886060   
529.000000	4.079439   
529.500000	4.075931   
530.000000	3.975992   
530.500000	4.233916   
531.000000	4.842181   
531.500000	5.394083   
532.000000	5.581257   
532.500000	5.464939   
533.000000	5.393098   
533.500000	5.647931   
534.000000	6.118522   
534.500000	6.377636   
535.000000	6.322280   
535.500000	6.273507   
536.000000	6.562772   
536.500000	7.185060   
537.000000	7.789386   
537.500000	8.137568   
538.000000	8.218030   
538.500000	8.146984   
539.000000	8.207560   
539.500000	8.665257   
540.000000	9.474719   
540.500000	10.436053  
541.000000	11.033795  
541.500000	11.167090  
542.000000	11.104022  
542.500000	11.075977  
543.000000	11.144772  
543.500000	11.317515  
544.000000	11.564348  
544.500000	11.576522  
545.000000	11.365560  
545.500000	11.292250  
546.000000	11.781545  
546.500000	12.767090  
547.000000	13.397598  
547.500000	13.455840  
548.000000	12.991818  
548.500000	12.455636  
549.000000	12.005462  
549.500000	11.866106  
550.000000	11.870878  
550.500000	11.980348  
551.000000	11.864174  
551.500000	12.101659  
552.000000	13.167204  
552.500000	14.117886  
553.000000	14.114613  
553.500000	13.455984  
554.000000	13.146848  
554.500000	13.320871  
555.000000	13.484727  
555.500000	13.457090  
556.000000	13.645643  
556.500000	13.893045  
557.000000	14.297037  
557.500000	14.873507  
558.000000	15.349946  
558.500000	15.283719  
559.000000	15.031818  
559.500000	14.879636  
560.000000	15.108068  
560.500000	15.602386  
561.000000	16.333598  
561.500000	16.981166  
562.000000	17.203939  
562.500000	17.383219  
563.000000	17.614204  
563.500000	18.021568  
564.000000	18.294553  
564.500000	19.036204  
565.000000	20.030992  
565.500000	20.833856  
566.000000	21.029696  
566.500000	21.353719  
567.000000	21.932151  
567.500000	22.380719  
568.000000	22.619159  
568.500000	23.092780  
569.000000	24.113416  
569.500000	24.861189  
570.000000	25.314371  
570.500000	25.569628  
571.000000	26.054537  
571.500000	26.357113  
572.000000	27.376901  
572.500000	28.760500  
573.000000	30.043371  
573.500000	30.441477  
574.000000	30.907636  
574.500000	31.695530  
575.000000	32.350909  
575.500000	32.476765  
576.000000	32.627257  
576.500000	33.067742  
577.000000	33.580318  
577.500000	34.161280  
578.000000	34.900159  
578.500000	35.774681  
579.000000	36.323446  
579.500000	36.884189  
580.000000	37.438219  
580.500000	38.029446  
581.000000	38.488628  
581.500000	39.077166  
582.000000	39.751818  
582.500000	40.947128  
583.000000	42.412022  
583.500000	43.602803  
584.000000	43.896106  
584.500000	43.728287  
585.000000	43.887780  
585.500000	44.870931  
586.000000	46.159833  
586.500000	47.728348  
587.000000	48.996666  
587.500000	50.200189  
588.000000	50.862515  
588.500000	52.531151  
589.000000	54.567689  
589.500000	56.782545  
590.000000	57.440143  
590.500000	57.434113  
591.000000	57.299181  
591.500000	58.681136  
592.000000	60.811583  
592.500000	63.154424  
593.000000	64.514931  
593.500000	65.342901  
594.000000	66.742219  
594.500000	68.749636  
595.000000	70.137242  
595.500000	71.092962  
596.000000	72.525931  
596.500000	74.885454  
597.000000	76.366689  
597.500000	76.765363  
598.000000	76.791386  
598.500000	79.043219  
599.000000	82.261075  
599.500000	85.383939  
600.000000	86.267287  
600.500000	87.020878  
601.000000	88.045787  
601.500000	90.231409  
602.000000	91.686500  
602.500000	93.397795  
603.000000	94.947295  
603.500000	97.202954  
604.000000	98.751159  
604.500000	100.135530 
605.000000	101.236484 
605.500000	103.110583 
606.000000	105.031878 
606.500000	107.583015 
607.000000	110.206340 
607.500000	113.321742 
608.000000	115.915340 
608.500000	118.238742 
609.000000	119.857280 
609.500000	121.610757 
610.000000	123.358045 
610.500000	126.251015 
611.000000	129.403333 
611.500000	132.499257 
612.000000	135.430856 
612.500000	137.970537 
613.000000	140.328500 
613.500000	143.035196 
614.000000	146.846409 
614.500000	150.737371 
615.000000	153.776734 
615.500000	155.306590 
616.000000	156.816901 
616.500000	158.729356 
617.000000	161.700068 
617.500000	165.109500 
618.000000	169.100196 
618.500000	172.556628 
619.000000	175.664848 
619.500000	177.425257 
620.000000	180.349265 
620.500000	185.076969 
621.000000	191.380136 
621.500000	196.720507 
622.000000	200.999068 
622.500000	204.594871 
623.000000	207.865522 
623.500000	210.612075 
624.000000	212.509780 
624.500000	215.006174 
625.000000	218.553893 
625.500000	223.339143 
626.000000	228.783992 
626.500000	233.811825 
627.000000	238.332272 
627.500000	242.091515 
628.000000	244.640409 
628.500000	247.710659 
629.000000	252.539712 
629.500000	258.727954 
630.000000	262.844090 
630.500000	265.911174 
631.000000	268.721780 
631.500000	273.705409 
632.000000	278.610151 
632.500000	282.791621 
633.000000	285.213840 
633.500000	288.302098 
634.000000	292.298636 
634.500000	296.781568 
635.000000	300.217280 
635.500000	303.971295 
636.000000	308.898242 
636.500000	315.580522 
637.000000	320.646477 
637.500000	325.629734 
638.000000	329.755068 
638.500000	334.554196 
639.000000	336.499916 
639.500000	337.433371 
640.000000	337.402030 
640.500000	342.734393 
641.000000	350.178106 
641.500000	356.858030 
642.000000	358.948628 
642.500000	360.127242 
643.000000	361.501795 
643.500000	363.480037 
644.000000	365.336924 
644.500000	368.992742 
645.000000	373.388553 
645.500000	376.224522 
646.000000	377.269651 
646.500000	378.831166 
647.000000	383.355583 
647.500000	388.147098 
648.000000	391.706749 
648.500000	391.570484 
649.000000	390.809553 
649.500000	389.466750 
650.000000	390.929219 
650.500000	392.270545 
651.000000	394.296659 
651.500000	394.952045 
652.000000	395.460901 
652.500000	395.149553 
653.000000	394.754553 
653.500000	394.937856 
654.000000	396.463742 
654.500000	396.632545 
655.000000	395.482628 
655.500000	394.143287 
656.000000	394.742212 
656.500000	394.753196 
657.000000	394.465977 
657.500000	393.222333 
658.000000	392.170083 
658.500000	389.821659 
659.000000	386.779613 
659.500000	384.661984 
660.000000	383.342553 
660.500000	383.285303 
661.000000	382.110674 
661.500000	379.661583 
662.000000	375.357825 
662.500000	371.337871 
663.000000	368.079825 
663.500000	365.801166 
664.000000	363.115295 
664.500000	360.743712 
665.000000	359.144636 
665.500000	356.313977 
666.000000	350.320249 
666.500000	343.789606 
667.000000	340.472318 
667.500000	339.449681 
668.000000	337.739507 
668.500000	332.977250 
669.000000	328.330553 
669.500000	323.114340 
670.000000	318.019454 
670.500000	312.282780 
671.000000	307.472606 
671.500000	302.176128 
672.000000	296.274424 
672.500000	291.369159 
673.000000	286.257909 
673.500000	281.693803 
674.000000	274.321431 
674.500000	267.443106 
675.000000	260.952462 
675.500000	256.577098 
676.000000	251.839803 
676.500000	246.717446 
677.000000	240.714189 
677.500000	234.582128 
678.000000	228.918121 
678.500000	223.403030 
679.000000	217.678810 
679.500000	211.851946 
680.000000	206.418371 
680.500000	203.505590 
681.000000	200.279606 
681.500000	196.385833 
682.000000	189.525022 
682.500000	183.423371 
683.000000	177.728340 
683.500000	172.921833 
684.000000	167.679000 
684.500000	162.363492 
685.000000	157.283734 
685.500000	152.566151 
686.000000	148.654219 
686.500000	144.556825 
687.000000	140.319530 
687.500000	135.855613 
688.000000	131.702204 
688.500000	127.962696 
689.000000	124.629515 
689.500000	121.700757 
690.000000	117.893393 
690.500000	113.717704 
691.000000	110.261477 
691.500000	107.523833 
692.000000	105.054689 
692.500000	101.579840 
693.000000	98.069893  
693.500000	94.231083  
694.000000	91.219742  
694.500000	88.459643  
695.000000	86.150977  
695.500000	83.560348  
696.000000	81.551401  
696.500000	79.530878  
697.000000	77.164939  
697.500000	74.457742  
698.000000	71.618893  
698.500000	68.891727  
699.000000	66.482500  
699.500000	64.606492  
700.000000	63.139401  
700.500000	61.741310  
701.000000	59.964575  
701.500000	57.891871  
702.000000	55.712310  
702.500000	54.023681  
703.000000	52.745742  
703.500000	51.248666  
704.000000	49.563727  
704.500000	48.038318  
705.000000	47.341636  
705.500000	46.600537  
706.000000	45.816287  
706.500000	43.971325  
707.000000	42.184765  
707.500000	40.447787  
708.000000	39.511803  
708.500000	38.607310  
709.000000	37.976803  
709.500000	37.099659  
710.000000	35.871522  
710.500000	34.276765  
711.000000	32.941363  
711.500000	32.222606  
712.000000	31.807886  
712.500000	31.577810  
713.000000	31.102121  
713.500000	30.427166  
714.000000	29.682250  
714.500000	28.739931  
715.000000	28.033704  
715.500000	27.387257  
716.000000	26.775939  
716.500000	25.732136  
717.000000	24.722553  
717.500000	24.052916  
718.000000	23.934151  
718.500000	23.677666  
719.000000	23.074636  
719.500000	22.397704  
720.000000	21.491477  
720.500000	20.643689  
721.000000	19.946666  
721.500000	19.769401  
722.000000	19.658939  
722.500000	19.199484  
723.000000	18.355424  
723.500000	17.736484  
724.000000	17.663189  
724.500000	17.375530  
725.000000	16.931742  
725.500000	16.616704  
726.000000	16.806757  
726.500000	16.876053  
727.000000	16.589848  
727.500000	15.875901  
728.000000	15.124696  
728.500000	14.652962  
729.000000	14.400030  
729.500000	14.195621  
730.000000	13.412613  
730.500000	12.944287  
731.000000	13.106280  
731.500000	13.552303  
732.000000	13.298886  
732.500000	12.589666  
733.000000	11.913227  
733.500000	11.462530  
734.000000	11.038439  
734.500000	10.593946  
735.000000	10.673712  
735.500000	11.021704  
736.000000	11.376113  
736.500000	11.113515  
737.000000	10.491598  
737.500000	10.113750  
738.000000	10.057863  
738.500000	9.900310   
739.000000	9.462204   
739.500000	9.178954   
740.000000	9.143878   
740.500000	9.595909   
741.000000	9.677765   
741.500000	9.374522   
742.000000	8.630833   
742.500000	8.070666   
743.000000	7.818719   
743.500000	7.841045   
744.000000	7.733939   
744.500000	7.629999   
745.000000	7.648045   
745.500000	7.739803   
746.000000	7.895810   
746.500000	7.736689   
747.000000	7.669007   
747.500000	7.675810   
748.000000	7.702681   
748.500000	7.467818   
749.000000	7.214409   
749.500000	6.873878   
750.000000	6.583757   
750.500000	6.527606   
751.000000	6.786893   
751.500000	7.202136   
752.000000	7.104393   
752.500000	6.838833   
753.000000	6.651484   
753.500000	6.768431   
754.000000	6.652439   
754.500000	6.260939   
755.000000	5.900166   
755.500000	5.817863   
756.000000	5.837674   
756.500000	5.685272   
757.000000	5.530553   
757.500000	5.431651   
758.000000	5.671212   
758.500000	5.800143   
759.000000	5.793446   
759.500000	5.485613   
760.000000	5.478621   
760.500000	5.453712   
761.000000	5.345303   
761.500000	4.851704   
762.000000	4.682931   
762.500000	4.802121   
763.000000	5.114204   
763.500000	5.231681   
764.000000	5.159378   
764.500000	5.003030   
765.000000	4.781734   
765.500000	4.657333   
766.000000	4.523386   
766.500000	4.729340   
767.000000	4.907712   
767.500000	4.871174   
768.000000	4.405545   
768.500000	4.063772   
769.000000	4.090462   
769.500000	4.280272   
770.000000	4.365340   
770.500000	4.203212   
771.000000	4.096212   
771.500000	4.007083   
772.000000	3.895348   
772.500000	3.618113   
773.000000	3.393946   
773.500000	3.452227   
774.000000	3.685606   
774.500000	3.731772   
775.000000	3.619840   
775.500000	3.500356   
776.000000	3.551500   
776.500000	3.575128   
777.000000	3.676780   
777.500000	3.617174   
778.000000	3.535106   
778.500000	3.326689   
779.000000	3.231045   
779.500000	3.239477   
780.000000	3.276901   
780.500000	3.332068   
781.000000	3.405189   
781.500000	3.483015   
782.000000	3.398401   
782.500000	3.336803   
783.000000	3.287992   
783.500000	3.398159   
784.000000	3.386098   
784.500000	3.323628   
785.000000	3.237659   
785.500000	3.194848   
786.000000	3.109000   
786.500000	2.916303   
787.000000	2.782696   
787.500000	2.756257   
788.000000	2.761287   
788.500000	2.644128   
789.000000	2.599128   
789.500000	2.769484   
790.000000	2.923431   
790.500000	2.906272   
791.000000	2.844083   
791.500000	3.071492   
792.000000	3.238727   
792.500000	3.218386   
793.000000	2.971166   
793.500000	2.880250   
794.000000	2.934734   
794.500000	3.080325   
795.000000	3.068204   
795.500000	2.924386   
796.000000	2.781977   
796.500000	2.712530   
797.000000	2.733704   
797.500000	2.652219   
798.000000	2.526863   
798.500000	2.427818   
799.000000	2.456287   
799.500000	2.509348   
800.000000	2.544469   
800.500000	2.454560   
801.000000	2.302522   
801.500000	2.189159   
802.000000	2.193045   
802.500000	2.220318   
803.000000	2.322348   
803.500000	2.324098   
804.000000	2.344424   
804.500000	2.394424   
805.000000	2.487446   
805.500000	2.425477   
806.000000	2.161083   
806.500000	1.945606   
807.000000	1.924136   
807.500000	2.154719   
808.000000	2.316219   
808.500000	2.240189   
809.000000	1.954621   
809.500000	1.626090   
810.000000	1.469689   
810.500000	1.692068   
811.000000	2.040439   
811.500000	2.097931   
812.000000	1.801757   
812.500000	1.546590   
813.000000	1.575848   
813.500000	1.793840   
814.000000	1.823386   
814.500000	1.877401   
815.000000	1.915378   
815.500000	1.934363   
816.000000	1.802212   
816.500000	1.628204   
817.000000	1.408204   
817.500000	1.389250   
818.000000	1.467303   
818.500000	1.625969   
819.000000	1.663280   
819.500000	1.711583   
820.000000	1.757651   
820.500000	2.007363   
821.000000	2.149643   
821.500000	2.239848   
822.000000	2.102113   
822.500000	2.163636   
823.000000	2.305712   
823.500000	2.502439   
824.000000	2.507818   
824.500000	2.433825   
825.000000	2.381424   
825.500000	2.450575   
826.000000	2.586492   
826.500000	2.593598   
827.000000	2.356962   
827.500000	1.953924   
828.000000	1.641962   
828.500000	1.673969   
829.000000	1.810181   
829.500000	1.888780   
830.000000	1.744272   
830.500000	1.629590   
831.000000	1.447378   
831.500000	1.275598   
832.000000	1.130212   
832.500000	1.143090   
833.000000	1.124628   
833.500000	1.085750   
834.000000	1.074666   
834.500000	1.171151   
835.000000	1.182787   
835.500000	1.105765   
836.000000	0.942431   
836.500000	0.891704   
837.000000	0.910992   
837.500000	0.993409   
838.000000	0.925818   
838.500000	0.858810   
839.000000	0.881901   
839.500000	0.999560   
840.000000	0.998007   
840.500000	0.834924   
841.000000	0.678007   
841.500000	0.662840   
842.000000	0.783106   
842.500000	0.905636   
843.000000	0.962787   
843.500000	0.975378   
844.000000	0.921719   
844.500000	0.954704   
845.000000	0.752287   
845.500000	0.443477   
846.000000	0.154689   
846.500000	0.289189   
847.000000	0.544371   
847.500000	0.692325   
848.000000	0.567583   
848.500000	0.403287   
849.000000	0.278772   
849.500000	0.223803   
850.000000	0.257242   
850.500000	0.147780   
851.000000	-0.062189  
851.500000	-0.159068  
852.000000	-0.006121  
852.500000	0.182340   
853.000000	0.281666   
853.500000	0.337727   
854.000000	0.421825   
854.500000	0.343977   
855.000000	0.252037   
855.500000	0.226984   
856.000000	0.304356   
856.500000	0.229681   
857.000000	0.114113   
857.500000	0.000166   
858.000000	0.093803   
858.500000	0.177113   
859.000000	0.231106   
859.500000	0.169674   
860.000000	0.146674   
860.500000	0.142734   
861.000000	0.124151   
861.500000	0.039325   
862.000000	0.049492   
862.500000	0.162795   
863.000000	0.257015   
863.500000	0.171636   
864.000000	-0.046674  
864.500000	-0.088803  
865.000000	0.029901   
865.500000	0.174462   
866.000000	0.073454   
866.500000	0.008878   
867.000000	0.003272   
867.500000	0.132431   
868.000000	-0.012234  
868.500000	-0.124166  
869.000000	-0.152522  
869.500000	0.094719   
870.000000	0.200742   
870.500000	0.172106   
871.000000	0.054515   
871.500000	0.004689   
872.000000	-0.037446  
872.500000	-0.100848  
873.000000	-0.030424  
873.500000	0.101643   
874.000000	0.190825   
874.500000	0.095492   
875.000000	-0.002257  
875.500000	-0.081780  
876.000000	-0.102196  
876.500000	-0.131462  
877.000000	-0.126287  
877.500000	-0.082272  
878.000000	-0.038121  
878.500000	-0.041886  
879.000000	-0.044500  
879.500000	-0.046219  
880.000000	-0.012856  
880.500000	0.034212   
881.000000	0.026992   
881.500000	-0.032303  
882.000000	-0.100159  
882.500000	-0.094272  
883.000000	-0.040280  
883.500000	-0.010681  
884.000000	-0.060621  
884.500000	-0.096507  
885.000000	-0.083196  
885.500000	-0.016666  
886.000000	0.013037   
886.500000	0.000893   
887.000000	-0.018272  
887.500000	-0.015424  
888.000000	0.073863   
888.500000	0.156500   
889.000000	0.254196   
889.500000	0.252287   
890.000000	0.205151   
890.500000	0.084742   
891.000000	0.009924   
891.500000	-0.040053  
892.000000	-0.012068  
892.500000	-0.047234  
893.000000	-0.114909  
893.500000	-0.169166  
894.000000	-0.058439  
894.500000	0.026689   
895.000000	0.024893   
895.500000	-0.139545  
896.000000	-0.206371  
896.500000	-0.168568  
897.000000	-0.084719  
897.500000	-0.100621  

