PE FL                   SPECTRUM    ASCII       PEDS        1.60        
  -1
SAAB91~1.SP
24/04/12
17:14:45.00
24/04/12
17:14:45.00
Jan

897.500000
1









LS55
405.00
5.00
5.00
SCAN
1
20
100
100
0
400
0
1
0
1
5
ON
450 405 
1 0 0
#HDR
-1
-1
#GR
NM

0.00002384185791015625
0.0
450.000000
0.500000
896
8
199.480045
-0.442954
#DATA
450.000000	-0.001000  
450.500000	0.012590   
451.000000	0.027522   
451.500000	0.038803   
452.000000	0.101439   
452.500000	0.167659   
453.000000	0.201234   
453.500000	0.056560   
454.000000	-0.010871  
454.500000	-0.005196  
455.000000	0.190287   
455.500000	0.181000   
456.000000	0.137143   
456.500000	0.030439   
457.000000	0.121893   
457.500000	0.163969   
458.000000	0.177545   
458.500000	0.156189   
459.000000	0.252537   
459.500000	0.403871   
460.000000	0.437893   
460.500000	0.390757   
461.000000	0.401719   
461.500000	0.458954   
462.000000	0.312090   
462.500000	0.031136   
463.000000	-0.158022  
463.500000	-0.084143  
464.000000	-0.046507  
464.500000	-0.171424  
465.000000	-0.258469  
465.500000	-0.193212  
466.000000	-0.142750  
466.500000	-0.105446  
467.000000	-0.058393  
467.500000	-0.053409  
468.000000	-0.177401  
468.500000	-0.347045  
469.000000	-0.442954  
469.500000	-0.352030  
470.000000	-0.257431  
470.500000	-0.269484  
471.000000	-0.312181  
471.500000	-0.270636  
472.000000	-0.041348  
472.500000	0.105772   
473.000000	0.102916   
473.500000	0.044204   
474.000000	0.063537   
474.500000	0.050227   
475.000000	0.016106   
475.500000	0.046121   
476.000000	0.095386   
476.500000	0.084886   
477.000000	0.007219   
477.500000	0.038477   
478.000000	0.212750   
478.500000	0.356030   
479.000000	0.297530   
479.500000	0.092742   
480.000000	-0.150325  
480.500000	-0.277439  
481.000000	-0.271348  
481.500000	0.032499   
482.000000	0.287515   
482.500000	0.375909   
483.000000	0.230803   
483.500000	0.121393   
484.000000	0.048257   
484.500000	0.037545   
485.000000	-0.028204  
485.500000	0.052734   
486.000000	0.233469   
486.500000	0.418295   
487.000000	0.387810   
487.500000	0.232833   
488.000000	0.154181   
488.500000	0.173454   
489.000000	0.110424   
489.500000	0.020022   
490.000000	0.045780   
490.500000	0.120000   
491.000000	0.196962   
491.500000	0.174833   
492.000000	0.202356   
492.500000	0.185916   
493.000000	0.213696   
493.500000	0.236295   
494.000000	0.290325   
494.500000	0.198159   
495.000000	0.131962   
495.500000	0.056901   
496.000000	0.133053   
496.500000	0.133606   
497.000000	0.210401   
497.500000	0.221378   
498.000000	0.349022   
498.500000	0.262734   
499.000000	0.176113   
499.500000	0.123075   
500.000000	0.274530   
500.500000	0.450916   
501.000000	0.586401   
501.500000	0.710742   
502.000000	0.740499   
502.500000	0.767643   
503.000000	0.685810   
503.500000	0.732545   
504.000000	0.741083   
504.500000	0.801848   
505.000000	0.812780   
505.500000	0.841257   
506.000000	0.760295   
506.500000	0.591689   
507.000000	0.603015   
507.500000	0.794666   
508.000000	1.019810   
508.500000	1.061583   
509.000000	1.134962   
509.500000	1.161371   
510.000000	1.148030   
510.500000	0.954651   
511.000000	0.857765   
511.500000	1.064356   
512.000000	1.432318   
512.500000	1.649303   
513.000000	1.594818   
513.500000	1.415098   
514.000000	1.341265   
514.500000	1.438439   
515.000000	1.586257   
515.500000	1.626590   
516.000000	1.612227   
516.500000	1.539469   
517.000000	1.545227   
517.500000	1.618787   
518.000000	1.820780   
518.500000	2.214363   
519.000000	2.665234   
519.500000	2.961939   
520.000000	2.907901   
520.500000	2.849015   
521.000000	2.669318   
521.500000	2.684333   
522.000000	2.706280   
522.500000	2.888469   
523.000000	2.908500   
523.500000	2.910015   
524.000000	2.857696   
524.500000	2.947166   
525.000000	3.139310   
525.500000	3.426651   
526.000000	3.632568   
526.500000	3.773371   
527.000000	3.859946   
527.500000	3.985015   
528.000000	4.045000   
528.500000	4.137068   
529.000000	4.383651   
529.500000	4.703287   
530.000000	4.972242   
530.500000	5.230909   
531.000000	5.745333   
531.500000	6.104295   
532.000000	6.353022   
532.500000	6.348242   
533.000000	6.530340   
533.500000	6.683962   
534.000000	6.989757   
534.500000	7.398000   
535.000000	7.992924   
535.500000	8.419348   
536.000000	8.640734   
536.500000	8.657553   
537.000000	8.909689   
537.500000	9.507999   
538.000000	10.076500  
538.500000	10.143984  
539.000000	9.901409   
539.500000	10.015401  
540.000000	10.584242  
540.500000	11.188121  
541.000000	11.583401  
541.500000	11.939500  
542.000000	12.143492  
542.500000	12.082568  
543.000000	11.857424  
543.500000	11.755469  
544.000000	11.727060  
544.500000	11.894363  
545.000000	12.264704  
545.500000	12.502340  
546.000000	12.334469  
546.500000	11.824765  
547.000000	11.408742  
547.500000	11.146075  
548.000000	11.299280  
548.500000	11.630325  
549.000000	12.385606  
549.500000	12.567060  
550.000000	12.247621  
550.500000	11.388090  
551.000000	11.097060  
551.500000	11.314393  
552.000000	11.832795  
552.500000	11.914431  
553.000000	11.844439  
553.500000	11.901689  
554.000000	12.131234  
554.500000	12.561022  
555.000000	13.286098  
555.500000	14.054840  
556.000000	14.194196  
556.500000	13.704371  
557.000000	13.388628  
557.500000	13.631522  
558.000000	14.522689  
558.500000	15.224090  
559.000000	15.698219  
559.500000	15.615666  
560.000000	15.572780  
560.500000	15.732545  
561.000000	16.156613  
561.500000	16.301409  
562.000000	16.639325  
562.500000	17.355393  
563.000000	18.221378  
563.500000	18.775083  
564.000000	19.262196  
564.500000	19.937492  
565.000000	20.872810  
565.500000	21.218833  
566.000000	21.207651  
566.500000	21.058575  
567.000000	20.903257  
567.500000	20.890409  
568.000000	21.244848  
568.500000	22.109212  
569.000000	23.095909  
569.500000	23.921984  
570.000000	24.204787  
570.500000	24.401409  
571.000000	24.164409  
571.500000	23.910265  
572.000000	24.033280  
572.500000	24.812424  
573.000000	25.842113  
573.500000	26.620939  
574.000000	27.164143  
574.500000	27.637439  
575.000000	28.189393  
575.500000	28.530522  
576.000000	29.228083  
576.500000	29.942333  
577.000000	30.338386  
577.500000	30.019643  
578.000000	29.916416  
578.500000	30.732931  
579.000000	32.217704  
579.500000	33.480000  
580.000000	34.120515  
580.500000	34.788393  
581.000000	35.642106  
581.500000	36.701015  
582.000000	37.240030  
582.500000	37.273181  
583.000000	37.425803  
583.500000	38.085833  
584.000000	39.301053  
584.500000	40.084696  
585.000000	40.305742  
585.500000	40.328621  
586.000000	40.983545  
586.500000	41.783969  
587.000000	42.259287  
587.500000	42.754598  
588.000000	43.741219  
588.500000	45.884825  
589.000000	47.669530  
589.500000	48.772143  
590.000000	48.779234  
590.500000	49.173151  
591.000000	49.954219  
591.500000	51.224628  
592.000000	51.814204  
592.500000	52.481969  
593.000000	53.812712  
593.500000	55.685469  
594.000000	56.852909  
594.500000	57.064159  
595.000000	57.226083  
595.500000	57.965750  
596.000000	59.502174  
596.500000	60.626712  
597.000000	61.950159  
597.500000	62.757757  
598.000000	64.046553  
598.500000	64.996916  
599.000000	66.404909  
599.500000	67.203492  
600.000000	68.640939  
600.500000	69.705492  
601.000000	71.331143  
601.500000	72.451462  
602.000000	73.444954  
602.500000	74.632015  
603.000000	76.259643  
603.500000	77.608621  
604.000000	78.342075  
604.500000	79.473333  
605.000000	81.425977  
605.500000	83.948719  
606.000000	85.518356  
606.500000	86.828931  
607.000000	88.492871  
607.500000	90.072545  
608.000000	91.258590  
608.500000	92.389598  
609.000000	93.945340  
609.500000	95.265196  
610.000000	96.354265  
610.500000	97.959613  
611.000000	100.385310 
611.500000	102.894848 
612.000000	105.009825 
612.500000	106.325825 
613.000000	107.533507 
613.500000	108.738075 
614.000000	110.845901 
614.500000	112.264984 
615.000000	113.414984 
615.500000	114.557992 
616.000000	116.878909 
616.500000	118.402371 
617.000000	119.063553 
617.500000	120.380136 
618.000000	123.037643 
618.500000	125.643909 
619.000000	126.911250 
619.500000	128.186553 
620.000000	131.222204 
620.500000	135.085287 
621.000000	137.821833 
621.500000	138.873000 
622.000000	139.306424 
622.500000	141.166106 
623.000000	143.632340 
623.500000	146.188969 
624.000000	147.434878 
624.500000	149.235992 
625.000000	151.978462 
625.500000	155.648166 
626.000000	157.538893 
626.500000	157.973204 
627.000000	159.034893 
627.500000	161.403757 
628.000000	164.668272 
628.500000	167.309840 
629.000000	169.337901 
629.500000	170.767984 
630.000000	171.277333 
630.500000	172.474780 
631.000000	174.201825 
631.500000	176.203621 
632.000000	177.666318 
632.500000	179.495969 
633.000000	181.470287 
633.500000	183.384962 
634.000000	184.673242 
634.500000	186.580060 
635.000000	188.267250 
635.500000	188.839265 
636.000000	188.337848 
636.500000	189.303515 
637.000000	191.240939 
637.500000	193.140643 
638.000000	193.370212 
638.500000	193.861878 
639.000000	195.780424 
639.500000	198.118477 
640.000000	199.480045 
640.500000	198.632833 
641.000000	197.606590 
641.500000	196.761363 
642.000000	197.409045 
642.500000	196.393250 
643.000000	195.845371 
643.500000	195.681234 
644.000000	197.846704 
644.500000	198.784068 
645.000000	199.210583 
645.500000	198.376015 
646.000000	198.472628 
646.500000	197.765886 
647.000000	197.396000 
647.500000	196.873613 
648.000000	197.012446 
648.500000	195.765810 
649.000000	194.036037 
649.500000	192.128568 
650.000000	192.402310 
650.500000	193.626287 
651.000000	194.212212 
651.500000	192.259083 
652.000000	189.000537 
652.500000	187.070977 
653.000000	186.584628 
653.500000	185.841545 
654.000000	183.282189 
654.500000	180.789939 
655.000000	179.147992 
655.500000	177.609666 
656.000000	174.160575 
656.500000	170.409431 
657.000000	168.097000 
657.500000	166.624818 
658.000000	164.745219 
658.500000	162.692856 
659.000000	160.868250 
659.500000	158.851022 
660.000000	156.739409 
660.500000	153.852878 
661.000000	150.225356 
661.500000	145.603742 
662.000000	141.532000 
662.500000	139.049674 
663.000000	137.799681 
663.500000	135.817643 
664.000000	132.362689 
664.500000	128.736719 
665.000000	125.173916 
665.500000	122.612757 
666.000000	119.024121 
666.500000	116.132893 
667.000000	113.664598 
667.500000	111.719431 
668.000000	108.105530 
668.500000	104.600613 
669.000000	101.646424 
669.500000	99.876303  
670.000000	97.875500  
670.500000	95.479878  
671.000000	92.719325  
671.500000	89.857030  
672.000000	86.719098  
672.500000	83.506742  
673.000000	80.424310  
673.500000	77.844537  
674.000000	75.434189  
674.500000	73.402045  
675.000000	71.368636  
675.500000	69.660227  
676.000000	67.960090  
676.500000	66.004545  
677.000000	63.330810  
677.500000	60.755007  
678.000000	58.839969  
678.500000	57.846651  
679.000000	57.139053  
679.500000	55.347053  
680.000000	53.008681  
680.500000	50.576696  
681.000000	49.163962  
681.500000	47.987083  
682.000000	46.507212  
682.500000	44.697272  
683.000000	43.578613  
683.500000	42.877696  
684.000000	42.375409  
684.500000	41.277787  
685.000000	39.727181  
685.500000	37.912469  
686.000000	36.533931  
686.500000	35.438113  
687.000000	34.505227  
687.500000	33.196181  
688.000000	32.213409  
688.500000	31.496303  
689.000000	30.616166  
689.500000	29.523265  
690.000000	28.777590  
690.500000	28.397749  
691.000000	27.694606  
691.500000	26.257340  
692.000000	24.901863  
692.500000	24.184507  
693.000000	23.874037  
693.500000	23.351378  
694.000000	22.728628  
694.500000	22.148712  
695.000000	21.648734  
695.500000	21.051045  
696.000000	20.462075  
696.500000	20.131977  
697.000000	19.758212  
697.500000	19.175977  
698.000000	18.521795  
698.500000	18.076015  
699.000000	17.743431  
699.500000	17.146106  
700.000000	16.456515  
700.500000	16.060742  
701.000000	16.289893  
701.500000	16.512909  
702.000000	16.080810  
702.500000	15.120234  
703.000000	14.537719  
703.500000	14.686931  
704.000000	14.888356  
704.500000	14.519931  
705.000000	13.686560  
705.500000	12.998477  
706.000000	12.484106  
706.500000	11.902371  
707.000000	11.427333  
707.500000	11.240257  
708.000000	11.219098  
708.500000	11.320469  
709.000000	11.309000  
709.500000	11.356454  
710.000000	11.114454  
710.500000	10.846098  
711.000000	10.586643  
711.500000	10.677151  
712.000000	10.540015  
712.500000	10.353045  
713.000000	10.004954  
713.500000	9.470651   
714.000000	8.874522   
714.500000	8.452734   
715.000000	8.438310   
715.500000	8.480727   
716.000000	8.506969   
716.500000	8.648068   
717.000000	9.026515   
717.500000	9.042681   
718.000000	8.700803   
718.500000	8.076954   
719.000000	7.746386   
719.500000	7.566136   
720.000000	7.455083   
720.500000	7.294121   
721.000000	7.254583   
721.500000	7.292371   
722.000000	7.386204   
722.500000	7.342689   
723.000000	7.041969   
723.500000	6.783848   
724.000000	6.471015   
724.500000	6.474045   
725.000000	6.585507   
725.500000	6.689643   
726.000000	6.583340   
726.500000	6.732977   
727.000000	6.848734   
727.500000	6.917000   
728.000000	6.422484   
728.500000	5.980757   
729.000000	5.555515   
729.500000	5.510007   
730.000000	5.585484   
730.500000	6.038325   
731.000000	6.224530   
731.500000	5.986310   
732.000000	5.322704   
732.500000	5.058439   
733.000000	5.243712   
733.500000	5.531689   
734.000000	5.507962   
734.500000	5.274931   
735.000000	4.924590   
735.500000	4.776015   
736.000000	4.765833   
736.500000	4.990772   
737.000000	5.117477   
737.500000	5.176575   
738.000000	5.040886   
738.500000	4.796598   
739.000000	4.471287   
739.500000	4.453643   
740.000000	4.614621   
740.500000	4.723401   
741.000000	4.909424   
741.500000	5.107856   
742.000000	5.247924   
742.500000	5.045901   
743.000000	4.642522   
743.500000	4.261969   
744.000000	4.090939   
744.500000	4.099909   
745.000000	4.216590   
745.500000	4.209848   
746.000000	4.110916   
746.500000	4.127121   
747.000000	4.170757   
747.500000	3.975295   
748.000000	3.760909   
748.500000	3.552393   
749.000000	3.514378   
749.500000	3.477537   
750.000000	3.671765   
750.500000	3.947431   
751.000000	3.988962   
751.500000	3.614348   
752.000000	3.331075   
752.500000	3.340310   
753.000000	3.398901   
753.500000	3.458636   
754.000000	3.464909   
754.500000	3.536795   
755.000000	3.511113   
755.500000	3.503901   
756.000000	3.487590   
756.500000	3.566969   
757.000000	3.668393   
757.500000	3.796090   
758.000000	3.775083   
758.500000	3.671143   
759.000000	3.665992   
759.500000	3.753560   
760.000000	3.684310   
760.500000	3.580772   
761.000000	3.401750   
761.500000	3.411469   
762.000000	3.496037   
762.500000	3.645083   
763.000000	3.576416   
763.500000	3.439378   
764.000000	3.252840   
764.500000	3.140901   
765.000000	2.951643   
765.500000	2.847916   
766.000000	3.003250   
766.500000	3.220530   
767.000000	3.313924   
767.500000	3.478886   
768.000000	3.645946   
768.500000	3.634977   
769.000000	3.342068   
769.500000	3.120386   
770.000000	3.083265   
770.500000	3.159530   
771.000000	3.099651   
771.500000	3.046431   
772.000000	2.963651   
772.500000	3.035856   
773.000000	3.153386   
773.500000	3.234636   
774.000000	3.073893   
774.500000	2.939621   
775.000000	2.871340   
775.500000	2.940257   
776.000000	2.930606   
776.500000	2.895886   
777.000000	2.769227   
777.500000	2.771416   
778.000000	2.747068   
778.500000	2.864992   
779.000000	2.923348   
779.500000	3.009151   
780.000000	2.985030   
780.500000	2.998727   
781.000000	2.963719   
781.500000	3.007696   
782.000000	3.013689   
782.500000	3.052651   
783.000000	3.042636   
783.500000	2.896060   
784.000000	2.639037   
784.500000	2.471530   
785.000000	2.517606   
785.500000	2.640060   
786.000000	2.831075   
786.500000	2.837121   
787.000000	2.753189   
787.500000	2.523931   
788.000000	2.524901   
788.500000	2.609939   
789.000000	2.730613   
789.500000	2.651151   
790.000000	2.646734   
790.500000	2.651250   
791.000000	2.499893   
791.500000	2.192734   
792.000000	2.112310   
792.500000	2.354037   
793.000000	2.517560   
793.500000	2.313833   
794.000000	1.999742   
794.500000	1.896901   
795.000000	1.889977   
795.500000	1.899984   
796.000000	1.930590   
796.500000	2.044477   
797.000000	2.089757   
797.500000	2.031189   
798.000000	1.932431   
798.500000	1.958386   
799.000000	1.977045   
799.500000	1.935287   
800.000000	1.877871   
800.500000	1.861810   
801.000000	1.937045   
801.500000	1.889340   
802.000000	1.874545   
802.500000	1.783522   
803.000000	1.781537   
803.500000	1.733689   
804.000000	1.875272   
804.500000	1.979234   
805.000000	1.974780   
805.500000	1.749621   
806.000000	1.694287   
806.500000	1.827022   
807.000000	2.044901   
807.500000	2.094818   
808.000000	1.975931   
808.500000	1.625007   
809.000000	1.366863   
809.500000	1.338015   
810.000000	1.701719   
810.500000	2.008750   
811.000000	1.973204   
811.500000	1.777113   
812.000000	1.693469   
812.500000	1.735250   
813.000000	1.747704   
813.500000	1.606757   
814.000000	1.459143   
814.500000	1.365765   
815.000000	1.404174   
815.500000	1.377689   
816.000000	1.416348   
816.500000	1.354507   
817.000000	1.405530   
817.500000	1.380818   
818.000000	1.557371   
818.500000	1.801325   
819.000000	1.997075   
819.500000	1.915219   
820.000000	1.761295   
820.500000	1.757863   
821.000000	1.902666   
821.500000	2.036227   
822.000000	2.110931   
822.500000	2.114219   
823.000000	2.172181   
823.500000	2.280909   
824.000000	2.434462   
824.500000	2.560984   
825.000000	2.659424   
825.500000	2.586416   
826.000000	2.250553   
826.500000	1.871871   
827.000000	1.767946   
827.500000	1.960750   
828.000000	2.027469   
828.500000	1.802303   
829.000000	1.543439   
829.500000	1.384325   
830.000000	1.351212   
830.500000	1.267378   
831.000000	1.231757   
831.500000	1.208977   
832.000000	1.246280   
832.500000	1.109340   
833.000000	0.979189   
833.500000	0.891780   
834.000000	1.027113   
834.500000	1.043416   
835.000000	1.026303   
835.500000	0.922446   
836.000000	0.950340   
836.500000	0.937856   
837.000000	0.962030   
837.500000	0.987106   
838.000000	1.025469   
838.500000	0.971909   
839.000000	0.898545   
839.500000	0.909212   
840.000000	0.959431   
840.500000	0.844962   
841.000000	0.677136   
841.500000	0.584053   
842.000000	0.613356   
842.500000	0.555553   
843.000000	0.420106   
843.500000	0.340977   
844.000000	0.436204   
844.500000	0.573166   
845.000000	0.624818   
845.500000	0.607499   
846.000000	0.512621   
846.500000	0.304651   
847.000000	0.122780   
847.500000	0.146984   
848.000000	0.397628   
848.500000	0.561606   
849.000000	0.387568   
849.500000	0.042053   
850.000000	-0.092189  
850.500000	-0.004378  
851.000000	0.125431   
851.500000	0.170265   
852.000000	0.183636   
852.500000	0.182045   
853.000000	0.070553   
853.500000	-0.042446  
854.000000	0.053818   
854.500000	0.308363   
855.000000	0.389848   
855.500000	0.304424   
856.000000	0.172416   
856.500000	0.128750   
857.000000	0.070037   
857.500000	0.061295   
858.000000	0.051090   
858.500000	0.049818   
859.000000	-0.025477  
859.500000	-0.087348  
860.000000	-0.113575  
860.500000	-0.074969  
861.000000	-0.063143  
861.500000	-0.041310  
862.000000	-0.084659  
862.500000	-0.061348  
863.000000	-0.025310  
863.500000	0.061621   
864.000000	0.080212   
864.500000	0.009946   
865.000000	-0.074492  
865.500000	-0.049909  
866.000000	0.088886   
866.500000	0.101840   
867.000000	0.034719   
867.500000	-0.103553  
868.000000	-0.147227  
868.500000	-0.199666  
869.000000	-0.272924  
869.500000	-0.339734  
870.000000	-0.318310  
870.500000	-0.181303  
871.000000	-0.030204  
871.500000	0.043575   
872.000000	0.001924   
872.500000	-0.085143  
873.000000	-0.148431  
873.500000	-0.151000  
874.000000	-0.081295  
874.500000	-0.083068  
875.000000	-0.126068  
875.500000	-0.173295  
876.000000	-0.093295  
876.500000	0.052174   
877.000000	0.174977   
877.500000	0.159280   
878.000000	0.032825   
878.500000	-0.124143  
879.000000	-0.209621  
879.500000	-0.229121  
880.000000	-0.175075  
880.500000	-0.084212  
881.000000	0.014606   
881.500000	0.010651   
882.000000	-0.059090  
882.500000	-0.134280  
883.000000	-0.109439  
883.500000	-0.016030  
884.000000	0.010060   
884.500000	-0.008333  
885.000000	-0.086484  
885.500000	-0.092734  
886.000000	-0.130553  
886.500000	-0.135909  
887.000000	-0.156166  
887.500000	0.015568   
888.000000	0.163159   
888.500000	0.280401   
889.000000	0.217393   
889.500000	0.163818   
890.000000	0.054537   
890.500000	0.050568   
891.000000	0.040227   
891.500000	0.069878   
892.000000	0.026719   
892.500000	-0.079954  
893.000000	-0.161477  
893.500000	-0.181416  
894.000000	-0.109484  
894.500000	0.049878   
895.000000	0.145856   
895.500000	0.100628   
896.000000	-0.020803  
896.500000	-0.056106  
897.000000	-0.054401  
897.500000	-0.000439  

