PE FL                   SPECTRUM    ASCII       PEDS        1.60        
  -1
SAAB8D~1.SP
24/04/12
16:57:38.00
24/04/12
16:57:38.00
Jan

897.500000
1









LS55
405.00
5.00
5.00
SCAN
1
20
100
100
0
400
0
1
0
1
5
ON
450 405 
1 0 0
#HDR
-1
-1
#GR
NM

0.00002384185791015625
0.0
450.000000
0.500000
896
8
219.091795
-0.363999
#DATA
450.000000	0.132000   
450.500000	-0.018560  
451.000000	0.051204   
451.500000	0.270674   
452.000000	0.373795   
452.500000	0.264795   
453.000000	0.128106   
453.500000	0.064424   
454.000000	0.039575   
454.500000	-0.017075  
455.000000	0.022310   
455.500000	0.081068   
456.000000	0.057310   
456.500000	-0.066568  
457.000000	-0.137113  
457.500000	-0.120303  
458.000000	0.094780   
458.500000	0.331613   
459.000000	0.405727   
459.500000	0.110356   
460.000000	-0.270454  
460.500000	-0.256363  
461.000000	0.014393   
461.500000	0.192469   
462.000000	0.012651   
462.500000	-0.107189  
463.000000	-0.096628  
463.500000	0.064113   
464.000000	-0.086840  
464.500000	-0.255015  
465.000000	-0.363999  
465.500000	-0.195560  
466.000000	0.003060   
466.500000	0.118916   
467.000000	0.094681   
467.500000	0.041363   
468.000000	0.040204   
468.500000	0.041583   
469.000000	0.051613   
469.500000	0.023492   
470.000000	0.102492   
470.500000	0.189606   
471.000000	0.232272   
471.500000	0.098484   
472.000000	0.002022   
472.500000	-0.150613  
473.000000	-0.268015  
473.500000	-0.349136  
474.000000	-0.237863  
474.500000	-0.096992  
475.000000	-0.092356  
475.500000	-0.184121  
476.000000	-0.181689  
476.500000	-0.055333  
477.000000	0.053742   
477.500000	0.086765   
478.000000	0.051295   
478.500000	0.056848   
479.000000	0.076196   
479.500000	0.123500   
480.000000	0.202583   
480.500000	0.221719   
481.000000	0.238196   
481.500000	0.214250   
482.000000	0.223416   
482.500000	0.040007   
483.000000	-0.052621  
483.500000	-0.083022  
484.000000	0.181325   
484.500000	0.327325   
485.000000	0.395795   
485.500000	0.300840   
486.000000	0.265053   
486.500000	0.255378   
487.000000	0.268113   
487.500000	0.298128   
488.000000	0.260727   
488.500000	0.147757   
489.000000	0.053522   
489.500000	0.107462   
490.000000	0.272810   
490.500000	0.350318   
491.000000	0.374727   
491.500000	0.341848   
492.000000	0.394477   
492.500000	0.216886   
493.000000	-0.009780  
493.500000	-0.187136  
494.000000	-0.037303  
494.500000	0.239560   
495.000000	0.424371   
495.500000	0.315121   
496.000000	0.114121   
496.500000	0.046204   
497.000000	0.065977   
497.500000	0.138954   
498.000000	0.194689   
498.500000	0.327643   
499.000000	0.397666   
499.500000	0.367916   
500.000000	0.288378   
500.500000	0.353962   
501.000000	0.504053   
501.500000	0.686522   
502.000000	0.650969   
502.500000	0.549454   
503.000000	0.458159   
503.500000	0.540287   
504.000000	0.644666   
504.500000	0.807174   
505.000000	0.778772   
505.500000	0.666787   
506.000000	0.523757   
506.500000	0.689189   
507.000000	0.933969   
507.500000	1.129537   
508.000000	1.084840   
508.500000	1.173818   
509.000000	1.187939   
509.500000	1.101560   
510.000000	0.844530   
510.500000	0.792386   
511.000000	0.919325   
511.500000	1.089045   
512.000000	1.177810   
512.500000	1.379568   
513.000000	1.740446   
513.500000	1.926583   
514.000000	1.880303   
514.500000	1.670568   
515.000000	1.678590   
515.500000	1.659916   
516.000000	1.547462   
516.500000	1.373575   
517.000000	1.513371   
517.500000	1.833795   
518.000000	2.129757   
518.500000	2.132363   
519.000000	2.133325   
519.500000	2.196409   
520.000000	2.348143   
520.500000	2.431750   
521.000000	2.598151   
521.500000	2.659507   
522.000000	2.754643   
522.500000	2.774333   
523.000000	2.906666   
523.500000	2.977386   
524.000000	3.026166   
524.500000	2.989772   
525.000000	2.983848   
525.500000	2.933954   
526.000000	3.075992   
526.500000	3.258666   
527.000000	3.533416   
527.500000	3.553000   
528.000000	3.750121   
528.500000	3.865477   
529.000000	4.211318   
529.500000	4.416946   
530.000000	4.917015   
530.500000	5.338984   
531.000000	5.812446   
531.500000	6.057106   
532.000000	6.196712   
532.500000	6.315007   
533.000000	6.508931   
533.500000	6.881787   
534.000000	7.210477   
534.500000	7.445303   
535.000000	7.533340   
535.500000	7.711651   
536.000000	7.804393   
536.500000	7.997234   
537.000000	8.158939   
537.500000	8.630757   
538.000000	8.996969   
538.500000	9.426446   
539.000000	9.839325   
539.500000	10.483348  
540.000000	10.991704  
540.500000	11.178977  
541.000000	11.106303  
541.500000	11.192954  
542.000000	11.624174  
542.500000	12.128939  
543.000000	12.204318  
543.500000	11.828621  
544.000000	11.532962  
544.500000	11.502204  
545.000000	11.568681  
545.500000	11.711075  
546.000000	11.740431  
546.500000	11.722037  
547.000000	11.889477  
547.500000	12.312522  
548.000000	12.753204  
548.500000	12.394287  
549.000000	11.555621  
549.500000	10.991674  
550.000000	10.992212  
550.500000	11.205128  
551.000000	11.356863  
551.500000	11.370628  
552.000000	11.528522  
552.500000	11.789333  
553.000000	11.830166  
553.500000	11.809924  
554.000000	11.762787  
554.500000	11.959181  
555.000000	11.922848  
555.500000	11.890931  
556.000000	11.944643  
556.500000	12.249977  
557.000000	12.423416  
557.500000	12.865212  
558.000000	13.360863  
558.500000	13.902977  
559.000000	14.300606  
559.500000	14.702446  
560.000000	15.075325  
560.500000	15.317181  
561.000000	15.560022  
561.500000	15.976174  
562.000000	16.537742  
562.500000	17.071984  
563.000000	17.617750  
563.500000	17.768166  
564.000000	17.848590  
564.500000	17.978704  
565.000000	18.763287  
565.500000	19.420477  
566.000000	19.859659  
566.500000	19.772863  
567.000000	19.971931  
567.500000	20.537568  
568.000000	21.637659  
568.500000	22.844257  
569.000000	23.744303  
569.500000	23.961893  
570.000000	23.839575  
570.500000	23.547742  
571.000000	23.462522  
571.500000	23.680356  
572.000000	24.498545  
572.500000	25.471757  
573.000000	25.944507  
573.500000	25.730280  
574.000000	25.625181  
574.500000	25.997287  
575.000000	26.742181  
575.500000	27.499901  
576.000000	27.930030  
576.500000	28.356121  
577.000000	28.888909  
577.500000	29.364325  
578.000000	30.059522  
578.500000	30.757530  
579.000000	31.349916  
579.500000	31.760893  
580.000000	32.009446  
580.500000	32.695007  
581.000000	33.518204  
581.500000	34.074515  
582.000000	34.196893  
582.500000	34.494113  
583.000000	35.257159  
583.500000	36.445560  
584.000000	37.222287  
584.500000	37.548818  
585.000000	38.169333  
585.500000	39.345295  
586.000000	40.891121  
586.500000	42.045636  
587.000000	42.731174  
587.500000	43.109446  
588.000000	43.132939  
588.500000	44.045393  
589.000000	45.560931  
589.500000	47.598848  
590.000000	48.778757  
590.500000	49.474295  
591.000000	49.403704  
591.500000	49.867219  
592.000000	50.393363  
592.500000	51.356810  
593.000000	51.987386  
593.500000	53.161954  
594.000000	55.013265  
594.500000	57.057348  
595.000000	57.981257  
595.500000	58.438522  
596.000000	58.659007  
596.500000	59.109098  
597.000000	59.959287  
597.500000	61.258886  
598.000000	62.211174  
598.500000	62.528196  
599.000000	63.282318  
599.500000	64.918499  
600.000000	66.504454  
600.500000	67.426363  
601.000000	68.304045  
601.500000	69.508030  
602.000000	70.937795  
602.500000	72.760643  
603.000000	75.148659  
603.500000	77.098924  
604.000000	78.413439  
604.500000	79.445212  
605.000000	80.718174  
605.500000	81.647151  
606.000000	82.829272  
606.500000	84.360113  
607.000000	86.485969  
607.500000	88.361568  
608.000000	90.007659  
608.500000	91.778022  
609.000000	92.693325  
609.500000	93.008106  
610.000000	93.770659  
610.500000	96.009280  
611.000000	98.487704  
611.500000	100.139712 
612.000000	100.855484 
612.500000	101.982522 
613.000000	104.193113 
613.500000	107.138901 
614.000000	110.347954 
614.500000	112.394545 
615.000000	113.317780 
615.500000	113.688863 
616.000000	114.919643 
616.500000	117.090303 
617.000000	120.068674 
617.500000	122.129060 
618.000000	124.220128 
618.500000	125.833674 
619.000000	127.172348 
619.500000	127.643568 
620.000000	129.758606 
620.500000	133.699431 
621.000000	138.054257 
621.500000	140.033212 
622.000000	141.615628 
622.500000	143.584106 
623.000000	145.779477 
623.500000	146.463590 
624.000000	147.962916 
624.500000	150.827856 
625.000000	154.638719 
625.500000	156.718143 
626.000000	157.932386 
626.500000	159.813000 
627.000000	162.954833 
627.500000	166.223128 
628.000000	168.181886 
628.500000	169.636515 
629.000000	170.748522 
629.500000	172.545795 
630.000000	174.850083 
630.500000	177.116795 
631.000000	179.020333 
631.500000	181.738704 
632.000000	185.414022 
632.500000	189.038303 
633.000000	190.334681 
633.500000	189.796765 
634.000000	189.265787 
634.500000	191.054333 
635.000000	194.005674 
635.500000	196.729098 
636.000000	198.497477 
636.500000	199.855181 
637.000000	201.324734 
637.500000	202.191886 
638.000000	203.450106 
638.500000	205.553227 
639.000000	208.086401 
639.500000	209.954560 
640.000000	210.645803 
640.500000	212.170598 
641.000000	213.146242 
641.500000	214.661492 
642.000000	214.183409 
642.500000	214.583712 
643.000000	214.931166 
643.500000	216.592643 
644.000000	216.970621 
644.500000	216.701477 
645.000000	215.813977 
645.500000	215.825901 
646.000000	216.241590 
646.500000	216.483181 
647.000000	216.087939 
647.500000	216.291083 
648.000000	217.432659 
648.500000	218.952000 
649.000000	219.091795 
649.500000	218.513060 
650.000000	217.309386 
650.500000	215.731568 
651.000000	213.663083 
651.500000	211.818954 
652.000000	211.381484 
652.500000	210.514795 
653.000000	208.733530 
653.500000	205.848242 
654.000000	205.104492 
654.500000	205.332121 
655.000000	205.850893 
655.500000	204.088704 
656.000000	201.026151 
656.500000	198.669734 
657.000000	197.712439 
657.500000	196.636143 
658.000000	195.090212 
658.500000	193.179969 
659.000000	191.004303 
659.500000	187.874954 
660.000000	184.601348 
660.500000	182.544515 
661.000000	182.019613 
661.500000	179.996446 
662.000000	175.668484 
662.500000	171.074939 
663.000000	168.107939 
663.500000	166.339840 
664.000000	163.675060 
664.500000	159.533689 
665.000000	155.591522 
665.500000	152.386477 
666.000000	149.628022 
666.500000	145.927515 
667.000000	142.693030 
667.500000	139.296371 
668.000000	136.702234 
668.500000	133.032030 
669.000000	129.027053 
669.500000	125.312446 
670.000000	122.750090 
670.500000	120.329022 
671.000000	116.919666 
671.500000	113.064484 
672.000000	109.146022 
672.500000	106.693719 
673.000000	104.385992 
673.500000	101.765590 
674.000000	97.965378  
674.500000	94.896053  
675.000000	92.666234  
675.500000	90.977295  
676.000000	88.693553  
676.500000	85.935227  
677.000000	83.263454  
677.500000	80.574916  
678.000000	78.245893  
678.500000	76.118446  
679.000000	74.487840  
679.500000	72.336818  
680.000000	70.820810  
680.500000	68.514030  
681.000000	66.047439  
681.500000	63.098454  
682.000000	61.545356  
682.500000	60.645772  
683.000000	59.669946  
683.500000	57.446818  
684.000000	54.973075  
684.500000	53.141553  
685.000000	51.453113  
685.500000	49.490037  
686.000000	47.311492  
686.500000	45.740742  
687.000000	44.789287  
687.500000	43.707431  
688.000000	42.128128  
688.500000	40.405992  
689.000000	39.432712  
689.500000	38.901681  
690.000000	38.554090  
690.500000	37.291689  
691.000000	35.641121  
691.500000	34.256030  
692.000000	33.579780  
692.500000	33.040265  
693.000000	32.467257  
693.500000	31.580356  
694.000000	30.357515  
694.500000	28.844545  
695.000000	27.569424  
695.500000	26.846204  
696.000000	26.299060  
696.500000	25.461113  
697.000000	24.688106  
697.500000	24.173954  
698.000000	23.844606  
698.500000	23.215424  
699.000000	22.267386  
699.500000	21.256765  
700.000000	20.500272  
700.500000	20.076446  
701.000000	19.976590  
701.500000	20.145204  
702.000000	19.937015  
702.500000	19.101848  
703.000000	18.084833  
703.500000	17.549598  
704.000000	17.519075  
704.500000	17.126590  
705.000000	16.481878  
705.500000	15.824121  
706.000000	15.507484  
706.500000	15.108045  
707.000000	14.752825  
707.500000	14.576636  
708.000000	14.431227  
708.500000	14.080856  
709.000000	13.485704  
709.500000	13.099007  
710.000000	12.858250  
710.500000	12.896500  
711.000000	12.828992  
711.500000	12.537780  
712.000000	11.990719  
712.500000	11.628257  
713.000000	11.536765  
713.500000	11.595621  
714.000000	11.555931  
714.500000	11.346386  
715.000000	10.925174  
715.500000	10.250053  
716.000000	9.784401   
716.500000	9.962128   
717.000000	10.454151  
717.500000	10.573871  
718.000000	10.121439  
718.500000	9.558818   
719.000000	9.091219   
719.500000	8.890696   
720.000000	8.616659   
720.500000	8.542363   
721.000000	8.516742   
721.500000	8.618090   
722.000000	8.439560   
722.500000	8.114409   
723.000000	7.671106   
723.500000	7.652810   
724.000000	7.692416   
724.500000	7.743780   
725.000000	7.597212   
725.500000	7.491484   
726.000000	7.389227   
726.500000	7.180803   
727.000000	6.833196   
727.500000	6.567295   
728.000000	6.698098   
728.500000	7.183257   
729.000000	7.571522   
729.500000	7.627803   
730.000000	7.322674   
730.500000	7.042696   
731.000000	6.657469   
731.500000	6.412439   
732.000000	6.154992   
732.500000	6.092037   
733.000000	5.986287   
733.500000	5.921863   
734.000000	6.027901   
734.500000	6.048977   
735.000000	6.054265   
735.500000	5.801356   
736.000000	5.583666   
736.500000	5.639992   
737.000000	5.932530   
737.500000	6.139098   
738.000000	6.000409   
738.500000	5.653871   
739.000000	5.315386   
739.500000	5.297553   
740.000000	5.137189   
740.500000	5.006143   
741.000000	4.877583   
741.500000	5.009666   
742.000000	5.272795   
742.500000	5.370030   
743.000000	5.141606   
743.500000	4.786022   
744.000000	4.471310   
744.500000	4.206780   
745.000000	4.383704   
745.500000	4.748166   
746.000000	5.088825   
746.500000	4.837939   
747.000000	4.475037   
747.500000	4.200106   
748.000000	4.343325   
748.500000	4.316583   
749.000000	4.326265   
749.500000	4.165537   
750.000000	4.063416   
750.500000	3.883424   
751.000000	3.870719   
751.500000	3.914742   
752.000000	3.926333   
752.500000	3.799196   
753.000000	3.679598   
753.500000	3.785128   
754.000000	4.034037   
754.500000	4.106446   
755.000000	4.058439   
755.500000	3.817840   
756.000000	3.734484   
756.500000	3.519560   
757.000000	3.394818   
757.500000	3.157340   
758.000000	3.208371   
758.500000	3.233712   
759.000000	3.366893   
759.500000	3.372227   
760.000000	3.540143   
760.500000	3.670431   
761.000000	3.779060   
761.500000	3.682916   
762.000000	3.662401   
762.500000	3.665287   
763.000000	3.802568   
763.500000	3.880606   
764.000000	3.857371   
764.500000	3.662371   
765.000000	3.562265   
765.500000	3.570409   
766.000000	3.574992   
766.500000	3.426409   
767.000000	3.269242   
767.500000	3.284181   
768.000000	3.420696   
768.500000	3.428674   
769.000000	3.252545   
769.500000	3.090090   
770.000000	3.082022   
770.500000	3.143462   
771.000000	3.225250   
771.500000	3.246901   
772.000000	3.283507   
772.500000	3.183696   
773.000000	3.117795   
773.500000	3.128598   
774.000000	3.271204   
774.500000	3.344386   
775.000000	3.304371   
775.500000	3.198416   
776.000000	3.041886   
776.500000	2.908287   
777.000000	2.803227   
777.500000	2.815121   
778.000000	2.856772   
778.500000	2.946553   
779.000000	2.994371   
779.500000	3.054439   
780.000000	2.994507   
780.500000	2.936356   
781.000000	2.879409   
781.500000	2.937439   
782.000000	2.961628   
782.500000	2.909356   
783.000000	2.803803   
783.500000	2.669871   
784.000000	2.543265   
784.500000	2.501416   
785.000000	2.673265   
785.500000	2.958818   
786.000000	2.970030   
786.500000	2.684212   
787.000000	2.442015   
787.500000	2.513143   
788.000000	2.646492   
788.500000	2.705765   
789.000000	2.774492   
789.500000	2.921484   
790.000000	2.964984   
790.500000	2.902659   
791.000000	2.839765   
791.500000	2.743939   
792.000000	2.626643   
792.500000	2.526537   
793.000000	2.531810   
793.500000	2.560189   
794.000000	2.621431   
794.500000	2.581106   
795.000000	2.602522   
795.500000	2.539136   
796.000000	2.547681   
796.500000	2.563219   
797.000000	2.629757   
797.500000	2.576030   
798.000000	2.401083   
798.500000	2.108568   
799.000000	1.954030   
799.500000	1.968727   
800.000000	2.089931   
800.500000	2.094893   
801.000000	2.117075   
801.500000	2.192598   
802.000000	2.453666   
802.500000	2.210856   
803.000000	1.708598   
803.500000	1.339977   
804.000000	1.651962   
804.500000	2.024401   
805.000000	2.231409   
805.500000	2.000250   
806.000000	1.769583   
806.500000	1.497954   
807.000000	1.462643   
807.500000	1.723818   
808.000000	2.144295   
808.500000	2.143166   
809.000000	1.922310   
809.500000	1.686969   
810.000000	1.802068   
810.500000	1.804666   
811.000000	1.618590   
811.500000	1.299757   
812.000000	1.430515   
812.500000	1.516984   
813.000000	1.563151   
813.500000	1.443893   
814.000000	1.471113   
814.500000	1.488000   
815.000000	1.430469   
815.500000	1.344121   
816.000000	1.485606   
816.500000	1.819189   
817.000000	1.991409   
817.500000	1.939803   
818.000000	1.646446   
818.500000	1.498462   
819.000000	1.558757   
819.500000	1.737318   
820.000000	1.856886   
820.500000	1.978575   
821.000000	2.166128   
821.500000	2.351537   
822.000000	2.407212   
822.500000	2.423075   
823.000000	2.568818   
823.500000	2.615113   
824.000000	2.557166   
824.500000	2.425553   
825.000000	2.432939   
825.500000	2.328954   
826.000000	2.141840   
826.500000	1.860250   
827.000000	1.872886   
827.500000	1.977409   
828.000000	2.012250   
828.500000	1.872250   
829.000000	1.682575   
829.500000	1.602333   
830.000000	1.499742   
830.500000	1.400946   
831.000000	1.341318   
831.500000	1.428159   
832.000000	1.359000   
832.500000	1.239068   
833.000000	1.114863   
833.500000	1.089204   
834.000000	1.059174   
834.500000	1.021583   
835.000000	1.033537   
835.500000	1.079477   
836.000000	1.083962   
836.500000	1.104401   
837.000000	1.122636   
837.500000	1.132704   
838.000000	1.095280   
838.500000	1.037833   
839.000000	0.965416   
839.500000	0.956037   
840.000000	0.957727   
840.500000	0.997166   
841.000000	1.000128   
841.500000	0.959136   
842.000000	0.766174   
842.500000	0.553280   
843.000000	0.394075   
843.500000	0.432128   
844.000000	0.475636   
844.500000	0.441045   
845.000000	0.306371   
845.500000	0.149106   
846.000000	0.058022   
846.500000	0.025393   
847.000000	0.165371   
847.500000	0.254356   
848.000000	0.384015   
848.500000	0.325856   
849.000000	0.279045   
849.500000	0.139181   
850.000000	0.243780   
850.500000	0.273424   
851.000000	0.238356   
851.500000	0.006499   
852.000000	-0.079795  
852.500000	0.060348   
853.000000	0.251303   
853.500000	0.274250   
854.000000	0.139196   
854.500000	0.025901   
855.000000	-0.019166  
855.500000	0.036121   
856.000000	0.047878   
856.500000	0.076401   
857.000000	0.074765   
857.500000	0.032469   
858.000000	-0.035075  
858.500000	-0.082507  
859.000000	-0.108984  
859.500000	-0.110075  
860.000000	-0.072318  
860.500000	0.017401   
861.000000	0.118075   
861.500000	0.123765   
862.000000	0.098909   
862.500000	0.055537   
863.000000	0.061560   
863.500000	0.044113   
864.000000	-0.022098  
864.500000	-0.035992  
865.000000	0.061803   
865.500000	0.139250   
866.000000	0.064924   
866.500000	-0.056840  
867.000000	-0.133310  
867.500000	-0.084863  
868.000000	-0.077946  
868.500000	-0.031098  
869.000000	-0.002234  
869.500000	0.002787   
870.000000	-0.089204  
870.500000	-0.110196  
871.000000	-0.072863  
871.500000	-0.041068  
872.000000	-0.096681  
872.500000	-0.156325  
873.000000	-0.095287  
873.500000	0.003037   
874.000000	0.074424   
874.500000	-0.010568  
875.000000	-0.050780  
875.500000	-0.032219  
876.000000	0.071499   
876.500000	0.135871   
877.000000	0.196727   
877.500000	0.237015   
878.000000	0.214484   
878.500000	0.120439   
879.000000	-0.014219  
879.500000	-0.030962  
880.000000	-0.056606  
880.500000	-0.095060  
881.000000	-0.181984  
881.500000	-0.200462  
882.000000	-0.100840  
882.500000	0.058780   
883.000000	0.158446   
883.500000	0.124068   
884.000000	0.026825   
884.500000	-0.055340  
885.000000	-0.071030  
885.500000	-0.018598  
886.000000	0.017901   
886.500000	0.038901   
887.000000	-0.066492  
887.500000	-0.183030  
888.000000	-0.210772  
888.500000	-0.118310  
889.000000	-0.082757  
889.500000	-0.093431  
890.000000	-0.049424  
890.500000	0.113446   
891.000000	0.218984   
891.500000	0.213803   
892.000000	0.148075   
892.500000	0.113568   
893.000000	0.060939   
893.500000	0.033340   
894.000000	-0.005977  
894.500000	-0.067734  
895.000000	-0.180219  
895.500000	-0.248000  
896.000000	-0.186719  
896.500000	-0.047765  
897.000000	0.023734   
897.500000	-0.007022  

