PE FL                   SPECTRUM    ASCII       PEDS        1.60        
  -1
SA93C1~1.SP
24/04/12
16:24:50.00
24/04/12
16:24:50.00
Jan

897.500000
1









LS55
405.00
5.00
5.00
SCAN
1
20
100
100
0
400
0
1
0
1
5
ON
450 405 
1 0 0
#HDR
-1
-1
#GR
NM

0.00002384185791015625
0.0
450.000000
0.500000
896
8
275.985999
-0.418833
#DATA
450.000000	0.000999   
450.500000	0.283409   
451.000000	0.349090   
451.500000	0.203946   
452.000000	-0.011484  
452.500000	-0.161545  
453.000000	-0.315083  
453.500000	-0.352242  
454.000000	-0.160696  
454.500000	0.138477   
455.000000	0.318704   
455.500000	0.270901   
456.000000	0.259242   
456.500000	0.251765   
457.000000	0.256303   
457.500000	0.175750   
458.000000	0.152136   
458.500000	0.108439   
459.000000	0.056250   
459.500000	0.016500   
460.000000	-0.018848  
460.500000	0.032992   
461.000000	0.026856   
461.500000	0.022128   
462.000000	-0.023628  
462.500000	-0.024106  
463.000000	0.078810   
463.500000	0.258386   
464.000000	0.326863   
464.500000	0.157946   
465.000000	-0.046545  
465.500000	-0.219098  
466.000000	-0.309575  
466.500000	-0.418833  
467.000000	-0.319651  
467.500000	-0.065696  
468.000000	0.171590   
468.500000	0.130810   
469.000000	0.034227   
469.500000	-0.013272  
470.000000	0.029795   
470.500000	0.094643   
471.000000	0.172393   
471.500000	0.247704   
472.000000	0.170492   
472.500000	-0.012068  
473.000000	-0.109037  
473.500000	-0.042363  
474.000000	-0.041924  
474.500000	-0.032643  
475.000000	0.062280   
475.500000	0.165530   
476.000000	0.185446   
476.500000	0.030318   
477.000000	0.031143   
477.500000	0.131515   
478.000000	0.242227   
478.500000	0.101393   
479.000000	-0.021136  
479.500000	-0.135886  
480.000000	0.032598   
480.500000	0.038196   
481.000000	0.009022   
481.500000	-0.104030  
482.000000	0.072295   
482.500000	0.323439   
483.000000	0.622143   
483.500000	0.664613   
484.000000	0.523250   
484.500000	0.291674   
485.000000	0.084901   
485.500000	-0.007257  
486.000000	-0.027765  
486.500000	0.149568   
487.000000	0.360333   
487.500000	0.538219   
488.000000	0.493113   
488.500000	0.362340   
489.000000	0.213727   
489.500000	0.131606   
490.000000	0.100787   
490.500000	0.102840   
491.000000	0.127098   
491.500000	0.169598   
492.000000	0.240962   
492.500000	0.275068   
493.000000	0.355181   
493.500000	0.372871   
494.000000	0.372734   
494.500000	0.213212   
495.000000	0.106219   
495.500000	0.098969   
496.000000	0.206492   
496.500000	0.181462   
497.000000	0.117037   
497.500000	0.071219   
498.000000	0.237257   
498.500000	0.374856   
499.000000	0.386174   
499.500000	0.278030   
500.000000	0.209507   
500.500000	0.209522   
501.000000	0.248560   
501.500000	0.340128   
502.000000	0.480310   
502.500000	0.652106   
503.000000	0.676984   
503.500000	0.644863   
504.000000	0.643007   
504.500000	0.757151   
505.000000	0.880878   
505.500000	0.868962   
506.000000	0.714181   
506.500000	0.630643   
507.000000	0.734992   
507.500000	0.995977   
508.000000	1.159530   
508.500000	1.042840   
509.000000	0.774939   
509.500000	0.631613   
510.000000	0.659121   
510.500000	0.795810   
511.000000	0.897946   
511.500000	1.052303   
512.000000	1.064409   
512.500000	1.193477   
513.000000	1.221886   
513.500000	1.286045   
514.000000	1.137757   
514.500000	1.216325   
515.000000	1.398272   
515.500000	1.666659   
516.000000	1.737333   
516.500000	1.655007   
517.000000	1.739886   
517.500000	1.998409   
518.000000	2.221037   
518.500000	2.076416   
519.000000	1.840878   
519.500000	1.726477   
520.000000	1.981689   
520.500000	2.015598   
521.000000	1.982295   
521.500000	1.899272   
522.000000	2.047575   
522.500000	2.217257   
523.000000	2.520272   
523.500000	2.664416   
524.000000	2.807401   
524.500000	2.915015   
525.000000	2.946568   
525.500000	2.947484   
526.000000	2.963825   
526.500000	3.135893   
527.000000	3.308083   
527.500000	3.491507   
528.000000	3.636166   
528.500000	4.009159   
529.000000	4.328280   
529.500000	4.566992   
530.000000	4.446204   
530.500000	4.305204   
531.000000	4.320757   
531.500000	4.718719   
532.000000	5.012856   
532.500000	5.270030   
533.000000	5.303106   
533.500000	5.654090   
534.000000	6.079901   
534.500000	6.437181   
535.000000	6.266181   
535.500000	6.269916   
536.000000	6.754939   
536.500000	7.394621   
537.000000	7.658818   
537.500000	7.614083   
538.000000	7.834333   
538.500000	8.292636   
539.000000	9.023757   
539.500000	9.639053   
540.000000	10.139916  
540.500000	10.310219  
541.000000	10.530795  
541.500000	10.799333  
542.000000	10.936833  
542.500000	10.861098  
543.000000	10.884272  
543.500000	11.133734  
544.000000	11.481401  
544.500000	11.705378  
545.000000	11.582068  
545.500000	11.341015  
546.000000	10.950787  
546.500000	10.745469  
547.000000	11.067257  
547.500000	11.615803  
548.000000	11.800522  
548.500000	11.627204  
549.000000	11.722946  
549.500000	11.954060  
550.000000	11.947757  
550.500000	11.589106  
551.000000	11.499780  
551.500000	11.680333  
552.000000	12.107469  
552.500000	12.309075  
553.000000	12.314969  
553.500000	12.008696  
554.000000	12.028507  
554.500000	12.197242  
555.000000	12.389878  
555.500000	12.313257  
556.000000	12.149219  
556.500000	12.100272  
557.000000	12.372621  
557.500000	13.002416  
558.000000	13.323045  
558.500000	13.340871  
559.000000	13.542636  
559.500000	14.384893  
560.000000	15.024856  
560.500000	14.876712  
561.000000	14.248681  
561.500000	14.255174  
562.000000	15.128803  
562.500000	16.253204  
563.000000	16.961977  
563.500000	17.377159  
564.000000	18.023962  
564.500000	18.538053  
565.000000	18.771060  
565.500000	18.834757  
566.000000	19.233083  
566.500000	20.303356  
567.000000	21.208030  
567.500000	21.403719  
568.000000	20.875659  
568.500000	21.130818  
569.000000	21.938583  
569.500000	22.902128  
570.000000	23.283340  
570.500000	23.130893  
571.000000	23.396719  
571.500000	23.762666  
572.000000	24.737954  
572.500000	25.188530  
573.000000	25.678590  
573.500000	26.134681  
574.000000	27.216984  
574.500000	27.866454  
575.000000	28.183333  
575.500000	28.469500  
576.000000	29.027727  
576.500000	29.772204  
577.000000	30.214090  
577.500000	30.523704  
578.000000	30.828689  
578.500000	31.525856  
579.000000	32.226636  
579.500000	32.581113  
580.000000	32.438287  
580.500000	33.000984  
581.000000	33.921871  
581.500000	34.869000  
582.000000	35.202636  
582.500000	35.495499  
583.000000	35.885371  
583.500000	36.516431  
584.000000	37.180954  
584.500000	38.388280  
585.000000	39.506151  
585.500000	39.821553  
586.000000	39.626227  
586.500000	40.065628  
587.000000	41.785590  
587.500000	44.258348  
588.000000	46.392560  
588.500000	47.385666  
589.000000	47.655439  
589.500000	47.847575  
590.000000	48.261143  
590.500000	49.094803  
591.000000	49.690765  
591.500000	50.752742  
592.000000	51.777090  
592.500000	52.618053  
593.000000	52.827015  
593.500000	53.698234  
594.000000	55.210189  
594.500000	56.936401  
595.000000	57.762878  
595.500000	58.130545  
596.000000	58.561030  
596.500000	60.018446  
597.000000	62.043924  
597.500000	64.565575  
598.000000	65.858674  
598.500000	66.763310  
599.000000	67.375189  
599.500000	68.428696  
600.000000	69.453810  
600.500000	70.289416  
601.000000	71.958734  
601.500000	73.899136  
602.000000	76.330787  
602.500000	77.570189  
603.000000	78.530765  
603.500000	78.512780  
604.000000	79.645212  
604.500000	80.650946  
605.000000	82.380431  
605.500000	83.749053  
606.000000	86.369795  
606.500000	88.291136  
607.000000	90.250750  
607.500000	91.553848  
608.000000	94.487196  
608.500000	96.827393  
609.000000	98.781280  
609.500000	99.816530  
610.000000	101.189318 
610.500000	102.773333 
611.000000	104.479507 
611.500000	106.461537 
612.000000	108.563803 
612.500000	110.566128 
613.000000	112.893583 
613.500000	115.196500 
614.000000	117.564181 
614.500000	119.289045 
615.000000	121.190643 
615.500000	122.599825 
616.000000	124.719848 
616.500000	126.847863 
617.000000	129.420030 
617.500000	131.783174 
618.000000	134.482151 
618.500000	137.579439 
619.000000	140.692946 
619.500000	142.616075 
620.000000	144.493780 
620.500000	146.743916 
621.000000	150.274295 
621.500000	153.443053 
622.000000	156.774780 
622.500000	159.912462 
623.000000	162.634280 
623.500000	163.327174 
624.000000	164.624030 
624.500000	166.634750 
625.000000	170.827909 
625.500000	174.383098 
626.000000	176.680424 
626.500000	177.405318 
627.000000	179.378553 
627.500000	182.773681 
628.000000	186.519886 
628.500000	189.658628 
629.000000	192.725901 
629.500000	197.052363 
630.000000	200.637015 
630.500000	202.705871 
631.000000	204.644098 
631.500000	207.507946 
632.000000	210.863628 
632.500000	213.428848 
633.000000	216.427250 
633.500000	219.744840 
634.000000	223.006242 
634.500000	224.691424 
635.000000	226.510068 
635.500000	229.825431 
636.000000	233.686901 
636.500000	236.136931 
637.000000	237.835848 
637.500000	240.312212 
638.000000	243.352575 
638.500000	245.920696 
639.000000	247.095401 
639.500000	248.394568 
640.000000	250.681303 
640.500000	253.655030 
641.000000	257.373856 
641.500000	259.909689 
642.000000	260.261030 
642.500000	258.638659 
643.000000	258.683174 
643.500000	260.955212 
644.000000	263.988848 
644.500000	265.254462 
645.000000	265.900590 
645.500000	266.702515 
646.000000	268.557454 
646.500000	270.390772 
647.000000	272.134136 
647.500000	273.484454 
648.000000	274.973795 
648.500000	274.923651 
649.000000	274.209871 
649.500000	273.534863 
650.000000	274.330416 
650.500000	274.555848 
651.000000	274.281810 
651.500000	274.452962 
652.000000	275.985999 
652.500000	274.948348 
653.000000	272.492234 
653.500000	271.312492 
654.000000	272.985962 
654.500000	274.838787 
655.000000	274.527992 
655.500000	273.286909 
656.000000	271.122015 
656.500000	269.025136 
657.000000	266.938113 
657.500000	266.351727 
658.000000	266.485053 
658.500000	264.326386 
659.000000	260.592106 
659.500000	256.500750 
660.000000	255.801863 
660.500000	255.266159 
661.000000	254.204007 
661.500000	250.826007 
662.000000	248.000651 
662.500000	245.061446 
663.000000	241.589007 
663.500000	238.976522 
664.000000	236.720401 
664.500000	235.120363 
665.000000	231.616393 
665.500000	227.937333 
666.000000	223.343106 
666.500000	219.741310 
667.000000	214.955227 
667.500000	210.773780 
668.000000	206.334500 
668.500000	203.206212 
669.000000	200.024780 
669.500000	197.319507 
670.000000	194.017772 
670.500000	190.106507 
671.000000	185.008363 
671.500000	179.383757 
672.000000	174.100962 
672.500000	170.012310 
673.000000	166.600734 
673.500000	163.306583 
674.000000	159.611954 
674.500000	156.169651 
675.000000	152.023227 
675.500000	147.062204 
676.000000	142.135522 
676.500000	139.111537 
677.000000	137.250560 
677.500000	133.891378 
678.000000	129.384098 
678.500000	124.833954 
679.000000	122.489219 
679.500000	120.017537 
680.000000	117.153818 
680.500000	112.607765 
681.000000	108.808280 
681.500000	105.783500 
682.000000	103.566515 
682.500000	100.198181 
683.000000	96.587045  
683.500000	92.918681  
684.000000	90.301674  
684.500000	87.957530  
685.000000	86.035174  
685.500000	83.712583  
686.000000	81.007856  
686.500000	77.772446  
687.000000	74.985356  
687.500000	72.651681  
688.000000	70.994378  
688.500000	69.205969  
689.000000	66.833136  
689.500000	63.878590  
690.000000	61.478757  
690.500000	60.165204  
691.000000	59.256757  
691.500000	57.588181  
692.000000	55.750037  
692.500000	53.993742  
693.000000	52.430174  
693.500000	50.377613  
694.000000	49.008386  
694.500000	47.971795  
695.000000	47.614053  
695.500000	46.194833  
696.000000	45.077734  
696.500000	43.489734  
697.000000	41.862007  
697.500000	39.541325  
698.000000	37.958090  
698.500000	36.821196  
699.000000	36.082265  
699.500000	35.094734  
700.000000	34.217954  
700.500000	33.367530  
701.000000	32.572560  
701.500000	31.892856  
702.000000	30.996045  
702.500000	29.918856  
703.000000	28.884446  
703.500000	28.179946  
704.000000	27.213431  
704.500000	26.512037  
705.000000	26.314318  
705.500000	26.608363  
706.000000	26.313931  
706.500000	24.944734  
707.000000	23.206318  
707.500000	22.021151  
708.000000	21.661000  
708.500000	21.687446  
709.000000	21.461181  
709.500000	20.772189  
710.000000	19.941909  
710.500000	19.240287  
711.000000	18.905803  
711.500000	19.053310  
712.000000	19.240303  
712.500000	18.852636  
713.000000	18.094810  
713.500000	17.206227  
714.000000	16.770462  
714.500000	16.608939  
715.000000	16.458310  
715.500000	16.087765  
716.000000	15.560454  
716.500000	15.066840  
717.000000	14.612303  
717.500000	14.343878  
718.000000	14.432840  
718.500000	14.362712  
719.000000	14.134272  
719.500000	13.710333  
720.000000	13.289575  
720.500000	12.417015  
721.000000	11.704606  
721.500000	11.535151  
722.000000	11.818575  
722.500000	11.656007  
723.000000	11.182174  
723.500000	11.043340  
724.000000	11.014424  
724.500000	10.698386  
725.000000	10.267469  
725.500000	9.936060   
726.000000	9.755484   
726.500000	9.880537   
727.000000	10.189696  
727.500000	10.285128  
728.000000	9.925772   
728.500000	9.433757   
729.000000	9.187242   
729.500000	9.023249   
730.000000	8.921848   
730.500000	8.708772   
731.000000	8.556030   
731.500000	8.292166   
732.000000	8.206833   
732.500000	8.080696   
733.000000	8.124537   
733.500000	8.126696   
734.000000	8.171999   
734.500000	7.744303   
735.000000	7.313143   
735.500000	7.129878   
736.000000	7.173893   
736.500000	7.022893   
737.000000	6.717962   
737.500000	6.558886   
738.000000	6.546749   
738.500000	6.746219   
739.000000	6.765909   
739.500000	6.865621   
740.000000	6.859136   
740.500000	7.043439   
741.000000	7.019204   
741.500000	6.761409   
742.000000	6.251530   
742.500000	5.909863   
743.000000	5.814492   
743.500000	5.732969   
744.000000	5.726090   
744.500000	5.609454   
745.000000	5.570409   
745.500000	5.358454   
746.000000	5.319803   
746.500000	5.298969   
747.000000	5.387909   
747.500000	5.321303   
748.000000	5.192825   
748.500000	4.960901   
749.000000	4.772045   
749.500000	4.777696   
750.000000	4.793318   
750.500000	4.887295   
751.000000	5.043325   
751.500000	5.389954   
752.000000	5.427053   
752.500000	5.147037   
753.000000	4.836121   
753.500000	4.898022   
754.000000	5.116022   
754.500000	4.926946   
755.000000	4.623212   
755.500000	4.360227   
756.000000	4.582545   
756.500000	4.636151   
757.000000	4.640212   
757.500000	4.408325   
758.000000	4.348500   
758.500000	4.298151   
759.000000	4.192386   
759.500000	4.065863   
760.000000	3.975204   
760.500000	3.958780   
761.000000	3.871992   
761.500000	3.857712   
762.000000	4.058712   
762.500000	4.217545   
763.000000	4.132689   
763.500000	3.884689   
764.000000	4.036000   
764.500000	4.228348   
765.000000	4.149212   
765.500000	3.716727   
766.000000	3.467189   
766.500000	3.444886   
767.000000	3.540560   
767.500000	3.527083   
768.000000	3.438378   
768.500000	3.252015   
769.000000	3.236848   
769.500000	3.336371   
770.000000	3.564780   
770.500000	3.558848   
771.000000	3.539000   
771.500000	3.303871   
772.000000	3.126007   
772.500000	2.977628   
773.000000	3.117666   
773.500000	3.256863   
774.000000	3.311371   
774.500000	3.259431   
775.000000	3.337893   
775.500000	3.455984   
776.000000	3.510045   
776.500000	3.372037   
777.000000	3.210287   
777.500000	3.116333   
778.000000	3.156583   
778.500000	3.157424   
779.000000	3.101598   
779.500000	3.044825   
780.000000	3.052303   
780.500000	3.070219   
781.000000	3.104083   
781.500000	3.142977   
782.000000	3.166174   
782.500000	3.013462   
783.000000	2.895303   
783.500000	2.847530   
784.000000	2.978780   
784.500000	2.971712   
785.000000	2.830962   
785.500000	2.647977   
786.000000	2.682924   
786.500000	2.786060   
787.000000	2.811477   
787.500000	2.833242   
788.000000	2.831007   
788.500000	2.805401   
789.000000	2.756795   
789.500000	2.821204   
790.000000	3.004333   
790.500000	3.048507   
791.000000	2.883280   
791.500000	2.633166   
792.000000	2.633386   
792.500000	2.724507   
793.000000	2.792333   
793.500000	2.625083   
794.000000	2.625757   
794.500000	2.618174   
795.000000	2.562015   
795.500000	2.303818   
796.000000	2.244780   
796.500000	2.366878   
797.000000	2.607651   
797.500000	2.647696   
798.000000	2.611507   
798.500000	2.510772   
799.000000	2.284462   
799.500000	2.008575   
800.000000	1.761840   
800.500000	1.913606   
801.000000	2.125280   
801.500000	2.199280   
802.000000	1.973742   
802.500000	1.897454   
803.000000	1.854863   
803.500000	1.911689   
804.000000	1.964378   
804.500000	2.052909   
805.000000	2.070386   
805.500000	1.878780   
806.000000	1.690954   
806.500000	1.631545   
807.000000	1.755742   
807.500000	1.912780   
808.000000	1.973356   
808.500000	1.953507   
809.000000	1.841363   
809.500000	1.787992   
810.000000	1.760386   
810.500000	1.670916   
811.000000	1.429075   
811.500000	1.325507   
812.000000	1.444863   
812.500000	1.731371   
813.000000	1.956825   
813.500000	1.972909   
814.000000	1.875818   
814.500000	1.734803   
815.000000	1.610446   
815.500000	1.472522   
816.000000	1.355636   
816.500000	1.276159   
817.000000	1.329666   
817.500000	1.364030   
818.000000	1.452628   
818.500000	1.598530   
819.000000	1.754090   
819.500000	1.800742   
820.000000	1.807681   
820.500000	1.887492   
821.000000	1.981037   
821.500000	2.049469   
822.000000	2.034674   
822.500000	2.025522   
823.000000	2.046537   
823.500000	2.192030   
824.000000	2.260492   
824.500000	2.324000   
825.000000	2.335818   
825.500000	2.432840   
826.000000	2.426265   
826.500000	2.376704   
827.000000	2.251469   
827.500000	2.274704   
828.000000	2.164939   
828.500000	2.093106   
829.000000	1.836818   
829.500000	1.587000   
830.000000	1.303500   
830.500000	1.299772   
831.000000	1.353121   
831.500000	1.356151   
832.000000	1.238113   
832.500000	1.239560   
833.000000	1.264121   
833.500000	1.162704   
834.000000	0.970340   
834.500000	0.914401   
835.000000	0.993439   
835.500000	1.105522   
836.000000	1.120022   
836.500000	1.113901   
837.000000	1.107318   
837.500000	1.073530   
838.000000	1.028363   
838.500000	0.881181   
839.000000	0.758159   
839.500000	0.697530   
840.000000	0.807348   
840.500000	0.892181   
841.000000	0.869863   
841.500000	0.657742   
842.000000	0.530204   
842.500000	0.650409   
843.000000	0.828310   
843.500000	0.844128   
844.000000	0.597568   
844.500000	0.318537   
845.000000	0.266893   
845.500000	0.370234   
846.000000	0.391477   
846.500000	0.396643   
847.000000	0.470787   
847.500000	0.637515   
848.000000	0.685098   
848.500000	0.488409   
849.000000	0.171734   
849.500000	0.038348   
850.000000	0.082613   
850.500000	0.195537   
851.000000	0.215833   
851.500000	0.086878   
852.000000	0.030689   
852.500000	0.001727   
853.000000	-0.034575  
853.500000	-0.227045  
854.000000	-0.341500  
854.500000	-0.331878  
855.000000	-0.104204  
855.500000	0.037916   
856.000000	0.116719   
856.500000	0.077356   
857.000000	0.118113   
857.500000	0.146780   
858.000000	0.190886   
858.500000	0.122068   
859.000000	0.048704   
859.500000	0.002833   
860.000000	0.063568   
860.500000	0.062818   
861.000000	0.008901   
861.500000	-0.074022  
862.000000	0.012575   
862.500000	0.111462   
863.000000	0.190363   
863.500000	0.111007   
864.000000	0.073378   
864.500000	0.018810   
865.000000	0.033833   
865.500000	0.036484   
866.000000	0.060227   
866.500000	0.012575   
867.000000	0.039371   
867.500000	0.122469   
868.000000	0.215159   
868.500000	0.166553   
869.000000	0.042409   
869.500000	-0.061416  
870.000000	-0.018863  
870.500000	0.066446   
871.000000	0.096121   
871.500000	-0.004181  
872.000000	0.006704   
872.500000	0.000462   
873.000000	0.075863   
873.500000	-0.016939  
874.000000	0.043893   
874.500000	0.009454   
875.000000	0.088363   
875.500000	0.031060   
876.000000	0.109227   
876.500000	0.075227   
877.000000	0.045401   
877.500000	-0.061234  
878.000000	-0.036560  
878.500000	0.086037   
879.000000	0.290393   
879.500000	0.322371   
880.000000	0.192704   
880.500000	-0.023537  
881.000000	-0.078371  
881.500000	0.009310   
882.000000	0.162128   
882.500000	0.194810   
883.000000	0.114128   
883.500000	-0.042007  
884.000000	-0.148439  
884.500000	-0.078310  
885.000000	0.110787   
885.500000	0.196924   
886.000000	0.050333   
886.500000	-0.114166  
887.000000	-0.180962  
887.500000	-0.100810  
888.000000	0.019962   
888.500000	0.101969   
889.000000	0.065401   
889.500000	-0.001318  
890.000000	-0.024560  
890.500000	0.035946   
891.000000	0.040674   
891.500000	0.011833   
892.000000	-0.026590  
892.500000	-0.012007  
893.000000	-0.077492  
893.500000	-0.059128  
894.000000	-0.051810  
894.500000	-0.003030  
895.000000	0.006454   
895.500000	0.079030   
896.000000	0.144340   
896.500000	0.168765   
897.000000	0.073757   
897.500000	-0.034659  

