PE FL                   SPECTRUM    ASCII       PEDS        1.60        
  -1
SAA3CD~1.SP
24/04/12
17:07:37.00
24/04/12
17:07:37.00
Jan

897.500000
1









LS55
405.00
5.00
5.00
SCAN
1
20
100
100
0
400
0
1
0
1
5
ON
450 405 
1 0 0
#HDR
-1
-1
#GR
NM

0.00002384185791015625
0.0
450.000000
0.500000
896
8
218.895227
-0.430174
#DATA
450.000000	-0.300000  
450.500000	-0.076575  
451.000000	0.076871   
451.500000	0.193734   
452.000000	0.131916   
452.500000	-0.065537  
453.000000	-0.292265  
453.500000	-0.181386  
454.000000	0.092522   
454.500000	0.246310   
455.000000	0.120757   
455.500000	0.069454   
456.000000	0.092303   
456.500000	0.084621   
457.000000	-0.077810  
457.500000	-0.071212  
458.000000	-0.050136  
458.500000	0.030075   
459.000000	-0.123613  
459.500000	-0.258500  
460.000000	-0.300969  
460.500000	-0.034121  
461.000000	0.269765   
461.500000	0.378128   
462.000000	0.322128   
462.500000	0.109159   
463.000000	-0.042409  
463.500000	-0.247075  
464.000000	-0.198287  
464.500000	-0.057962  
465.000000	0.031643   
465.500000	-0.070492  
466.000000	-0.167295  
466.500000	-0.138750  
467.000000	-0.018984  
467.500000	0.015984   
468.000000	-0.124174  
468.500000	-0.112977  
469.000000	0.089999   
469.500000	0.328083   
470.000000	0.448053   
470.500000	0.444795   
471.000000	0.426825   
471.500000	0.296500   
472.000000	0.084909   
472.500000	-0.155333  
473.000000	-0.245681  
473.500000	-0.252272  
474.000000	-0.178280  
474.500000	-0.146325  
475.000000	-0.161424  
475.500000	-0.224159  
476.000000	-0.342924  
476.500000	-0.342946  
477.000000	-0.127303  
477.500000	0.209613   
478.000000	0.380136   
478.500000	0.318431   
479.000000	0.194848   
479.500000	0.048992   
480.000000	-0.087166  
480.500000	-0.319007  
481.000000	-0.430174  
481.500000	-0.290234  
482.000000	-0.006719  
482.500000	0.262636   
483.000000	0.242166   
483.500000	0.085560   
484.000000	-0.027795  
484.500000	0.080378   
485.000000	0.143598   
485.500000	0.073568   
486.000000	-0.134378  
486.500000	-0.177530  
487.000000	-0.044007  
487.500000	0.068310   
488.000000	0.069212   
488.500000	0.029431   
489.000000	-0.000939  
489.500000	0.020196   
490.000000	-0.004401  
490.500000	0.010666   
491.000000	0.137272   
491.500000	0.349030   
492.000000	0.460522   
492.500000	0.351545   
493.000000	0.185757   
493.500000	0.174212   
494.000000	0.204409   
494.500000	0.157037   
495.000000	0.110901   
495.500000	0.157242   
496.000000	0.162977   
496.500000	0.093212   
497.000000	0.042037   
497.500000	0.165727   
498.000000	0.296386   
498.500000	0.230613   
499.000000	0.215030   
499.500000	0.285287   
500.000000	0.453500   
500.500000	0.454909   
501.000000	0.468037   
501.500000	0.455560   
502.000000	0.555787   
502.500000	0.458401   
503.000000	0.389492   
503.500000	0.355181   
504.000000	0.588159   
504.500000	0.867704   
505.000000	1.129181   
505.500000	1.190250   
506.000000	1.028681   
506.500000	0.767833   
507.000000	0.581181   
507.500000	0.587212   
508.000000	0.641992   
508.500000	0.735454   
509.000000	0.840666   
509.500000	1.035371   
510.000000	1.128015   
510.500000	1.115363   
511.000000	1.043969   
511.500000	1.012977   
512.000000	1.124469   
512.500000	1.264303   
513.000000	1.276106   
513.500000	1.166469   
514.000000	1.110439   
514.500000	1.302189   
515.000000	1.562712   
515.500000	1.795424   
516.000000	1.856477   
516.500000	1.996500   
517.000000	2.025378   
517.500000	2.072022   
518.000000	2.024878   
518.500000	2.082984   
519.000000	2.106871   
519.500000	2.108022   
520.000000	2.126568   
520.500000	2.315674   
521.000000	2.628795   
521.500000	2.851545   
522.000000	2.963803   
522.500000	2.923454   
523.000000	2.950795   
523.500000	2.991598   
524.000000	3.106537   
524.500000	3.023780   
525.000000	3.040037   
525.500000	3.186901   
526.000000	3.498924   
526.500000	3.835924   
527.000000	4.084522   
527.500000	4.333856   
528.000000	4.380916   
528.500000	4.351348   
529.000000	4.273303   
529.500000	4.493159   
530.000000	4.806416   
530.500000	5.099022   
531.000000	5.415439   
531.500000	5.706484   
532.000000	6.102015   
532.500000	6.620954   
533.000000	7.072189   
533.500000	7.263606   
534.000000	7.251613   
534.500000	7.336962   
535.000000	7.735969   
535.500000	8.178840   
536.000000	8.354825   
536.500000	8.738204   
537.000000	9.314007   
537.500000	10.015772  
538.000000	10.492969  
538.500000	10.789227  
539.000000	11.064598  
539.500000	11.358992  
540.000000	11.369227  
540.500000	11.371507  
541.000000	11.511545  
541.500000	11.745189  
542.000000	11.955742  
542.500000	11.978280  
543.000000	12.114060  
543.500000	12.277772  
544.000000	12.442863  
544.500000	12.256287  
545.000000	12.055719  
545.500000	11.720886  
546.000000	11.693530  
546.500000	11.602810  
547.000000	11.798530  
547.500000	11.973848  
548.000000	12.173363  
548.500000	12.289257  
549.000000	12.260409  
549.500000	12.125946  
550.000000	11.959128  
550.500000	11.796734  
551.000000	11.546613  
551.500000	11.424742  
552.000000	11.564818  
552.500000	11.795696  
553.000000	11.931863  
553.500000	11.850628  
554.000000	11.922484  
554.500000	12.099234  
555.000000	12.666325  
555.500000	13.276628  
556.000000	13.754916  
556.500000	14.005598  
557.000000	14.417893  
557.500000	14.750030  
558.000000	14.728575  
558.500000	14.655643  
559.000000	14.840833  
559.500000	15.416166  
560.000000	15.897287  
560.500000	16.346484  
561.000000	16.696969  
561.500000	17.192909  
562.000000	17.771977  
562.500000	18.210462  
563.000000	18.667121  
563.500000	19.090818  
564.000000	20.078810  
564.500000	20.753378  
565.000000	20.905840  
565.500000	20.363151  
566.000000	20.361522  
566.500000	20.732734  
567.000000	21.318371  
567.500000	21.616469  
568.000000	22.154992  
568.500000	22.978363  
569.000000	23.621280  
569.500000	23.871500  
570.000000	23.928000  
570.500000	24.289727  
571.000000	24.850189  
571.500000	25.633742  
572.000000	25.909204  
572.500000	25.822454  
573.000000	25.858636  
573.500000	26.673439  
574.000000	27.677795  
574.500000	28.423340  
575.000000	28.933810  
575.500000	29.468416  
576.000000	29.988590  
576.500000	30.378727  
577.000000	30.523007  
577.500000	30.636734  
578.000000	30.993272  
578.500000	31.637840  
579.000000	32.309363  
579.500000	32.803022  
580.000000	33.381098  
580.500000	34.479560  
581.000000	35.764651  
581.500000	36.606575  
582.000000	36.482393  
582.500000	36.170719  
583.000000	36.434818  
583.500000	37.746553  
584.000000	39.499113  
584.500000	40.811803  
585.000000	41.515636  
585.500000	41.797583  
586.000000	42.474742  
586.500000	43.344113  
587.000000	44.764060  
587.500000	45.832992  
588.000000	47.072477  
588.500000	47.640962  
589.000000	48.003174  
589.500000	48.278477  
590.000000	49.398037  
590.500000	50.765121  
591.000000	52.094636  
591.500000	52.834833  
592.000000	53.089484  
592.500000	53.896431  
593.000000	55.368810  
593.500000	57.705878  
594.000000	59.044121  
594.500000	59.286772  
595.000000	58.386454  
595.500000	58.796454  
596.000000	59.969712  
596.500000	61.916666  
597.000000	63.358106  
597.500000	64.803166  
598.000000	65.812878  
598.500000	66.610303  
599.000000	67.805681  
599.500000	69.386613  
600.000000	70.743280  
600.500000	71.878333  
601.000000	72.968848  
601.500000	73.873325  
602.000000	74.572143  
602.500000	76.389492  
603.000000	78.918424  
603.500000	81.100318  
604.000000	81.681772  
604.500000	81.607469  
605.000000	82.289818  
605.500000	84.153606  
606.000000	87.232060  
606.500000	89.782507  
607.000000	90.863568  
607.500000	90.856666  
608.000000	91.671712  
608.500000	93.388295  
609.000000	95.233106  
609.500000	97.013772  
610.000000	98.635704  
610.500000	99.953787  
611.000000	100.756424 
611.500000	102.171310 
612.000000	104.893212 
612.500000	108.251863 
613.000000	110.796242 
613.500000	112.397265 
614.000000	114.043401 
614.500000	115.887893 
615.000000	117.957219 
615.500000	119.809984 
616.000000	121.632310 
616.500000	123.233128 
617.000000	125.358810 
617.500000	127.375871 
618.000000	129.283969 
618.500000	131.270507 
619.000000	133.413825 
619.500000	135.536962 
620.000000	136.592833 
620.500000	137.633015 
621.000000	139.541333 
621.500000	143.017628 
622.000000	145.926916 
622.500000	147.603666 
623.000000	148.556621 
623.500000	150.410310 
624.000000	152.923090 
624.500000	156.010446 
625.000000	159.066666 
625.500000	161.950893 
626.000000	163.066030 
626.500000	163.708674 
627.000000	165.470090 
627.500000	169.558189 
628.000000	173.432022 
628.500000	175.980727 
629.000000	177.666287 
629.500000	179.788340 
630.000000	181.095462 
630.500000	182.366113 
631.000000	183.410030 
631.500000	186.200363 
632.000000	188.416348 
632.500000	190.325053 
633.000000	191.082431 
633.500000	193.093946 
634.000000	194.725318 
634.500000	195.799818 
635.000000	195.959356 
635.500000	196.315734 
636.000000	198.937424 
636.500000	201.816007 
637.000000	203.850901 
637.500000	203.645863 
638.000000	204.142803 
638.500000	205.184840 
639.000000	206.986856 
639.500000	208.112515 
640.000000	209.975090 
640.500000	212.096734 
641.000000	213.801106 
641.500000	214.484780 
642.000000	214.493651 
642.500000	214.407363 
643.000000	214.153946 
643.500000	213.557393 
644.000000	213.073727 
644.500000	213.239378 
645.000000	214.963954 
645.500000	217.548840 
646.000000	218.895227 
646.500000	218.031931 
647.000000	215.004015 
647.500000	212.331689 
648.000000	211.230674 
648.500000	212.180068 
649.000000	212.775651 
649.500000	212.323136 
650.000000	210.173507 
650.500000	208.614303 
651.000000	208.925613 
651.500000	210.067840 
652.000000	210.817901 
652.500000	209.921318 
653.000000	208.036765 
653.500000	205.010560 
654.000000	202.334234 
654.500000	200.390113 
655.000000	199.431984 
655.500000	196.976257 
656.000000	193.571500 
656.500000	190.660522 
657.000000	189.247166 
657.500000	187.530666 
658.000000	185.142681 
658.500000	182.140242 
659.000000	179.447742 
659.500000	177.033878 
660.000000	174.960575 
660.500000	173.567651 
661.000000	172.125787 
661.500000	169.455795 
662.000000	165.257401 
662.500000	160.769568 
663.000000	157.912818 
663.500000	155.767136 
664.000000	153.594431 
664.500000	148.691696 
665.000000	143.118310 
665.500000	137.962833 
666.000000	135.947734 
666.500000	134.499295 
667.000000	132.302159 
667.500000	128.425431 
668.000000	124.644068 
668.500000	121.523204 
669.000000	118.546348 
669.500000	115.780727 
670.000000	112.690681 
670.500000	109.723689 
671.000000	107.107007 
671.500000	104.578196 
672.000000	101.871174 
672.500000	98.431825  
673.000000	95.506280  
673.500000	92.463136  
674.000000	89.869871  
674.500000	86.667446  
675.000000	84.069446  
675.500000	81.085568  
676.000000	78.746969  
676.500000	76.466962  
677.000000	74.336575  
677.500000	72.044704  
678.000000	70.061878  
678.500000	68.524431  
679.000000	66.608621  
679.500000	64.408939  
680.000000	62.596939  
680.500000	62.013030  
681.000000	61.117909  
681.500000	59.226689  
682.000000	56.789401  
682.500000	54.622924  
683.000000	52.797901  
683.500000	51.237159  
684.000000	49.690189  
684.500000	47.767780  
685.000000	45.810037  
685.500000	44.025007  
686.000000	43.074969  
686.500000	41.918863  
687.000000	40.799750  
687.500000	39.561954  
688.000000	38.640742  
688.500000	37.345765  
689.000000	36.237803  
689.500000	35.029606  
690.000000	34.129537  
690.500000	33.243765  
691.000000	32.040810  
691.500000	30.923204  
692.000000	30.096757  
692.500000	29.680204  
693.000000	28.976939  
693.500000	28.249151  
694.000000	27.272643  
694.500000	26.537060  
695.000000	25.534189  
695.500000	24.942318  
696.000000	24.586363  
696.500000	24.560840  
697.000000	24.282000  
697.500000	23.796606  
698.000000	22.799689  
698.500000	21.700651  
699.000000	20.862606  
699.500000	20.318939  
700.000000	19.653416  
700.500000	19.095765  
701.000000	18.575265  
701.500000	18.229189  
702.000000	17.635507  
702.500000	16.821757  
703.000000	15.989401  
703.500000	15.568333  
704.000000	15.323590  
704.500000	15.007227  
705.000000	14.827818  
705.500000	14.882371  
706.000000	14.963954  
706.500000	14.375886  
707.000000	13.645840  
707.500000	13.288704  
708.000000	13.377833  
708.500000	13.156954  
709.000000	12.732143  
709.500000	12.124765  
710.000000	11.840681  
710.500000	11.771022  
711.000000	12.032265  
711.500000	11.984636  
712.000000	11.643515  
712.500000	11.263825  
713.000000	11.091143  
713.500000	10.822840  
714.000000	10.457469  
714.500000	10.073742  
715.000000	9.963151   
715.500000	9.958840   
716.000000	9.808333   
716.500000	9.533795   
717.000000	9.159446   
717.500000	9.003962   
718.000000	8.837621   
718.500000	8.519666   
719.000000	8.252106   
719.500000	8.492681   
720.000000	8.754606   
720.500000	8.378613   
721.000000	7.606363   
721.500000	7.340590   
722.000000	7.789696   
722.500000	8.212878   
723.000000	8.301083   
723.500000	8.094977   
724.000000	7.589083   
724.500000	7.105590   
725.000000	6.812568   
725.500000	6.954590   
726.000000	6.881143   
726.500000	6.656924   
727.000000	6.316772   
727.500000	6.410265   
728.000000	6.522401   
728.500000	6.539886   
729.000000	6.363333   
729.500000	6.331931   
730.000000	6.499401   
730.500000	6.366727   
731.000000	6.040363   
731.500000	5.816734   
732.000000	5.932386   
732.500000	5.944303   
733.000000	5.688356   
733.500000	5.355931   
734.000000	5.269454   
734.500000	5.395909   
735.000000	5.390893   
735.500000	5.437886   
736.000000	5.452424   
736.500000	5.584477   
737.000000	5.749068   
737.500000	5.862280   
738.000000	5.721060   
738.500000	5.338795   
739.000000	5.004492   
739.500000	5.018128   
740.000000	5.171681   
740.500000	5.167287   
741.000000	4.919272   
741.500000	4.746530   
742.000000	4.579856   
742.500000	4.459356   
743.000000	4.088075   
743.500000	3.933939   
744.000000	3.923068   
744.500000	4.250818   
745.000000	4.434181   
745.500000	4.560530   
746.000000	4.608962   
746.500000	4.539878   
747.000000	4.292598   
747.500000	4.096037   
748.000000	4.144340   
748.500000	4.274030   
749.000000	4.328143   
749.500000	4.220159   
750.000000	4.191022   
750.500000	4.326469   
751.000000	4.379810   
751.500000	4.319348   
752.000000	4.062469   
752.500000	3.955174   
753.000000	3.945992   
753.500000	4.067893   
754.000000	4.062621   
754.500000	3.962727   
755.000000	3.660053   
755.500000	3.358401   
756.000000	3.144174   
756.500000	3.170984   
757.000000	3.323977   
757.500000	3.502378   
758.000000	3.542575   
758.500000	3.572075   
759.000000	3.636901   
759.500000	3.835151   
760.000000	3.931265   
760.500000	3.773159   
761.000000	3.379424   
761.500000	3.096780   
762.000000	3.187719   
762.500000	3.447371   
763.000000	3.691825   
763.500000	3.668272   
764.000000	3.584492   
764.500000	3.476409   
765.000000	3.421909   
765.500000	3.348340   
766.000000	3.399772   
766.500000	3.519159   
767.000000	3.663113   
767.500000	3.597696   
768.000000	3.368674   
768.500000	3.256628   
769.000000	3.222924   
769.500000	3.128136   
770.000000	2.989712   
770.500000	3.009015   
771.000000	3.019280   
771.500000	2.900159   
772.000000	2.765590   
772.500000	2.872431   
773.000000	3.088416   
773.500000	3.122310   
774.000000	3.098840   
774.500000	2.933068   
775.000000	2.716803   
775.500000	2.497727   
776.000000	2.647901   
776.500000	2.799484   
777.000000	2.906719   
777.500000	2.875015   
778.000000	3.098901   
778.500000	3.224174   
779.000000	3.164651   
779.500000	2.789446   
780.000000	2.596189   
780.500000	2.665378   
781.000000	2.834469   
781.500000	2.828371   
782.000000	2.715439   
782.500000	2.762015   
783.000000	2.957621   
783.500000	3.093568   
784.000000	3.054500   
784.500000	2.828022   
785.000000	2.564090   
785.500000	2.349848   
786.000000	2.411333   
786.500000	2.627681   
787.000000	2.869916   
787.500000	2.818742   
788.000000	2.601795   
788.500000	2.448439   
789.000000	2.577030   
789.500000	2.644886   
790.000000	2.512272   
790.500000	2.252628   
791.000000	2.293037   
791.500000	2.447249   
792.000000	2.594909   
792.500000	2.594636   
793.000000	2.538196   
793.500000	2.400250   
794.000000	2.344598   
794.500000	2.409500   
795.000000	2.540553   
795.500000	2.483196   
796.000000	2.439636   
796.500000	2.402325   
797.000000	2.366984   
797.500000	2.161757   
798.000000	2.013765   
798.500000	2.009090   
799.000000	2.226159   
799.500000	2.360553   
800.000000	2.134431   
800.500000	1.859780   
801.000000	1.902310   
801.500000	2.219863   
802.000000	2.327818   
802.500000	2.126749   
803.000000	2.044333   
803.500000	2.110189   
804.000000	2.090977   
804.500000	1.983886   
805.000000	1.911083   
805.500000	1.830545   
806.000000	1.772333   
806.500000	1.894106   
807.000000	1.956090   
807.500000	1.720742   
808.000000	1.373128   
808.500000	1.329068   
809.000000	1.549803   
809.500000	1.656166   
810.000000	1.529969   
810.500000	1.329280   
811.000000	1.200030   
811.500000	1.396022   
812.000000	1.654628   
812.500000	1.828636   
813.000000	1.621060   
813.500000	1.524886   
814.000000	1.532219   
814.500000	1.565113   
815.000000	1.502272   
815.500000	1.595886   
816.000000	1.790560   
816.500000	1.894666   
817.000000	1.818666   
817.500000	1.651500   
818.000000	1.455696   
818.500000	1.463462   
819.000000	1.449303   
819.500000	1.460515   
820.000000	1.416681   
820.500000	1.467825   
821.000000	1.527007   
821.500000	1.654734   
822.000000	1.799924   
822.500000	1.993613   
823.000000	2.106568   
823.500000	2.210939   
824.000000	2.294742   
824.500000	2.403409   
825.000000	2.321477   
825.500000	2.310015   
826.000000	2.276537   
826.500000	2.248681   
827.000000	2.084053   
827.500000	1.825037   
828.000000	1.712022   
828.500000	1.674439   
829.000000	1.655416   
829.500000	1.481333   
830.000000	1.434530   
830.500000	1.410651   
831.000000	1.379446   
831.500000	1.274106   
832.000000	1.140628   
832.500000	1.052659   
833.000000	0.995371   
833.500000	1.054090   
834.000000	1.126780   
834.500000	1.180681   
835.000000	1.131750   
835.500000	1.032916   
836.000000	0.958181   
836.500000	1.008121   
837.000000	1.063295   
837.500000	0.971893   
838.000000	0.832303   
838.500000	0.788325   
839.000000	0.827939   
839.500000	0.864393   
840.000000	0.860431   
840.500000	0.849606   
841.000000	0.741825   
841.500000	0.577901   
842.000000	0.481280   
842.500000	0.596954   
843.000000	0.743704   
843.500000	0.739348   
844.000000	0.560734   
844.500000	0.378931   
845.000000	0.421666   
845.500000	0.522303   
846.000000	0.627143   
846.500000	0.610189   
847.000000	0.557962   
847.500000	0.418015   
848.000000	0.366537   
848.500000	0.339000   
849.000000	0.380484   
849.500000	0.385931   
850.000000	0.291628   
850.500000	0.173015   
851.000000	0.091863   
851.500000	0.089431   
852.000000	0.107090   
852.500000	0.091901   
853.000000	0.006621   
853.500000	-0.039780  
854.000000	-0.009333  
854.500000	0.076696   
855.000000	0.130287   
855.500000	0.093575   
856.000000	0.066696   
856.500000	0.109734   
857.000000	0.138651   
857.500000	0.093522   
858.000000	0.031681   
858.500000	0.007257   
859.000000	0.011727   
859.500000	0.018287   
860.000000	0.022946   
860.500000	0.029409   
861.000000	0.009575   
861.500000	-0.050000  
862.000000	-0.058583  
862.500000	0.060371   
863.000000	0.181454   
863.500000	0.225825   
864.000000	0.116401   
864.500000	0.050212   
865.000000	0.047143   
865.500000	0.128272   
866.000000	0.085901   
866.500000	0.062666   
867.000000	0.070477   
867.500000	0.193681   
868.000000	0.125590   
868.500000	-0.011878  
869.000000	-0.073696  
869.500000	0.050340   
870.000000	0.101454   
870.500000	0.066931   
871.000000	0.033575   
871.500000	0.119909   
872.000000	0.089553   
872.500000	-0.092007  
873.000000	-0.307272  
873.500000	-0.304386  
874.000000	-0.113106  
874.500000	0.143500   
875.000000	0.179515   
875.500000	-0.033818  
876.000000	-0.292500  
876.500000	-0.348984  
877.000000	-0.184848  
877.500000	0.006575   
878.000000	0.048803   
878.500000	-0.013734  
879.000000	-0.056727  
879.500000	-0.016628  
880.000000	0.045075   
880.500000	-0.050992  
881.000000	-0.205090  
881.500000	-0.268666  
882.000000	-0.129143  
882.500000	-0.009568  
883.000000	0.061378   
883.500000	0.012106   
884.000000	-0.046522  
884.500000	-0.022310  
885.000000	0.041287   
885.500000	0.139613   
886.000000	0.128053   
886.500000	0.119060   
887.000000	0.086772   
887.500000	0.022545   
888.000000	-0.153469  
888.500000	-0.183537  
889.000000	-0.095151  
889.500000	0.003409   
890.000000	-0.021712  
890.500000	-0.059954  
891.000000	-0.062363  
891.500000	-0.084643  
892.000000	-0.154083  
892.500000	-0.146954  
893.000000	-0.036189  
893.500000	0.025310   
894.000000	0.016318   
894.500000	-0.030181  
895.000000	-0.013636  
895.500000	0.020734   
896.000000	0.027750   
896.500000	0.007068   
897.000000	-0.013234  
897.500000	-0.037083  

