PE FL                   SPECTRUM    ASCII       PEDS        1.60        
  -1
SAABC1~1.SP
24/04/12
17:23:18.00
24/04/12
17:23:18.00
Jan

897.500000
1









LS55
405.00
5.00
5.00
SCAN
1
20
100
100
0
400
0
1
0
1
5
ON
450 405 
1 0 0
#HDR
-1
-1
#GR
NM

0.00002384185791015625
0.0
450.000000
0.500000
896
8
195.794219
-0.392431
#DATA
450.000000	0.677999   
450.500000	0.202719   
451.000000	0.001303   
451.500000	0.134189   
452.000000	0.331969   
452.500000	0.320606   
453.000000	0.153477   
453.500000	0.033939   
454.000000	0.032757   
454.500000	0.010803   
455.000000	-0.022606  
455.500000	-0.023462  
456.000000	0.122325   
456.500000	0.226651   
457.000000	0.269522   
457.500000	0.047333   
458.000000	-0.207810  
458.500000	-0.326969  
459.000000	-0.161151  
459.500000	0.029295   
460.000000	0.052439   
460.500000	-0.046242  
461.000000	-0.158522  
461.500000	-0.141454  
462.000000	-0.091606  
462.500000	-0.041113  
463.000000	-0.051712  
463.500000	0.001356   
464.000000	0.058106   
464.500000	0.045454   
465.000000	-0.052916  
465.500000	-0.054340  
466.000000	0.085856   
466.500000	0.074219   
467.000000	-0.120977  
467.500000	-0.299181  
468.000000	-0.219598  
468.500000	-0.112143  
469.000000	-0.074303  
469.500000	-0.031007  
470.000000	0.021446   
470.500000	0.090166   
471.000000	-0.016409  
471.500000	-0.129090  
472.000000	-0.347166  
472.500000	-0.392431  
473.000000	-0.382378  
473.500000	-0.246537  
474.000000	-0.229462  
474.500000	-0.221159  
475.000000	-0.235159  
475.500000	-0.210083  
476.000000	-0.134681  
476.500000	-0.054295  
477.000000	-0.019454  
477.500000	-0.056446  
478.000000	-0.100583  
478.500000	-0.155992  
479.000000	-0.134295  
479.500000	-0.108416  
480.000000	-0.140583  
480.500000	-0.245098  
481.000000	-0.267787  
481.500000	-0.131462  
482.000000	0.029840   
482.500000	0.183159   
483.000000	0.291606   
483.500000	0.277159   
484.000000	-0.036022  
484.500000	-0.160545  
485.000000	-0.036098  
485.500000	0.241939   
486.000000	0.167310   
486.500000	0.123128   
487.000000	0.128234   
487.500000	0.210780   
488.000000	0.048560   
488.500000	-0.013363  
489.000000	0.058439   
489.500000	0.211227   
490.000000	0.295962   
490.500000	0.406356   
491.000000	0.465181   
491.500000	0.390136   
492.000000	0.297636   
492.500000	0.269590   
493.000000	0.228075   
493.500000	0.047772   
494.000000	-0.072462  
494.500000	0.035537   
495.000000	0.307106   
495.500000	0.376924   
496.000000	0.271348   
496.500000	0.196651   
497.000000	0.332931   
497.500000	0.451174   
498.000000	0.419886   
498.500000	0.394712   
499.000000	0.421151   
499.500000	0.412734   
500.000000	0.324863   
500.500000	0.380113   
501.000000	0.441772   
501.500000	0.423477   
502.000000	0.288606   
502.500000	0.336681   
503.000000	0.570871   
503.500000	0.810090   
504.000000	0.885863   
504.500000	0.729272   
505.000000	0.561893   
505.500000	0.505151   
506.000000	0.635196   
506.500000	0.716901   
507.000000	0.805045   
507.500000	0.855848   
508.000000	1.033818   
508.500000	1.135916   
509.000000	1.191628   
509.500000	1.107750   
510.000000	1.064181   
510.500000	1.088075   
511.000000	1.252174   
511.500000	1.352045   
512.000000	1.412204   
512.500000	1.374560   
513.000000	1.254810   
513.500000	1.235939   
514.000000	1.541113   
514.500000	1.833409   
515.000000	1.803810   
515.500000	1.478507   
516.000000	1.489265   
516.500000	1.731863   
517.000000	1.966704   
517.500000	2.058106   
518.000000	2.297681   
518.500000	2.578598   
519.000000	2.640477   
519.500000	2.539250   
520.000000	2.479515   
520.500000	2.680492   
521.000000	2.945393   
521.500000	3.155143   
522.000000	3.030242   
522.500000	2.892022   
523.000000	2.788022   
523.500000	2.883416   
524.000000	2.874765   
524.500000	3.073371   
525.000000	3.550090   
525.500000	4.074666   
526.000000	4.178166   
526.500000	3.881977   
527.000000	3.742333   
527.500000	3.982371   
528.000000	4.511219   
528.500000	4.822727   
529.000000	5.125856   
529.500000	5.484621   
530.000000	5.896530   
530.500000	6.036916   
531.000000	6.138924   
531.500000	6.480340   
532.000000	6.947121   
532.500000	7.213999   
533.000000	7.329060   
533.500000	7.623863   
534.000000	8.002257   
534.500000	8.174181   
535.000000	8.063136   
535.500000	8.049022   
536.000000	8.240712   
536.500000	8.661969   
537.000000	9.111318   
537.500000	9.704212   
538.000000	10.468946  
538.500000	11.303045  
539.000000	11.777757  
539.500000	12.024856  
540.000000	12.218060  
540.500000	12.437136  
541.000000	12.468454  
541.500000	12.316318  
542.000000	12.258446  
542.500000	12.462454  
543.000000	12.688606  
543.500000	12.575227  
544.000000	12.190924  
544.500000	11.985621  
545.000000	11.926530  
545.500000	12.015750  
546.000000	12.071424  
546.500000	12.227227  
547.000000	12.474992  
547.500000	12.699181  
548.000000	12.621500  
548.500000	12.224462  
549.000000	11.777727  
549.500000	11.522946  
550.000000	11.702000  
550.500000	12.039113  
551.000000	12.381386  
551.500000	12.550333  
552.000000	12.414818  
552.500000	12.192553  
553.000000	12.160689  
553.500000	12.537924  
554.000000	13.001507  
554.500000	13.304674  
555.000000	13.090166  
555.500000	13.078409  
556.000000	13.301189  
556.500000	13.687992  
557.000000	13.837340  
557.500000	14.130000  
558.000000	14.671181  
558.500000	15.458568  
559.000000	15.979333  
559.500000	16.303522  
560.000000	16.321022  
560.500000	16.412143  
561.000000	16.691522  
561.500000	17.313810  
562.000000	17.674939  
562.500000	17.911901  
563.000000	18.009295  
563.500000	18.497825  
564.000000	19.048393  
564.500000	19.878545  
565.000000	20.533704  
565.500000	20.998272  
566.000000	20.966871  
566.500000	21.017295  
567.000000	21.153181  
567.500000	21.434742  
568.000000	21.751416  
568.500000	22.547916  
569.000000	23.731416  
569.500000	24.735378  
570.000000	24.980916  
570.500000	25.141575  
571.000000	25.338681  
571.500000	25.713886  
572.000000	25.780250  
572.500000	25.733045  
573.000000	25.664757  
573.500000	25.856553  
574.000000	26.410242  
574.500000	27.706416  
575.000000	29.606340  
575.500000	30.856628  
576.000000	31.097015  
576.500000	30.490621  
577.000000	30.230871  
577.500000	30.424166  
578.000000	30.972886  
578.500000	31.764825  
579.000000	33.006689  
579.500000	34.014810  
580.000000	34.481303  
580.500000	34.994946  
581.000000	35.552522  
581.500000	36.102439  
582.000000	36.366939  
582.500000	36.911696  
583.000000	37.999742  
583.500000	39.317507  
584.000000	39.912356  
584.500000	40.257856  
585.000000	41.043257  
585.500000	42.197628  
586.000000	42.792901  
586.500000	43.060037  
587.000000	44.099939  
587.500000	46.125007  
588.000000	48.053106  
588.500000	48.774439  
589.000000	48.961507  
589.500000	49.025212  
590.000000	49.812075  
590.500000	50.760537  
591.000000	51.451886  
591.500000	51.806515  
592.000000	52.239568  
592.500000	53.254901  
593.000000	54.502477  
593.500000	56.069257  
594.000000	57.200621  
594.500000	58.203484  
595.000000	59.014325  
595.500000	60.145295  
596.000000	61.399704  
596.500000	62.819295  
597.000000	64.320424  
597.500000	66.133318  
598.000000	67.295931  
598.500000	67.569409  
599.000000	67.084075  
599.500000	67.415151  
600.000000	68.313931  
600.500000	70.004916  
601.000000	71.564537  
601.500000	73.360871  
602.000000	74.814659  
602.500000	75.798121  
603.000000	77.261356  
603.500000	78.898848  
604.000000	80.311424  
604.500000	79.940507  
605.000000	80.073348  
605.500000	81.592219  
606.000000	84.647583  
606.500000	86.536727  
607.000000	87.644977  
607.500000	89.114598  
608.000000	90.765022  
608.500000	91.468969  
609.000000	92.580000  
609.500000	95.777159  
610.000000	99.683386  
610.500000	101.473159 
611.000000	101.310598 
611.500000	101.138962 
612.000000	102.870962 
612.500000	105.558515 
613.000000	108.589727 
613.500000	110.661424 
614.000000	111.357386 
614.500000	111.549613 
615.000000	113.187863 
615.500000	115.379439 
616.000000	117.688098 
616.500000	119.240583 
617.000000	121.309393 
617.500000	123.235075 
618.000000	125.436439 
618.500000	127.583787 
619.000000	129.845590 
619.500000	131.378325 
620.000000	132.860424 
620.500000	135.404121 
621.000000	138.310310 
621.500000	140.631757 
622.000000	141.546560 
622.500000	142.630393 
623.000000	143.721424 
623.500000	145.342219 
624.000000	147.387227 
624.500000	150.238962 
625.000000	152.716871 
625.500000	154.893083 
626.000000	156.245083 
626.500000	158.297280 
627.000000	159.866734 
627.500000	161.064924 
628.000000	161.542522 
628.500000	163.352810 
629.000000	165.834659 
629.500000	169.005022 
630.000000	170.536742 
630.500000	171.787795 
631.000000	172.585674 
631.500000	174.125507 
632.000000	175.087651 
632.500000	177.093575 
633.000000	179.008924 
633.500000	180.977401 
634.000000	182.389689 
634.500000	183.524181 
635.000000	184.476636 
635.500000	185.098227 
636.000000	187.065053 
636.500000	188.733287 
637.000000	189.828090 
637.500000	189.671969 
638.000000	190.339227 
638.500000	190.787143 
639.000000	190.969780 
639.500000	191.885681 
640.000000	194.390287 
640.500000	195.794219 
641.000000	195.325818 
641.500000	193.647106 
642.000000	193.036878 
642.500000	193.615090 
643.000000	194.669621 
643.500000	194.112060 
644.000000	193.494984 
644.500000	192.987030 
645.000000	193.773424 
645.500000	193.457946 
646.000000	192.381333 
646.500000	191.539159 
647.000000	192.665015 
647.500000	192.622325 
648.000000	191.010431 
648.500000	189.446833 
649.000000	189.141204 
649.500000	189.164636 
650.000000	186.500984 
650.500000	183.262727 
651.000000	180.929674 
651.500000	180.447219 
652.000000	179.598340 
652.500000	178.650856 
653.000000	176.648030 
653.500000	174.623340 
654.000000	172.498106 
654.500000	170.643787 
655.000000	168.201787 
655.500000	165.293272 
656.000000	162.039340 
656.500000	159.525507 
657.000000	157.894727 
657.500000	156.564795 
658.000000	154.992340 
658.500000	152.638143 
659.000000	149.748219 
659.500000	146.079272 
660.000000	142.472401 
660.500000	139.141560 
661.000000	136.416939 
661.500000	133.511386 
662.000000	131.551613 
662.500000	129.329143 
663.000000	126.051166 
663.500000	121.862318 
664.000000	118.840143 
664.500000	116.511848 
665.000000	113.254984 
665.500000	109.242295 
666.000000	106.134795 
666.500000	104.268515 
667.000000	102.021363 
667.500000	99.363848  
668.000000	96.712333  
668.500000	94.768106  
669.000000	92.685946  
669.500000	90.354689  
670.000000	87.532386  
670.500000	84.707901  
671.000000	81.802909  
671.500000	79.588984  
672.000000	77.630083  
672.500000	75.819484  
673.000000	73.058189  
673.500000	69.855984  
674.000000	66.721439  
674.500000	65.006416  
675.000000	64.043143  
675.500000	62.953757  
676.000000	60.207856  
676.500000	57.283954  
677.000000	55.209128  
677.500000	54.147825  
678.000000	52.766628  
678.500000	50.800545  
679.000000	48.914818  
679.500000	47.408787  
680.000000	46.339795  
680.500000	44.759484  
681.000000	43.344484  
681.500000	41.771871  
682.000000	40.670590  
682.500000	39.596568  
683.000000	38.672378  
683.500000	37.565575  
684.000000	36.409901  
684.500000	35.090795  
685.000000	33.720371  
685.500000	32.549727  
686.000000	31.754613  
686.500000	31.559492  
687.000000	31.454257  
687.500000	30.504984  
688.000000	29.057916  
688.500000	27.352386  
689.000000	26.616022  
689.500000	26.389439  
690.000000	26.366242  
690.500000	25.766863  
691.000000	24.801371  
691.500000	23.794287  
692.000000	22.654181  
692.500000	21.641666  
693.000000	20.757393  
693.500000	20.439765  
694.000000	19.906507  
694.500000	19.717924  
695.000000	19.439553  
695.500000	19.438159  
696.000000	19.208780  
696.500000	18.785825  
697.000000	18.147045  
697.500000	17.612083  
698.000000	17.047863  
698.500000	16.334204  
699.000000	15.765878  
699.500000	15.393030  
700.000000	15.678787  
700.500000	15.724750  
701.000000	15.457295  
701.500000	14.590090  
702.000000	13.751856  
702.500000	12.885174  
703.000000	12.580287  
703.500000	12.323613  
704.000000	12.264166  
704.500000	12.085886  
705.000000	12.298189  
705.500000	12.221303  
706.000000	11.824439  
706.500000	10.711098  
707.000000	10.151174  
707.500000	10.129454  
708.000000	10.515765  
708.500000	10.594295  
709.000000	10.541083  
709.500000	10.316719  
710.000000	9.947984   
710.500000	9.704939   
711.000000	9.606848   
711.500000	9.549143   
712.000000	9.321015   
712.500000	8.988439   
713.000000	8.650340   
713.500000	8.267128   
714.000000	8.142477   
714.500000	8.175257   
715.000000	8.332969   
715.500000	8.106037   
716.000000	7.763924   
716.500000	7.372856   
717.000000	7.217318   
717.500000	7.311484   
718.000000	7.492280   
718.500000	7.600060   
719.000000	7.550386   
719.500000	7.430909   
720.000000	7.018462   
720.500000	6.670962   
721.000000	6.434053   
721.500000	6.398363   
722.000000	6.196000   
722.500000	6.029136   
723.000000	6.100871   
723.500000	6.387863   
724.000000	6.406424   
724.500000	6.085166   
725.000000	5.645916   
725.500000	5.505780   
726.000000	5.632363   
726.500000	5.987939   
727.000000	6.182803   
727.500000	6.180613   
728.000000	5.875424   
728.500000	5.494424   
729.000000	5.147371   
729.500000	5.151522   
730.000000	5.384143   
730.500000	5.622840   
731.000000	5.550515   
731.500000	5.363749   
732.000000	5.200992   
732.500000	5.379098   
733.000000	5.538121   
733.500000	5.559522   
734.000000	5.046090   
734.500000	4.529234   
735.000000	4.183946   
735.500000	4.277757   
736.000000	4.415265   
736.500000	4.688143   
737.000000	4.925871   
737.500000	5.177037   
738.000000	5.244242   
738.500000	5.286454   
739.000000	5.178856   
739.500000	4.963181   
740.000000	4.587946   
740.500000	4.457340   
741.000000	4.492772   
741.500000	4.567992   
742.000000	4.463212   
742.500000	4.292787   
743.000000	4.133833   
743.500000	4.012386   
744.000000	4.001871   
744.500000	4.245212   
745.000000	4.438863   
745.500000	4.243333   
746.000000	3.942606   
746.500000	3.768409   
747.000000	3.672515   
747.500000	3.565287   
748.000000	3.532878   
748.500000	3.734984   
749.000000	3.838469   
749.500000	3.777598   
750.000000	3.656992   
750.500000	3.745689   
751.000000	3.763696   
751.500000	3.925727   
752.000000	3.999833   
752.500000	4.120719   
753.000000	3.991106   
753.500000	3.815795   
754.000000	3.620416   
754.500000	3.621469   
755.000000	3.661022   
755.500000	3.797128   
756.000000	3.840090   
756.500000	3.765696   
757.000000	3.558674   
757.500000	3.379696   
758.000000	3.245840   
758.500000	3.114803   
759.000000	2.990742   
759.500000	3.125522   
760.000000	3.456242   
760.500000	3.698303   
761.000000	3.618015   
761.500000	3.422416   
762.000000	3.313007   
762.500000	3.355818   
763.000000	3.351583   
763.500000	3.403204   
764.000000	3.451469   
764.500000	3.470643   
765.000000	3.368409   
765.500000	3.286348   
766.000000	3.257856   
766.500000	3.347333   
767.000000	3.440174   
767.500000	3.485356   
768.000000	3.396742   
768.500000	3.247045   
769.000000	3.111378   
769.500000	3.035719   
770.000000	2.963204   
770.500000	2.926787   
771.000000	2.960810   
771.500000	3.056992   
772.000000	3.133181   
772.500000	3.062916   
773.000000	2.884863   
773.500000	2.739977   
774.000000	2.737803   
774.500000	2.738969   
775.000000	2.703969   
775.500000	2.745522   
776.000000	2.967212   
776.500000	3.128371   
777.000000	3.143242   
777.500000	3.105234   
778.000000	3.104015   
778.500000	3.042409   
779.000000	2.956068   
779.500000	2.911340   
780.000000	2.911022   
780.500000	2.807143   
781.000000	2.703151   
781.500000	2.676977   
782.000000	2.790136   
782.500000	2.828909   
783.000000	2.851765   
783.500000	2.741621   
784.000000	2.615848   
784.500000	2.507810   
785.000000	2.575409   
785.500000	2.770787   
786.000000	2.863818   
786.500000	2.786030   
787.000000	2.622787   
787.500000	2.538212   
788.000000	2.485378   
788.500000	2.391333   
789.000000	2.302825   
789.500000	2.281704   
790.000000	2.327977   
790.500000	2.400727   
791.000000	2.472492   
791.500000	2.582189   
792.000000	2.604007   
792.500000	2.649242   
793.000000	2.648575   
793.500000	2.587310   
794.000000	2.438583   
794.500000	2.381583   
795.000000	2.412803   
795.500000	2.463409   
796.000000	2.544590   
796.500000	2.486969   
797.000000	2.394000   
797.500000	2.197250   
798.000000	2.163553   
798.500000	2.314848   
799.000000	2.494477   
799.500000	2.490401   
800.000000	2.339969   
800.500000	2.179734   
801.000000	2.063954   
801.500000	1.982143   
802.000000	1.843393   
802.500000	1.814712   
803.000000	1.785674   
803.500000	1.776348   
804.000000	1.691189   
804.500000	1.782583   
805.000000	1.840606   
805.500000	1.910219   
806.000000	1.926969   
806.500000	2.026878   
807.000000	1.995560   
807.500000	1.857166   
808.000000	1.618931   
808.500000	1.563492   
809.000000	1.633250   
809.500000	1.721136   
810.000000	1.711477   
810.500000	1.602651   
811.000000	1.507886   
811.500000	1.593227   
812.000000	1.756795   
812.500000	1.774462   
813.000000	1.656787   
813.500000	1.539431   
814.000000	1.617030   
814.500000	1.642151   
815.000000	1.558477   
815.500000	1.463416   
816.000000	1.419196   
816.500000	1.362484   
817.000000	1.337954   
817.500000	1.449507   
818.000000	1.650166   
818.500000	1.820409   
819.000000	1.742833   
819.500000	1.547439   
820.000000	1.342295   
820.500000	1.390446   
821.000000	1.544757   
821.500000	1.820250   
822.000000	2.011454   
822.500000	2.034340   
823.000000	1.901265   
823.500000	1.897984   
824.000000	2.128674   
824.500000	2.426545   
825.000000	2.342674   
825.500000	2.130537   
826.000000	1.980719   
826.500000	2.071030   
827.000000	2.062250   
827.500000	2.019113   
828.000000	1.846075   
828.500000	1.915666   
829.000000	1.865265   
829.500000	1.691886   
830.000000	1.473371   
830.500000	1.371280   
831.000000	1.361962   
831.500000	1.374742   
832.000000	1.353098   
832.500000	1.298060   
833.000000	1.227568   
833.500000	1.096386   
834.000000	1.051954   
834.500000	1.027946   
835.000000	1.024303   
835.500000	1.029530   
836.000000	1.075863   
836.500000	1.074909   
837.000000	1.046780   
837.500000	0.923325   
838.000000	0.848136   
838.500000	0.783666   
839.000000	0.810113   
839.500000	0.833053   
840.000000	0.864181   
840.500000	0.805522   
841.000000	0.651075   
841.500000	0.535515   
842.000000	0.613734   
842.500000	0.731719   
843.000000	0.634666   
843.500000	0.387060   
844.000000	0.308227   
844.500000	0.454401   
845.000000	0.599856   
845.500000	0.562598   
846.000000	0.434484   
846.500000	0.416015   
847.000000	0.409977   
847.500000	0.471378   
848.000000	0.486984   
848.500000	0.499068   
849.000000	0.473606   
849.500000	0.468590   
850.000000	0.493250   
850.500000	0.464060   
851.000000	0.342386   
851.500000	0.105212   
852.000000	-0.009106  
852.500000	0.074318   
853.000000	0.153378   
853.500000	0.180325   
854.000000	0.160045   
854.500000	0.353780   
855.000000	0.435977   
855.500000	0.445931   
856.000000	0.270454   
856.500000	0.257962   
857.000000	0.266712   
857.500000	0.205068   
858.000000	0.053340   
858.500000	0.003636   
859.000000	0.012939   
859.500000	-0.019098  
860.000000	-0.121946  
860.500000	-0.152560  
861.000000	-0.027765  
861.500000	0.039287   
862.000000	0.008568   
862.500000	-0.005484  
863.000000	0.072128   
863.500000	0.141371   
864.000000	0.134143   
864.500000	0.085893   
865.000000	0.012636   
865.500000	-0.112916  
866.000000	-0.200356  
866.500000	-0.119424  
867.000000	-0.008499  
867.500000	0.056628   
868.000000	0.110280   
868.500000	0.167356   
869.000000	0.138848   
869.500000	-0.044522  
870.000000	-0.166833  
870.500000	-0.140560  
871.000000	-0.035636  
871.500000	0.016378   
872.000000	-0.023765  
872.500000	-0.120439  
873.000000	-0.171128  
873.500000	-0.165333  
874.000000	-0.125363  
874.500000	-0.210439  
875.000000	-0.311325  
875.500000	-0.323393  
876.000000	-0.138795  
876.500000	0.106568   
877.000000	0.278583   
877.500000	0.217674   
878.000000	-0.016583  
878.500000	-0.216037  
879.000000	-0.214219  
879.500000	-0.047234  
880.000000	0.067590   
880.500000	0.008227   
881.000000	-0.050840  
881.500000	-0.067439  
882.000000	-0.007128  
882.500000	0.099295   
883.000000	0.226477   
883.500000	0.286363   
884.000000	0.129833   
884.500000	0.051068   
885.000000	0.041537   
885.500000	0.087590   
886.000000	-0.078969  
886.500000	-0.226621  
887.000000	-0.254068  
887.500000	-0.122848  
888.000000	0.037522   
888.500000	0.129409   
889.000000	0.103356   
889.500000	-0.064893  
890.000000	-0.125893  
890.500000	-0.143560  
891.000000	-0.015962  
891.500000	0.135401   
892.000000	0.250128   
892.500000	0.136871   
893.000000	-0.003280  
893.500000	-0.154303  
894.000000	-0.203795  
894.500000	-0.260409  
895.000000	-0.223856  
895.500000	-0.130992  
896.000000	-0.061068  
896.500000	-0.057530  
897.000000	-0.028969  
897.500000	-0.012712  

