PE FL                   SPECTRUM    ASCII       PEDS        1.60        
  -1
SAA3B1~1.SP
24/04/12
17:19:02.00
24/04/12
17:19:02.00
Jan

897.500000
1









LS55
405.00
5.00
5.00
SCAN
1
20
100
100
0
400
0
1
0
1
5
ON
450 405 
1 0 0
#HDR
-1
-1
#GR
NM

0.00002384185791015625
0.0
450.000000
0.500000
896
8
200.561681
-0.489537
#DATA
450.000000	0.267000   
450.500000	0.030166   
451.000000	-0.016053  
451.500000	0.078666   
452.000000	0.243689   
452.500000	0.302568   
453.000000	0.281727   
453.500000	-0.002507  
454.000000	-0.289295  
454.500000	-0.392984  
455.000000	-0.255856  
455.500000	-0.111075  
456.000000	-0.025378  
456.500000	0.088227   
457.000000	0.056000   
457.500000	-0.097219  
458.000000	-0.293939  
458.500000	-0.124295  
459.000000	0.024598   
459.500000	0.072212   
460.000000	-0.019734  
460.500000	0.032492   
461.000000	0.160371   
461.500000	0.268378   
462.000000	0.248856   
462.500000	0.155651   
463.000000	0.070287   
463.500000	0.096053   
464.000000	0.221022   
464.500000	0.151742   
465.000000	-0.030795  
465.500000	-0.183242  
466.000000	-0.169750  
466.500000	-0.137962  
467.000000	-0.119856  
467.500000	-0.129598  
468.000000	-0.113977  
468.500000	-0.155984  
469.000000	-0.165469  
469.500000	-0.027196  
470.000000	0.123393   
470.500000	0.074234   
471.000000	-0.138454  
471.500000	-0.307772  
472.000000	-0.173780  
472.500000	0.078068   
473.000000	0.258545   
473.500000	0.217840   
474.000000	0.086810   
474.500000	0.029409   
475.000000	0.041939   
475.500000	0.144356   
476.000000	0.245840   
476.500000	0.360765   
477.000000	0.307848   
477.500000	0.115590   
478.000000	-0.069318  
478.500000	-0.110113  
479.000000	0.016204   
479.500000	0.186401   
480.000000	0.116886   
480.500000	-0.015659  
481.000000	-0.080250  
481.500000	0.150030   
482.000000	0.214590   
482.500000	0.199969   
483.000000	0.086318   
483.500000	0.250848   
484.000000	0.305803   
484.500000	0.231265   
485.000000	0.070060   
485.500000	0.046909   
486.000000	0.089121   
486.500000	0.066174   
487.000000	-0.054999  
487.500000	-0.131765  
488.000000	-0.098734  
488.500000	-0.012143  
489.000000	-0.001590  
489.500000	-0.074560  
490.000000	-0.180227  
490.500000	-0.166924  
491.000000	-0.019257  
491.500000	0.210901   
492.000000	0.276530   
492.500000	0.169613   
493.000000	0.108734   
493.500000	0.251477   
494.000000	0.460143   
494.500000	0.558431   
495.000000	0.555704   
495.500000	0.594553   
496.000000	0.535696   
496.500000	0.379098   
497.000000	0.179780   
497.500000	0.123924   
498.000000	0.119636   
498.500000	0.185590   
499.000000	0.180500   
499.500000	0.197863   
500.000000	0.176515   
500.500000	0.234250   
501.000000	0.273628   
501.500000	0.391643   
502.000000	0.429757   
502.500000	0.544250   
503.000000	0.628227   
503.500000	0.779757   
504.000000	0.748386   
504.500000	0.687545   
505.000000	0.633522   
505.500000	0.736878   
506.000000	0.830113   
506.500000	0.918272   
507.000000	0.996128   
507.500000	1.063022   
508.000000	1.083909   
508.500000	1.046628   
509.000000	0.963401   
509.500000	0.885416   
510.000000	0.939772   
510.500000	1.109962   
511.000000	1.299409   
511.500000	1.380810   
512.000000	1.321893   
512.500000	1.286909   
513.000000	1.338575   
513.500000	1.523530   
514.000000	1.709590   
514.500000	1.740409   
515.000000	1.691954   
515.500000	1.666492   
516.000000	1.804590   
516.500000	1.693765   
517.000000	1.604090   
517.500000	1.646045   
518.000000	2.117280   
518.500000	2.440356   
519.000000	2.620030   
519.500000	2.604712   
520.000000	2.740969   
520.500000	2.667924   
521.000000	2.573181   
521.500000	2.535553   
522.000000	2.758333   
522.500000	2.933659   
523.000000	3.003825   
523.500000	2.899765   
524.000000	2.821499   
524.500000	2.837833   
525.000000	2.996856   
525.500000	3.251901   
526.000000	3.363121   
526.500000	3.675340   
527.000000	4.099022   
527.500000	4.528901   
528.000000	4.719727   
528.500000	5.043075   
529.000000	5.372083   
529.500000	5.565954   
530.000000	5.538893   
530.500000	5.710628   
531.000000	5.974416   
531.500000	6.161128   
532.000000	6.446340   
532.500000	6.859068   
533.000000	7.058560   
533.500000	7.032348   
534.000000	7.069242   
534.500000	7.463583   
535.000000	7.966136   
535.500000	8.366439   
536.000000	8.505136   
536.500000	8.874037   
537.000000	9.418030   
537.500000	10.080984  
538.000000	10.283340  
538.500000	10.278401  
539.000000	10.465863  
539.500000	10.945568  
540.000000	11.482893  
540.500000	11.824689  
541.000000	12.055446  
541.500000	12.159136  
542.000000	12.323090  
542.500000	12.316363  
543.000000	12.369818  
543.500000	12.536939  
544.000000	12.698219  
544.500000	12.595257  
545.000000	12.211893  
545.500000	11.895037  
546.000000	11.816363  
546.500000	11.747977  
547.000000	11.778128  
547.500000	12.017416  
548.000000	12.360181  
548.500000	12.548265  
549.000000	12.379840  
549.500000	12.172030  
550.000000	12.020045  
550.500000	12.038295  
551.000000	11.993113  
551.500000	11.987636  
552.000000	11.796613  
552.500000	11.914045  
553.000000	12.240287  
553.500000	12.590045  
554.000000	12.397765  
554.500000	12.132924  
555.000000	12.281977  
555.500000	13.348681  
556.000000	14.097416  
556.500000	14.128181  
557.000000	13.499537  
557.500000	13.448204  
558.000000	13.833863  
558.500000	14.497500  
559.000000	14.996833  
559.500000	15.613681  
560.000000	16.193795  
560.500000	16.679363  
561.000000	16.824136  
561.500000	16.910189  
562.000000	16.866803  
562.500000	17.182507  
563.000000	17.857674  
563.500000	18.663348  
564.000000	19.197363  
564.500000	19.574840  
565.000000	19.832598  
565.500000	19.990560  
566.000000	20.258454  
566.500000	20.741083  
567.000000	21.239909  
567.500000	21.393174  
568.000000	21.778977  
568.500000	22.850931  
569.000000	23.899984  
569.500000	23.998795  
570.000000	23.674962  
570.500000	23.930568  
571.000000	24.654750  
571.500000	25.348553  
572.000000	25.520204  
572.500000	25.866833  
573.000000	26.432257  
573.500000	27.409257  
574.000000	27.757977  
574.500000	27.932106  
575.000000	27.827295  
575.500000	28.124310  
576.000000	28.680666  
576.500000	29.365727  
577.000000	30.309666  
577.500000	30.810143  
578.000000	31.168424  
578.500000	31.410613  
579.000000	32.213984  
579.500000	32.973257  
580.000000	33.687749  
580.500000	34.046590  
581.000000	34.224000  
581.500000	34.484590  
582.000000	35.432742  
582.500000	36.751704  
583.000000	37.758704  
583.500000	37.665189  
584.000000	37.614878  
584.500000	38.069674  
585.000000	39.377272  
585.500000	40.539537  
586.000000	41.739878  
586.500000	42.381803  
587.000000	42.804742  
587.500000	43.515719  
588.000000	45.110333  
588.500000	46.653250  
589.000000	47.699628  
589.500000	48.057833  
590.000000	48.485893  
590.500000	49.526750  
591.000000	51.236696  
591.500000	52.958196  
592.000000	53.920856  
592.500000	53.903575  
593.000000	53.831037  
593.500000	54.288818  
594.000000	55.554886  
594.500000	57.257409  
595.000000	58.558068  
595.500000	58.922196  
596.000000	59.580969  
596.500000	61.139446  
597.000000	63.190250  
597.500000	64.969863  
598.000000	65.935250  
598.500000	66.032507  
599.000000	65.989393  
599.500000	66.729303  
600.000000	68.960416  
600.500000	71.007098  
601.000000	72.119212  
601.500000	72.368681  
602.000000	73.157962  
602.500000	74.924848  
603.000000	76.696477  
603.500000	77.930022  
604.000000	78.564196  
604.500000	79.892795  
605.000000	80.884113  
605.500000	81.796196  
606.000000	83.428946  
606.500000	85.954651  
607.000000	87.592507  
607.500000	88.033545  
608.000000	89.114750  
608.500000	91.439303  
609.000000	93.862409  
609.500000	95.357742  
610.000000	96.644030  
610.500000	97.875310  
611.000000	98.491575  
611.500000	99.706833  
612.000000	102.369151 
612.500000	106.113500 
613.000000	109.180568 
613.500000	110.413939 
614.000000	110.818113 
614.500000	111.956424 
615.000000	114.183257 
615.500000	116.420825 
616.000000	118.127878 
616.500000	119.166325 
617.000000	120.408204 
617.500000	121.631386 
618.000000	123.746931 
618.500000	126.692696 
619.000000	129.371568 
619.500000	130.588257 
620.000000	130.549356 
620.500000	132.527265 
621.000000	135.980189 
621.500000	139.629007 
622.000000	141.058136 
622.500000	142.265636 
623.000000	143.507189 
623.500000	145.553856 
624.000000	147.152431 
624.500000	148.918757 
625.000000	151.042143 
625.500000	152.609265 
626.000000	154.407575 
626.500000	157.321613 
627.000000	160.562924 
627.500000	162.506234 
628.000000	163.172500 
628.500000	164.449234 
629.000000	167.115363 
629.500000	169.700212 
630.000000	171.363484 
630.500000	172.641515 
631.000000	174.488750 
631.500000	176.237553 
632.000000	177.989303 
632.500000	179.941901 
633.000000	182.716492 
633.500000	184.777424 
634.000000	185.690863 
634.500000	185.500946 
635.000000	185.850984 
635.500000	186.806265 
636.000000	188.869560 
636.500000	189.319227 
637.000000	189.419000 
637.500000	189.099500 
638.000000	191.488530 
638.500000	192.599000 
639.000000	192.507037 
639.500000	190.839295 
640.000000	192.851477 
640.500000	195.029310 
641.000000	196.713340 
641.500000	195.496560 
642.000000	195.629000 
642.500000	197.475765 
643.000000	200.440484 
643.500000	200.561681 
644.000000	199.051598 
644.500000	197.499712 
645.000000	196.748310 
645.500000	195.754424 
646.000000	194.457212 
646.500000	193.990212 
647.000000	195.008598 
647.500000	195.901159 
648.000000	194.520424 
648.500000	191.936727 
649.000000	190.125939 
649.500000	190.477931 
650.000000	190.439113 
650.500000	188.934833 
651.000000	187.372363 
651.500000	187.520590 
652.000000	187.490083 
652.500000	185.469030 
653.000000	181.928227 
653.500000	178.308121 
654.000000	175.897568 
654.500000	174.661242 
655.000000	173.757750 
655.500000	172.644530 
656.000000	169.919333 
656.500000	167.247507 
657.000000	164.719015 
657.500000	163.051113 
658.000000	160.500106 
658.500000	158.141454 
659.000000	155.294371 
659.500000	151.793659 
660.000000	147.145022 
660.500000	142.868219 
661.000000	140.002280 
661.500000	137.994128 
662.000000	137.004287 
662.500000	135.505681 
663.000000	133.184386 
663.500000	129.198606 
664.000000	124.751196 
664.500000	120.465666 
665.000000	117.226772 
665.500000	114.843742 
666.000000	113.016500 
666.500000	111.102098 
667.000000	108.725674 
667.500000	106.390924 
668.000000	102.993931 
668.500000	99.921696  
669.000000	96.867977  
669.500000	94.748780  
670.000000	91.639401  
670.500000	88.230992  
671.000000	84.751196  
671.500000	82.569348  
672.000000	81.040825  
672.500000	79.276477  
673.000000	76.651803  
673.500000	73.482484  
674.000000	71.133045  
674.500000	69.390962  
675.000000	67.828795  
675.500000	65.977863  
676.000000	63.619303  
676.500000	61.489689  
677.000000	59.482151  
677.500000	57.660310  
678.000000	55.632227  
678.500000	53.771053  
679.000000	52.593772  
679.500000	51.561106  
680.000000	50.029818  
680.500000	47.433825  
681.000000	45.293484  
681.500000	44.110454  
682.000000	43.944537  
682.500000	43.413098  
683.000000	42.403901  
683.500000	41.053659  
684.000000	39.520628  
684.500000	38.416704  
685.000000	37.453803  
685.500000	36.487674  
686.000000	34.447522  
686.500000	32.532424  
687.000000	31.323848  
687.500000	31.140719  
688.000000	30.833007  
688.500000	30.253257  
689.000000	29.669924  
689.500000	28.812090  
690.000000	27.436651  
690.500000	25.748454  
691.000000	24.406340  
691.500000	23.962909  
692.000000	23.902606  
692.500000	23.589803  
693.000000	22.738439  
693.500000	22.022257  
694.000000	21.312439  
694.500000	20.773401  
695.000000	20.194507  
695.500000	19.873507  
696.000000	19.430083  
696.500000	19.151916  
697.000000	18.666159  
697.500000	18.107446  
698.000000	17.201507  
698.500000	16.569424  
699.000000	16.146287  
699.500000	16.029719  
700.000000	16.031681  
700.500000	15.934666  
701.000000	15.414234  
701.500000	14.678318  
702.000000	14.146015  
702.500000	13.919590  
703.000000	13.688424  
703.500000	13.317636  
704.000000	12.883954  
704.500000	12.644992  
705.000000	12.480219  
705.500000	12.231212  
706.000000	11.635787  
706.500000	10.882287  
707.000000	10.475946  
707.500000	10.530181  
708.000000	10.672287  
708.500000	10.472166  
709.000000	10.131060  
709.500000	9.929969   
710.000000	9.885590   
710.500000	9.430643   
711.000000	8.938424   
711.500000	9.049833   
712.000000	9.564265   
712.500000	9.697151   
713.000000	9.071939   
713.500000	8.629833   
714.000000	8.664287   
714.500000	8.998083   
715.000000	8.802416   
715.500000	8.274106   
716.000000	7.925765   
716.500000	8.052356   
717.000000	8.429704   
717.500000	8.362825   
718.000000	7.942378   
718.500000	7.507977   
719.000000	7.461719   
719.500000	7.472356   
720.000000	7.423166   
720.500000	7.373500   
721.000000	7.423749   
721.500000	7.433030   
722.000000	7.018143   
722.500000	6.562007   
723.000000	6.439507   
723.500000	6.657621   
724.000000	6.749075   
724.500000	6.646810   
725.000000	6.416037   
725.500000	6.388848   
726.000000	6.301651   
726.500000	6.033674   
727.000000	5.788250   
727.500000	5.794060   
728.000000	6.015477   
728.500000	6.211234   
729.000000	6.103030   
729.500000	5.907719   
730.000000	5.631045   
730.500000	5.452000   
731.000000	5.314946   
731.500000	5.458446   
732.000000	5.412977   
732.500000	5.272189   
733.000000	5.162727   
733.500000	5.230136   
734.000000	5.202030   
734.500000	5.002280   
735.000000	4.736606   
735.500000	4.715393   
736.000000	4.904530   
736.500000	5.030765   
737.000000	4.892174   
737.500000	4.721015   
738.000000	4.627356   
738.500000	4.662340   
739.000000	4.550431   
739.500000	4.507159   
740.000000	4.482143   
740.500000	4.387765   
741.000000	4.200727   
741.500000	4.209431   
742.000000	4.285924   
742.500000	4.337037   
743.000000	4.077833   
743.500000	3.824446   
744.000000	3.820583   
744.500000	4.261106   
745.000000	4.663030   
745.500000	4.588409   
746.000000	4.169439   
746.500000	4.035250   
747.000000	4.270424   
747.500000	4.456166   
748.000000	4.237174   
748.500000	3.913128   
749.000000	3.696219   
749.500000	3.795560   
750.000000	3.973060   
750.500000	4.054030   
751.000000	3.929500   
751.500000	3.760045   
752.000000	3.748053   
752.500000	3.678992   
753.000000	3.570053   
753.500000	3.433537   
754.000000	3.532325   
754.500000	3.588310   
755.000000	3.494333   
755.500000	3.307810   
756.000000	3.188075   
756.500000	3.339416   
757.000000	3.549568   
757.500000	3.683272   
758.000000	3.421757   
758.500000	3.319068   
759.000000	3.633174   
759.500000	4.052000   
760.000000	3.966196   
760.500000	3.477515   
761.000000	3.111272   
761.500000	3.114568   
762.000000	3.211227   
762.500000	3.227166   
763.000000	3.233022   
763.500000	3.259537   
764.000000	3.334810   
764.500000	3.437984   
765.000000	3.541848   
765.500000	3.615340   
766.000000	3.668000   
766.500000	3.554356   
767.000000	3.379696   
767.500000	3.180431   
768.000000	3.116590   
768.500000	3.125893   
769.000000	3.088795   
769.500000	3.113681   
770.000000	3.193083   
770.500000	3.208636   
771.000000	3.065234   
771.500000	2.979272   
772.000000	3.039454   
772.500000	3.076992   
773.000000	2.994522   
773.500000	2.841590   
774.000000	2.861719   
774.500000	2.995727   
775.000000	3.105090   
775.500000	3.054219   
776.000000	2.883765   
776.500000	2.808227   
777.000000	2.914977   
777.500000	3.061492   
778.000000	3.071128   
778.500000	3.030893   
779.000000	3.018825   
779.500000	2.983765   
780.000000	2.923015   
780.500000	2.739553   
781.000000	2.407742   
781.500000	2.094325   
782.000000	2.219325   
782.500000	2.518030   
783.000000	2.672825   
783.500000	2.596363   
784.000000	2.560265   
784.500000	2.601780   
785.000000	2.628651   
785.500000	2.647522   
786.000000	2.699871   
786.500000	2.747954   
787.000000	2.643568   
787.500000	2.638537   
788.000000	2.708234   
788.500000	2.832727   
789.000000	2.823250   
789.500000	2.594931   
790.000000	2.346606   
790.500000	2.325984   
791.000000	2.536757   
791.500000	2.712166   
792.000000	2.780795   
792.500000	2.793295   
793.000000	2.800181   
793.500000	2.669689   
794.000000	2.440750   
794.500000	2.326833   
795.000000	2.318977   
795.500000	2.265212   
796.000000	2.068931   
796.500000	1.975000   
797.000000	1.966772   
797.500000	1.908181   
798.000000	1.799272   
798.500000	1.854787   
799.000000	2.122378   
799.500000	2.286962   
800.000000	2.197477   
800.500000	1.820734   
801.000000	1.613000   
801.500000	1.605280   
802.000000	1.879121   
802.500000	2.077772   
803.000000	2.202143   
803.500000	2.173318   
804.000000	2.091416   
804.500000	1.941492   
805.000000	1.772477   
805.500000	1.632583   
806.000000	1.573310   
806.500000	1.592030   
807.000000	1.663598   
807.500000	1.696924   
808.000000	1.745181   
808.500000	1.776159   
809.000000	1.702856   
809.500000	1.582954   
810.000000	1.571583   
810.500000	1.776689   
811.000000	1.872628   
811.500000	1.769053   
812.000000	1.491659   
812.500000	1.478128   
813.000000	1.516219   
813.500000	1.506454   
814.000000	1.290681   
814.500000	1.126363   
815.000000	1.145742   
815.500000	1.339659   
816.000000	1.605181   
816.500000	1.692250   
817.000000	1.639166   
817.500000	1.471575   
818.000000	1.486575   
818.500000	1.339696   
819.000000	1.105030   
819.500000	0.974348   
820.000000	1.385553   
820.500000	1.925136   
821.000000	2.039090   
821.500000	1.746901   
822.000000	1.543856   
822.500000	1.723765   
823.000000	2.034265   
823.500000	2.308575   
824.000000	2.321174   
824.500000	2.212689   
825.000000	2.065090   
825.500000	2.116515   
826.000000	2.123522   
826.500000	2.137946   
827.000000	2.095590   
827.500000	2.182234   
828.000000	2.037378   
828.500000	1.798371   
829.000000	1.546621   
829.500000	1.595143   
830.000000	1.621416   
830.500000	1.629484   
831.000000	1.484113   
831.500000	1.348704   
832.000000	1.101113   
832.500000	0.928143   
833.000000	0.908348   
833.500000	1.100250   
834.000000	1.217712   
834.500000	1.212628   
835.000000	1.103772   
835.500000	1.012719   
836.000000	0.888999   
836.500000	0.820378   
837.000000	0.859575   
837.500000	0.980234   
838.000000	0.983371   
838.500000	0.957136   
839.000000	0.919909   
839.500000	0.953750   
840.000000	0.936007   
840.500000	0.957174   
841.000000	0.924848   
841.500000	0.887636   
842.000000	0.769901   
842.500000	0.692310   
843.000000	0.597060   
843.500000	0.554454   
844.000000	0.508015   
844.500000	0.498280   
845.000000	0.446462   
845.500000	0.407522   
846.000000	0.392280   
846.500000	0.438356   
847.000000	0.418189   
847.500000	0.355719   
848.000000	0.297515   
848.500000	0.260348   
849.000000	0.262848   
849.500000	0.186037   
850.000000	0.134318   
850.500000	0.107000   
851.000000	0.176545   
851.500000	0.108189   
852.000000	0.009696   
852.500000	-0.052712  
853.000000	0.046340   
853.500000	0.052590   
854.000000	0.011007   
854.500000	0.116507   
855.000000	0.309386   
855.500000	0.326030   
856.000000	0.123568   
856.500000	-0.010053  
857.000000	0.031136   
857.500000	0.117060   
858.000000	0.109977   
858.500000	0.017431   
859.000000	-0.091181  
859.500000	-0.149325  
860.000000	-0.139393  
860.500000	-0.110916  
861.000000	-0.082265  
861.500000	-0.037772  
862.000000	-0.007204  
862.500000	0.005492   
863.000000	-0.157257  
863.500000	-0.362939  
864.000000	-0.489537  
864.500000	-0.266431  
865.000000	-0.010590  
865.500000	0.091545   
866.000000	-0.005939  
866.500000	0.040386   
867.000000	0.094780   
867.500000	0.091469   
868.000000	-0.044333  
868.500000	-0.081969  
869.000000	-0.074348  
869.500000	-0.027151  
870.000000	-0.076856  
870.500000	-0.022856  
871.000000	0.070462   
871.500000	0.125053   
872.000000	0.059378   
872.500000	0.013946   
873.000000	0.016469   
873.500000	0.030318   
874.000000	0.050401   
874.500000	0.008878   
875.000000	-0.012916  
875.500000	-0.087204  
876.000000	-0.106651  
876.500000	-0.085318  
877.000000	-0.084257  
877.500000	-0.137924  
878.000000	-0.251022  
878.500000	-0.251939  
879.000000	-0.147886  
879.500000	0.053083   
880.000000	0.058795   
880.500000	-0.026893  
881.000000	-0.084878  
881.500000	0.038606   
882.000000	0.117484   
882.500000	0.085939   
883.000000	-0.008113  
883.500000	-0.044666  
884.000000	-0.031469  
884.500000	-0.060734  
885.000000	-0.160522  
885.500000	-0.230393  
886.000000	-0.187568  
886.500000	-0.095712  
887.000000	-0.041666  
887.500000	-0.086590  
888.000000	-0.105424  
888.500000	-0.003659  
889.000000	0.114628   
889.500000	0.154916   
890.000000	0.066810   
890.500000	-0.027962  
891.000000	-0.032280  
891.500000	0.046742   
892.000000	0.022098   
892.500000	-0.155848  
893.000000	-0.243568  
893.500000	-0.162121  
894.000000	0.038128   
894.500000	0.043098   
895.000000	0.020424   
895.500000	0.027378   
896.000000	0.123765   
896.500000	0.076666   
897.000000	-0.022333  
897.500000	-0.165992  

