PE FL                   SPECTRUM    ASCII       PEDS        1.60        
  -1
SA83C5~1.SP
24/04/12
15:42:03.00
24/04/12
15:42:03.00
Jan

897.500000
1









LS55
405.00
5.00
5.00
SCAN
1
20
100
100
0
400
0
1
0
1
5
ON
450 405 
1 0 0
#HDR
-1
-1
#GR
NM

0.00002384185791015625
0.0
450.000000
0.500000
896
8
374.855530
-0.247409
#DATA
450.000000	-0.133000  
450.500000	-0.155689  
451.000000	-0.169674  
451.500000	-0.155356  
452.000000	-0.148530  
452.500000	-0.080818  
453.000000	-0.012196  
453.500000	0.121590   
454.000000	0.203439   
454.500000	0.158636   
455.000000	0.014674   
455.500000	-0.138833  
456.000000	-0.127454  
456.500000	-0.016681  
457.000000	0.103583   
457.500000	0.172689   
458.000000	0.334053   
458.500000	0.443886   
459.000000	0.307613   
459.500000	0.037250   
460.000000	-0.062492  
460.500000	0.068265   
461.000000	0.223750   
461.500000	0.270939   
462.000000	0.225106   
462.500000	0.166318   
463.000000	0.163689   
463.500000	0.111878   
464.000000	-0.019962  
464.500000	-0.199833  
465.000000	-0.197469  
465.500000	-0.039719  
466.000000	0.150060   
466.500000	0.373863   
467.000000	0.469280   
467.500000	0.410568   
468.000000	0.179234   
468.500000	0.116931   
469.000000	0.089098   
469.500000	0.141893   
470.000000	0.210659   
470.500000	0.422454   
471.000000	0.526810   
471.500000	0.308196   
472.000000	0.111825   
472.500000	-0.081537  
473.000000	-0.047636  
473.500000	-0.192863  
474.000000	-0.110174  
474.500000	-0.040446  
475.000000	0.188704   
475.500000	0.164265   
476.000000	0.155500   
476.500000	-0.003560  
477.000000	-0.070340  
477.500000	-0.017666  
478.000000	0.212939   
478.500000	0.390454   
479.000000	0.308545   
479.500000	0.150840   
480.000000	0.117553   
480.500000	0.283356   
481.000000	0.363310   
481.500000	0.351090   
482.000000	0.255083   
482.500000	0.137568   
483.000000	-0.029098  
483.500000	-0.169348  
484.000000	-0.106893  
484.500000	0.054348   
485.000000	0.224606   
485.500000	0.341992   
486.000000	0.477181   
486.500000	0.465469   
487.000000	0.245916   
487.500000	-0.029931  
488.000000	-0.074500  
488.500000	0.086628   
489.000000	0.263795   
489.500000	0.309378   
490.000000	0.313295   
490.500000	0.335310   
491.000000	0.337734   
491.500000	0.288651   
492.000000	0.250742   
492.500000	0.232037   
493.000000	0.172689   
493.500000	0.132522   
494.000000	0.153469   
494.500000	0.321977   
495.000000	0.433628   
495.500000	0.482522   
496.000000	0.408909   
496.500000	0.444136   
497.000000	0.439856   
497.500000	0.492515   
498.000000	0.350946   
498.500000	0.402128   
499.000000	0.405469   
499.500000	0.424348   
500.000000	0.363098   
500.500000	0.404893   
501.000000	0.518962   
501.500000	0.578454   
502.000000	0.516212   
502.500000	0.481022   
503.000000	0.559030   
503.500000	0.586984   
504.000000	0.539272   
504.500000	0.527166   
505.000000	0.623590   
505.500000	0.819265   
506.000000	0.894401   
506.500000	0.934916   
507.000000	1.007340   
507.500000	1.066151   
508.000000	1.099696   
508.500000	1.042166   
509.000000	0.951992   
509.500000	0.851151   
510.000000	0.854689   
510.500000	0.885787   
511.000000	0.978712   
511.500000	0.990083   
512.000000	0.919424   
512.500000	0.978719   
513.000000	1.122674   
513.500000	1.184265   
514.000000	1.028015   
514.500000	1.151590   
515.000000	1.522863   
515.500000	1.878825   
516.000000	1.684083   
516.500000	1.427083   
517.000000	1.341757   
517.500000	1.550053   
518.000000	1.820166   
518.500000	2.155734   
519.000000	2.397409   
519.500000	2.337212   
520.000000	2.176833   
520.500000	2.063181   
521.000000	2.260787   
521.500000	2.387159   
522.000000	2.438265   
522.500000	2.373727   
523.000000	2.629560   
523.500000	2.960204   
524.000000	3.125234   
524.500000	2.960583   
525.000000	2.709287   
525.500000	2.772750   
526.000000	3.032189   
526.500000	3.495719   
527.000000	3.815886   
527.500000	3.978015   
528.000000	3.633886   
528.500000	3.520863   
529.000000	3.619007   
529.500000	3.935560   
530.000000	4.062689   
530.500000	4.206113   
531.000000	4.308454   
531.500000	4.452151   
532.000000	4.617409   
532.500000	4.926621   
533.000000	5.260219   
533.500000	5.479787   
534.000000	5.775310   
534.500000	6.085734   
535.000000	6.294818   
535.500000	6.353060   
536.000000	6.457272   
536.500000	6.802204   
537.000000	7.489409   
537.500000	8.291984   
538.000000	8.765287   
538.500000	8.820356   
539.000000	8.623825   
539.500000	8.666977   
540.000000	8.897833   
540.500000	9.447598   
541.000000	9.880757   
541.500000	10.336431  
542.000000	10.648227  
542.500000	11.160825  
543.000000	11.549318  
543.500000	11.713575  
544.000000	11.650833  
544.500000	11.689606  
545.000000	11.890583  
545.500000	11.981000  
546.000000	12.036068  
546.500000	11.968712  
547.000000	11.913924  
547.500000	11.838015  
548.000000	12.201492  
548.500000	12.579386  
549.000000	12.813522  
549.500000	12.659568  
550.000000	12.624613  
550.500000	12.528946  
551.000000	12.352901  
551.500000	11.998613  
552.000000	11.939522  
552.500000	12.141204  
553.000000	12.443325  
553.500000	12.753765  
554.000000	12.952886  
554.500000	12.997954  
555.000000	12.918053  
555.500000	12.768196  
556.000000	12.842303  
556.500000	13.284909  
557.000000	13.769083  
557.500000	14.025560  
558.000000	13.966037  
558.500000	14.144325  
559.000000	14.638500  
559.500000	15.360848  
560.000000	15.883181  
560.500000	16.171280  
561.000000	16.267159  
561.500000	15.977325  
562.000000	15.732068  
562.500000	15.658689  
563.000000	16.343181  
563.500000	17.319060  
564.000000	18.279416  
564.500000	18.547371  
565.000000	18.698560  
565.500000	18.988234  
566.000000	19.659856  
566.500000	20.490901  
567.000000	21.402825  
567.500000	22.109651  
568.000000	22.734681  
568.500000	23.110530  
569.000000	23.661886  
569.500000	24.453977  
570.000000	25.487590  
570.500000	26.376977  
571.000000	26.860568  
571.500000	27.051969  
572.000000	27.366757  
572.500000	27.954462  
573.000000	28.614212  
573.500000	29.159136  
574.000000	29.434280  
574.500000	29.555106  
575.000000	30.142227  
575.500000	31.125257  
576.000000	32.514045  
576.500000	33.067666  
577.000000	32.979704  
577.500000	32.611704  
578.000000	33.480007  
578.500000	34.698818  
579.000000	35.901265  
579.500000	36.107606  
580.000000	36.243780  
580.500000	36.511954  
581.000000	37.142318  
581.500000	37.373204  
582.000000	37.976674  
582.500000	39.020643  
583.000000	40.369946  
583.500000	41.250515  
584.000000	41.315068  
584.500000	41.655530  
585.000000	42.613045  
585.500000	44.376712  
586.000000	45.454636  
586.500000	46.554575  
587.000000	47.288946  
587.500000	49.007515  
588.000000	50.627553  
588.500000	51.428280  
589.000000	51.760810  
589.500000	52.366113  
590.000000	53.740340  
590.500000	54.906833  
591.000000	56.161553  
591.500000	57.009196  
592.000000	58.342409  
592.500000	59.702242  
593.000000	61.305030  
593.500000	62.483318  
594.000000	63.157590  
594.500000	64.004090  
595.000000	65.702825  
595.500000	67.720643  
596.000000	68.694280  
596.500000	69.022280  
597.000000	69.599348  
597.500000	71.674143  
598.000000	73.902083  
598.500000	75.814469  
599.000000	76.969393  
599.500000	78.765227  
600.000000	80.131204  
600.500000	81.617666  
601.000000	83.525098  
601.500000	86.490704  
602.000000	89.032871  
602.500000	89.669136  
603.000000	89.603901  
603.500000	90.722401  
604.000000	93.772484  
604.500000	95.803765  
605.000000	96.790212  
605.500000	97.922469  
606.000000	101.006977 
606.500000	104.350659 
607.000000	107.004484 
607.500000	109.046984 
608.000000	110.590712 
608.500000	111.669848 
609.000000	112.885212 
609.500000	115.709325 
610.000000	118.382431 
610.500000	120.183212 
611.000000	121.839462 
611.500000	124.759560 
612.000000	127.739712 
612.500000	129.859401 
613.000000	132.011166 
613.500000	135.742416 
614.000000	140.329659 
614.500000	144.376219 
615.000000	146.523310 
615.500000	147.245946 
616.000000	148.404280 
616.500000	151.825075 
617.000000	155.931409 
617.500000	159.245204 
618.000000	162.670825 
618.500000	166.195969 
619.000000	169.685166 
619.500000	171.889348 
620.000000	174.581303 
620.500000	177.154810 
621.000000	180.236856 
621.500000	183.256560 
622.000000	187.337810 
622.500000	191.446446 
623.000000	195.235803 
623.500000	198.781848 
624.000000	200.972454 
624.500000	203.260886 
625.000000	206.255916 
625.500000	210.544651 
626.000000	214.333696 
626.500000	219.058606 
627.000000	223.172871 
627.500000	226.598416 
628.000000	228.366689 
628.500000	232.037969 
629.000000	237.732871 
629.500000	244.136840 
630.000000	248.476310 
630.500000	252.222689 
631.000000	255.035886 
631.500000	258.025295 
632.000000	262.566757 
632.500000	268.425537 
633.000000	272.888295 
633.500000	274.725098 
634.000000	277.432166 
634.500000	282.013136 
635.000000	287.993803 
635.500000	291.633037 
636.000000	295.397333 
636.500000	297.947484 
637.000000	301.400068 
637.500000	305.211204 
638.000000	311.484477 
638.500000	314.886818 
639.000000	316.191553 
639.500000	315.412272 
640.000000	317.642530 
640.500000	322.107363 
641.000000	328.245628 
641.500000	332.456098 
642.000000	334.657696 
642.500000	336.850469 
643.000000	340.645742 
643.500000	344.297386 
644.000000	347.348878 
644.500000	349.829712 
645.000000	352.718477 
645.500000	353.300575 
646.000000	352.434848 
646.500000	353.219628 
647.000000	357.611196 
647.500000	362.741871 
648.000000	366.792810 
648.500000	369.239325 
649.000000	370.400007 
649.500000	371.312651 
650.000000	371.646015 
650.500000	371.472295 
651.000000	372.025560 
651.500000	372.450901 
652.000000	373.073469 
652.500000	373.932765 
653.000000	374.705916 
653.500000	374.855530 
654.000000	372.718166 
654.500000	371.915439 
655.000000	371.666000 
655.500000	371.805643 
656.000000	370.717068 
656.500000	370.455181 
657.000000	370.299075 
657.500000	369.259037 
658.000000	368.392060 
658.500000	368.193439 
659.000000	367.480962 
659.500000	364.709681 
660.000000	360.287810 
660.500000	357.053159 
661.000000	354.119477 
661.500000	353.854128 
662.000000	352.477901 
662.500000	351.911136 
663.000000	349.059878 
663.500000	346.885553 
664.000000	343.535765 
664.500000	340.381818 
665.000000	336.390787 
665.500000	333.291333 
666.000000	330.358507 
666.500000	327.458416 
667.000000	323.900833 
667.500000	320.220409 
668.000000	315.733977 
668.500000	309.727681 
669.000000	302.300840 
669.500000	296.637075 
670.000000	293.432515 
670.500000	289.936507 
671.000000	284.740439 
671.500000	278.809189 
672.000000	274.408000 
672.500000	270.513037 
673.000000	265.948606 
673.500000	260.396492 
674.000000	255.723469 
674.500000	251.524227 
675.000000	246.733469 
675.500000	241.362871 
676.000000	235.034696 
676.500000	228.320560 
677.000000	220.989083 
677.500000	215.219545 
678.000000	211.001765 
678.500000	208.607977 
679.000000	204.990916 
679.500000	200.235416 
680.000000	193.193477 
680.500000	185.913681 
681.000000	179.863333 
681.500000	175.968969 
682.000000	172.277310 
682.500000	166.586863 
683.000000	160.970424 
683.500000	156.815121 
684.000000	153.944196 
684.500000	150.081530 
685.000000	145.670143 
685.500000	141.077689 
686.000000	136.483621 
686.500000	132.165090 
687.000000	127.417545 
687.500000	123.167045 
688.000000	118.817704 
688.500000	116.093128 
689.000000	113.464227 
689.500000	110.753181 
690.000000	106.299553 
690.500000	103.048530 
691.000000	100.585045 
691.500000	98.731840  
692.000000	95.972272  
692.500000	92.191265  
693.000000	88.145143  
693.500000	84.529628  
694.000000	81.934166  
694.500000	79.938590  
695.000000	78.230492  
695.500000	76.156492  
696.000000	74.267742  
696.500000	72.672984  
697.000000	70.359272  
697.500000	67.497053  
698.000000	64.176878  
698.500000	61.459409  
699.000000	59.319704  
699.500000	57.889924  
700.000000	57.374075  
700.500000	57.262537  
701.000000	56.704469  
701.500000	54.864098  
702.000000	52.694212  
702.500000	50.417181  
703.000000	48.541636  
703.500000	46.434371  
704.000000	44.989984  
704.500000	43.733484  
705.000000	43.000651  
705.500000	42.111431  
706.000000	41.303015  
706.500000	39.606628  
707.000000	37.969257  
707.500000	36.908946  
708.000000	36.861560  
708.500000	36.457340  
709.000000	35.341977  
709.500000	33.699765  
710.000000	32.499833  
710.500000	31.591636  
711.000000	30.981303  
711.500000	30.285590  
712.000000	29.154840  
712.500000	28.082136  
713.000000	27.093833  
713.500000	26.607833  
714.000000	25.843424  
714.500000	25.479378  
715.000000	24.930348  
715.500000	24.745371  
716.000000	24.183325  
716.500000	23.761590  
717.000000	23.306712  
717.500000	22.691484  
718.000000	22.042098  
718.500000	21.248295  
719.000000	20.804196  
719.500000	20.337696  
720.000000	19.970219  
720.500000	19.487409  
721.000000	19.223083  
721.500000	19.171037  
722.000000	18.905401  
722.500000	18.443742  
723.000000	17.666507  
723.500000	17.069803  
724.000000	16.304939  
724.500000	15.671583  
725.000000	15.450666  
725.500000	15.583113  
726.000000	15.481083  
726.500000	15.149893  
727.000000	14.743386  
727.500000	14.577742  
728.000000	14.600856  
728.500000	14.803833  
729.000000	14.535681  
729.500000	13.868598  
730.000000	12.755893  
730.500000	11.980795  
731.000000	11.612772  
731.500000	11.641537  
732.000000	11.878575  
732.500000	11.763560  
733.000000	11.473242  
733.500000	11.242454  
734.000000	11.327621  
734.500000	11.147810  
735.000000	10.849234  
735.500000	10.449378  
736.000000	10.430545  
736.500000	10.506659  
737.000000	10.610803  
737.500000	10.535818  
738.000000	10.220113  
738.500000	9.674196   
739.000000	9.136386   
739.500000	8.804500   
740.000000	8.787833   
740.500000	8.863613   
741.000000	8.797878   
741.500000	8.753878   
742.000000	8.630787   
742.500000	8.226833   
743.000000	7.648575   
743.500000	7.276954   
744.000000	7.272068   
744.500000	7.375765   
745.000000	7.393181   
745.500000	7.336924   
746.000000	7.191325   
746.500000	7.085143   
747.000000	6.969257   
747.500000	6.983484   
748.000000	6.905969   
748.500000	6.805871   
749.000000	6.695924   
749.500000	6.673575   
750.000000	6.668840   
750.500000	6.472659   
751.000000	6.192909   
751.500000	6.006257   
752.000000	6.240219   
752.500000	6.504462   
753.000000	6.557015   
753.500000	6.141787   
754.000000	5.824015   
754.500000	5.608159   
755.000000	5.669772   
755.500000	5.657863   
756.000000	5.659787   
756.500000	5.301522   
757.000000	4.957765   
757.500000	4.848893   
758.000000	5.317568   
758.500000	5.563477   
759.000000	5.323340   
759.500000	4.669015   
760.000000	4.259310   
760.500000	4.359772   
761.000000	4.958628   
761.500000	5.342530   
762.000000	5.196795   
762.500000	4.684189   
763.000000	4.509575   
763.500000	4.653818   
764.000000	4.939446   
764.500000	4.979530   
765.000000	4.872946   
765.500000	4.642113   
766.000000	4.516295   
766.500000	4.556484   
767.000000	4.615007   
767.500000	4.603037   
768.000000	4.386613   
768.500000	4.074022   
769.000000	3.792068   
769.500000	3.825022   
770.000000	4.015909   
770.500000	3.981227   
771.000000	3.820893   
771.500000	3.663643   
772.000000	3.692310   
772.500000	3.504257   
773.000000	3.217174   
773.500000	3.095863   
774.000000	3.362825   
774.500000	3.774606   
775.000000	3.844022   
775.500000	3.642090   
776.000000	3.431196   
776.500000	3.542113   
777.000000	3.598583   
777.500000	3.503128   
778.000000	3.227128   
778.500000	3.192560   
779.000000	3.310643   
779.500000	3.470075   
780.000000	3.464113   
780.500000	3.435507   
781.000000	3.465439   
781.500000	3.514484   
782.000000	3.522431   
782.500000	3.241939   
783.000000	3.000462   
783.500000	2.825863   
784.000000	3.038272   
784.500000	3.187522   
785.000000	3.269522   
785.500000	3.093136   
786.000000	3.093734   
786.500000	2.993856   
787.000000	2.878053   
787.500000	2.720977   
788.000000	2.763780   
788.500000	2.805431   
789.000000	2.898037   
789.500000	2.988098   
790.000000	3.006568   
790.500000	2.852037   
791.000000	2.672977   
791.500000	2.755280   
792.000000	2.951242   
792.500000	3.034272   
793.000000	2.910348   
793.500000	2.718863   
794.000000	2.695681   
794.500000	2.726984   
795.000000	2.844250   
795.500000	2.698643   
796.000000	2.579636   
796.500000	2.366462   
797.000000	2.295765   
797.500000	2.280310   
798.000000	2.450469   
798.500000	2.693219   
799.000000	2.751386   
799.500000	2.726810   
800.000000	2.513356   
800.500000	2.385750   
801.000000	2.227878   
801.500000	2.235977   
802.000000	2.297954   
802.500000	2.348227   
803.000000	2.313007   
803.500000	2.122590   
804.000000	2.059712   
804.500000	1.953424   
805.000000	1.915848   
805.500000	1.800500   
806.000000	1.892340   
806.500000	1.944265   
807.000000	1.909590   
807.500000	1.787477   
808.000000	1.925545   
808.500000	2.028946   
809.000000	2.107492   
809.500000	2.002924   
810.000000	2.023310   
810.500000	1.841393   
811.000000	1.655015   
811.500000	1.552318   
812.000000	1.746818   
812.500000	1.934227   
813.000000	2.027371   
813.500000	2.004545   
814.000000	1.885310   
814.500000	1.873204   
815.000000	1.927681   
815.500000	2.032530   
816.000000	1.968340   
816.500000	1.716969   
817.000000	1.472409   
817.500000	1.449287   
818.000000	1.751196   
818.500000	2.016613   
819.000000	2.030234   
819.500000	1.795318   
820.000000	1.835772   
820.500000	2.129477   
821.000000	2.502492   
821.500000	2.622393   
822.000000	2.533060   
822.500000	2.393053   
823.000000	2.341295   
823.500000	2.294227   
824.000000	2.294159   
824.500000	2.430537   
825.000000	2.647325   
825.500000	2.703106   
826.000000	2.417734   
826.500000	2.116454   
827.000000	1.915469   
827.500000	1.941878   
828.000000	1.787500   
828.500000	1.840818   
829.000000	1.875454   
829.500000	1.965469   
830.000000	1.723128   
830.500000	1.427227   
831.000000	1.180000   
831.500000	1.167151   
832.000000	1.292143   
832.500000	1.414265   
833.000000	1.449128   
833.500000	1.295401   
834.000000	1.153409   
834.500000	1.067234   
835.000000	1.027840   
835.500000	1.032015   
836.000000	1.048696   
836.500000	1.076068   
837.000000	1.070075   
837.500000	1.014825   
838.000000	0.903712   
838.500000	0.785068   
839.000000	0.806886   
839.500000	0.951136   
840.000000	1.028022   
840.500000	0.929750   
841.000000	0.755537   
841.500000	0.610393   
842.000000	0.604037   
842.500000	0.734242   
843.000000	0.827083   
843.500000	0.750689   
844.000000	0.586401   
844.500000	0.554583   
845.000000	0.618590   
845.500000	0.635575   
846.000000	0.544045   
846.500000	0.448742   
847.000000	0.343469   
847.500000	0.289045   
848.000000	0.368954   
848.500000	0.498060   
849.000000	0.586530   
849.500000	0.512689   
850.000000	0.451500   
850.500000	0.330606   
851.000000	0.342265   
851.500000	0.361098   
852.000000	0.371803   
852.500000	0.258795   
853.000000	0.209272   
853.500000	0.232363   
854.000000	0.326901   
854.500000	0.290515   
855.000000	0.218969   
855.500000	0.135363   
856.000000	0.146174   
856.500000	0.179106   
857.000000	0.288545   
857.500000	0.342984   
858.000000	0.325628   
858.500000	0.319507   
859.000000	0.328477   
859.500000	0.393787   
860.000000	0.362242   
860.500000	0.353696   
861.000000	0.312393   
861.500000	0.256886   
862.000000	0.191121   
862.500000	0.221303   
863.000000	0.341143   
863.500000	0.313954   
864.000000	0.154575   
864.500000	-0.041181  
865.000000	-0.071340  
865.500000	-0.061469  
866.000000	-0.049893  
866.500000	-0.073098  
867.000000	-0.082575  
867.500000	-0.092000  
868.000000	-0.177856  
868.500000	-0.247409  
869.000000	-0.233659  
869.500000	-0.085893  
870.000000	0.036893   
870.500000	0.083583   
871.000000	0.035469   
871.500000	-0.034924  
872.000000	-0.099893  
872.500000	-0.127340  
873.000000	-0.080424  
873.500000	-0.024136  
874.000000	-0.007893  
874.500000	-0.015303  
875.000000	-0.004962  
875.500000	0.017068   
876.000000	0.000553   
876.500000	-0.005212  
877.000000	-0.061053  
877.500000	-0.112560  
878.000000	-0.174878  
878.500000	-0.114303  
879.000000	-0.020295  
879.500000	0.162848   
880.000000	0.217704   
880.500000	0.203856   
881.000000	0.063106   
881.500000	-0.035431  
882.000000	-0.151530  
882.500000	-0.082234  
883.000000	0.063060   
883.500000	0.203916   
884.000000	0.101825   
884.500000	-0.076136  
885.000000	-0.115000  
885.500000	-0.020727  
886.000000	0.105234   
886.500000	0.150310   
887.000000	0.131992   
887.500000	0.044924   
888.000000	0.122454   
888.500000	0.186098   
889.000000	0.161325   
889.500000	-0.036204  
890.000000	-0.101106  
890.500000	-0.049704  
891.000000	0.043681   
891.500000	0.084204   
892.000000	0.119810   
892.500000	0.094075   
893.000000	0.010734   
893.500000	-0.033863  
894.000000	-0.029636  
894.500000	-0.005583  
895.000000	-0.076681  
895.500000	-0.178651  
896.000000	-0.234196  
896.500000	-0.138151  
897.000000	0.041196   
897.500000	0.096712   

