PE FL                   SPECTRUM    ASCII       PEDS        1.60        
  -1
SA9BB5~1.SP
24/04/12
16:37:40.00
24/04/12
16:37:40.00
Jan

897.500000
1









LS55
405.00
5.00
5.00
SCAN
1
20
100
100
0
400
0
1
0
1
5
ON
450 405 
1 0 0
#HDR
-1
-1
#GR
NM

0.00002384185791015625
0.0
450.000000
0.500000
896
8
266.267121
-0.263068
#DATA
450.000000	0.669000   
450.500000	0.064727   
451.000000	-0.017469  
451.500000	0.177537   
452.000000	0.254000   
452.500000	0.129681   
453.000000	0.073439   
453.500000	0.038810   
454.000000	0.044037   
454.500000	0.001696   
455.000000	0.063045   
455.500000	0.090212   
456.000000	0.021462   
456.500000	-0.109174  
457.000000	-0.243053  
457.500000	-0.262189  
458.000000	-0.252159  
458.500000	-0.100787  
459.000000	0.020265   
459.500000	0.165712   
460.000000	0.133083   
460.500000	0.040962   
461.000000	0.001431   
461.500000	0.069553   
462.000000	0.144136   
462.500000	0.191977   
463.000000	0.138000   
463.500000	0.036196   
464.000000	-0.177681  
464.500000	-0.259583  
465.000000	-0.213553  
465.500000	0.002757   
466.000000	-0.006840  
466.500000	-0.097992  
467.000000	-0.145636  
467.500000	-0.028628  
468.000000	0.110030   
468.500000	0.061575   
469.000000	-0.080181  
469.500000	-0.170189  
470.000000	-0.107227  
470.500000	0.015333   
471.000000	0.013750   
471.500000	-0.098113  
472.000000	-0.128386  
472.500000	0.018303   
473.000000	0.117469   
473.500000	0.102068   
474.000000	0.041856   
474.500000	0.025727   
475.000000	0.089742   
475.500000	0.109795   
476.000000	0.104424   
476.500000	0.129507   
477.000000	0.276113   
477.500000	0.362674   
478.000000	0.228310   
478.500000	-0.064545  
479.000000	-0.179242  
479.500000	0.052280   
480.000000	0.218409   
480.500000	0.155833   
481.000000	-0.014560  
481.500000	-0.018666  
482.000000	0.155037   
482.500000	0.286113   
483.000000	0.222234   
483.500000	0.185689   
484.000000	0.236787   
484.500000	0.325113   
485.000000	0.287666   
485.500000	0.163287   
486.000000	0.027856   
486.500000	0.008909   
487.000000	-0.027803  
487.500000	-0.037083  
488.000000	-0.051818  
488.500000	0.012803   
489.000000	0.059386   
489.500000	0.058189   
490.000000	-0.040000  
490.500000	0.017916   
491.000000	0.135037   
491.500000	0.287787   
492.000000	0.183280   
492.500000	0.170840   
493.000000	0.130795   
493.500000	0.258939   
494.000000	0.220083   
494.500000	0.244772   
495.000000	0.127265   
495.500000	0.225530   
496.000000	0.301098   
496.500000	0.432151   
497.000000	0.260598   
497.500000	0.066113   
498.000000	0.110863   
498.500000	0.417886   
499.000000	0.485325   
499.500000	0.261666   
500.000000	0.003969   
500.500000	0.147469   
501.000000	0.386363   
501.500000	0.479295   
502.000000	0.362674   
502.500000	0.453333   
503.000000	0.622742   
503.500000	0.691015   
504.000000	0.491977   
504.500000	0.311598   
505.000000	0.372310   
505.500000	0.519734   
506.000000	0.699348   
506.500000	0.672893   
507.000000	0.672969   
507.500000	0.670484   
508.000000	0.885242   
508.500000	0.934878   
509.000000	0.937939   
509.500000	0.847045   
510.000000	0.986310   
510.500000	1.126121   
511.000000	1.176863   
511.500000	1.083015   
512.000000	0.954204   
512.500000	0.841734   
513.000000	0.824704   
513.500000	0.966151   
514.000000	1.182393   
514.500000	1.341128   
515.000000	1.515750   
515.500000	1.589113   
516.000000	1.720689   
516.500000	1.780416   
517.000000	2.006545   
517.500000	2.170628   
518.000000	2.197969   
518.500000	1.944909   
519.000000	1.811053   
519.500000	1.923704   
520.000000	2.257704   
520.500000	2.344083   
521.000000	2.194007   
521.500000	2.155318   
522.000000	2.569015   
522.500000	3.021325   
523.000000	3.155681   
523.500000	2.889075   
524.000000	2.704045   
524.500000	2.702757   
525.000000	2.819962   
525.500000	2.958272   
526.000000	3.189954   
526.500000	3.248651   
527.000000	3.174250   
527.500000	2.977356   
528.000000	3.181227   
528.500000	3.579606   
529.000000	4.028371   
529.500000	4.075151   
530.000000	4.253159   
530.500000	4.424704   
531.000000	4.608136   
531.500000	4.465030   
532.000000	4.625500   
532.500000	5.234825   
533.000000	6.131242   
533.500000	6.549060   
534.000000	6.650083   
534.500000	6.734522   
535.000000	7.099757   
535.500000	7.520878   
536.000000	7.921878   
536.500000	8.133795   
537.000000	8.231280   
537.500000	8.322159   
538.000000	8.595143   
538.500000	8.926954   
539.000000	9.375659   
539.500000	9.772462   
540.000000	10.115250  
540.500000	10.518113  
541.000000	10.898030  
541.500000	11.315295  
542.000000	11.245287  
542.500000	11.085916  
543.000000	11.009696  
543.500000	11.419833  
544.000000	11.697553  
544.500000	11.918886  
545.000000	11.900053  
545.500000	11.952628  
546.000000	11.819333  
546.500000	11.866666  
547.000000	11.974060  
547.500000	12.020454  
548.000000	11.594545  
548.500000	11.391159  
549.000000	11.501575  
549.500000	11.821848  
550.000000	11.570931  
550.500000	11.121242  
551.000000	11.048606  
551.500000	11.343590  
552.000000	11.523492  
552.500000	11.567757  
553.000000	11.658977  
553.500000	12.002651  
554.000000	12.250833  
554.500000	12.618893  
555.000000	12.693356  
555.500000	12.584545  
556.000000	12.296886  
556.500000	12.459613  
557.000000	12.684439  
557.500000	12.935848  
558.000000	13.201371  
558.500000	13.943000  
559.000000	14.538242  
559.500000	14.668598  
560.000000	14.608606  
560.500000	15.081537  
561.000000	15.695363  
561.500000	16.228409  
562.000000	16.650393  
562.500000	17.222946  
563.000000	17.604280  
563.500000	17.670356  
564.000000	17.715227  
564.500000	18.071765  
565.000000	18.639174  
565.500000	19.161113  
566.000000	19.547265  
566.500000	20.089575  
567.000000	20.827053  
567.500000	21.560643  
568.000000	21.910318  
568.500000	22.153560  
569.000000	22.830090  
569.500000	23.660954  
570.000000	23.940500  
570.500000	23.999530  
571.000000	24.544348  
571.500000	25.536257  
572.000000	26.126651  
572.500000	26.118060  
573.000000	26.184916  
573.500000	26.527795  
574.000000	26.873590  
574.500000	27.139757  
575.000000	27.617287  
575.500000	28.063121  
576.000000	28.724234  
576.500000	29.698901  
577.000000	30.734106  
577.500000	31.013742  
578.000000	30.741068  
578.500000	31.106128  
579.000000	32.285734  
579.500000	33.528462  
580.000000	33.995992  
580.500000	34.187628  
581.000000	34.499098  
581.500000	35.324340  
582.000000	36.260424  
582.500000	37.274719  
583.000000	37.731734  
583.500000	38.161234  
584.000000	38.620257  
584.500000	39.905613  
585.000000	40.534606  
585.500000	40.751469  
586.000000	40.160174  
586.500000	41.077075  
587.000000	42.656159  
587.500000	44.589962  
588.000000	44.638257  
588.500000	44.517507  
589.000000	44.789765  
589.500000	46.539106  
590.000000	48.564651  
590.500000	50.520674  
591.000000	51.665204  
591.500000	52.247469  
592.000000	53.115121  
592.500000	54.195378  
593.000000	55.309886  
593.500000	55.794931  
594.000000	56.685090  
594.500000	58.102348  
595.000000	59.223166  
595.500000	59.769310  
596.000000	60.688378  
596.500000	62.493015  
597.000000	64.000393  
597.500000	65.137250  
598.000000	66.277136  
598.500000	67.517234  
599.000000	68.303696  
599.500000	68.162151  
600.000000	68.971227  
600.500000	70.497984  
601.000000	72.355060  
601.500000	74.035575  
602.000000	76.825992  
602.500000	79.497689  
603.000000	81.154833  
603.500000	81.406886  
604.000000	81.784499  
604.500000	83.548704  
605.000000	85.761515  
605.500000	87.596825  
606.000000	88.754840  
606.500000	89.697553  
607.000000	90.994522  
607.500000	93.097136  
608.000000	95.380803  
608.500000	97.385909  
609.000000	98.617840  
609.500000	99.673212  
610.000000	101.614818 
610.500000	104.496143 
611.000000	106.608212 
611.500000	107.814492 
612.000000	108.892037 
612.500000	110.867719 
613.000000	113.459492 
613.500000	116.582075 
614.000000	119.687939 
614.500000	122.877848 
615.000000	125.008795 
615.500000	125.989651 
616.000000	125.127174 
616.500000	124.604492 
617.000000	126.289977 
617.500000	131.197613 
618.000000	136.024553 
618.500000	139.370515 
619.000000	141.004848 
619.500000	142.079212 
620.000000	143.474840 
620.500000	146.169992 
621.000000	149.596500 
621.500000	152.336348 
622.000000	153.931053 
622.500000	156.044000 
623.000000	158.703522 
623.500000	160.856704 
624.000000	163.160053 
624.500000	167.050810 
625.000000	171.276901 
625.500000	174.035674 
626.000000	175.504053 
626.500000	177.330083 
627.000000	179.659189 
627.500000	182.478227 
628.000000	186.141621 
628.500000	190.410545 
629.000000	193.556787 
629.500000	196.578492 
630.000000	200.477325 
630.500000	203.198893 
631.000000	203.722106 
631.500000	203.383098 
632.000000	206.212765 
632.500000	209.518424 
633.000000	213.161856 
633.500000	215.573204 
634.000000	217.668613 
634.500000	217.375219 
635.000000	217.668530 
635.500000	220.106219 
636.000000	224.344560 
636.500000	229.128666 
637.000000	232.604613 
637.500000	235.632053 
638.000000	236.141962 
638.500000	236.568803 
639.000000	238.507795 
639.500000	243.436750 
640.000000	246.790810 
640.500000	248.958401 
641.000000	249.474037 
641.500000	251.004083 
642.000000	251.632598 
642.500000	252.904833 
643.000000	253.359833 
643.500000	254.763356 
644.000000	254.709780 
644.500000	255.352530 
645.000000	257.151909 
645.500000	259.177363 
646.000000	260.467553 
646.500000	261.422742 
647.000000	263.112999 
647.500000	263.141568 
648.000000	261.717196 
648.500000	261.294727 
649.000000	263.493356 
649.500000	266.267121 
650.000000	265.822772 
650.500000	264.471083 
651.000000	263.062159 
651.500000	263.669727 
652.000000	262.827568 
652.500000	261.803469 
653.000000	260.834666 
653.500000	261.361000 
654.000000	260.755545 
654.500000	258.831477 
655.000000	256.697712 
655.500000	256.727303 
656.000000	256.730181 
656.500000	255.586272 
657.000000	252.863083 
657.500000	250.107136 
658.000000	246.821878 
658.500000	245.414378 
659.000000	244.343742 
659.500000	242.424106 
660.000000	238.266484 
660.500000	235.444916 
661.000000	234.070681 
661.500000	233.004795 
662.000000	229.269977 
662.500000	224.883007 
663.000000	220.872280 
663.500000	217.941878 
664.000000	214.574257 
664.500000	211.307719 
665.000000	207.833068 
665.500000	204.965772 
666.000000	201.227053 
666.500000	197.426833 
667.000000	193.704984 
667.500000	190.880015 
668.000000	187.849545 
668.500000	185.199871 
669.000000	182.093931 
669.500000	178.303621 
670.000000	174.106962 
670.500000	169.225590 
671.000000	163.912704 
671.500000	158.654825 
672.000000	155.154401 
672.500000	152.498863 
673.000000	149.504037 
673.500000	145.201681 
674.000000	140.961265 
674.500000	137.063393 
675.000000	133.281901 
675.500000	129.247325 
676.000000	125.571537 
676.500000	121.996651 
677.000000	118.555030 
677.500000	115.196780 
678.000000	112.024484 
678.500000	109.642318 
679.000000	107.404575 
679.500000	104.852606 
680.000000	101.895522 
680.500000	98.573568  
681.000000	94.471931  
681.500000	91.091803  
682.000000	88.988378  
682.500000	87.165136  
683.000000	84.476598  
683.500000	81.238204  
684.000000	78.842765  
684.500000	77.499310  
685.000000	75.722651  
685.500000	72.823780  
686.000000	69.419189  
686.500000	66.674393  
687.000000	65.198310  
687.500000	64.020219  
688.000000	62.167219  
688.500000	59.342939  
689.000000	56.985340  
689.500000	55.221000  
690.000000	54.333242  
690.500000	53.092969  
691.000000	51.523583  
691.500000	49.914833  
692.000000	48.944053  
692.500000	47.632181  
693.000000	45.596446  
693.500000	43.149424  
694.000000	41.507234  
694.500000	40.294560  
695.000000	39.320386  
695.500000	38.256946  
696.000000	37.949575  
696.500000	37.433454  
697.000000	36.680818  
697.500000	35.206969  
698.000000	33.900280  
698.500000	32.514045  
699.000000	31.476363  
699.500000	30.626409  
700.000000	30.226196  
700.500000	29.589227  
701.000000	28.611075  
701.500000	27.302015  
702.000000	26.083068  
702.500000	25.314189  
703.000000	24.922878  
703.500000	24.702492  
704.000000	24.260121  
704.500000	23.711090  
705.000000	23.076568  
705.500000	22.479174  
706.000000	21.648037  
706.500000	20.984242  
707.000000	20.499075  
707.500000	20.278901  
708.000000	19.815083  
708.500000	19.190242  
709.000000	18.369750  
709.500000	18.199189  
710.000000	18.012181  
710.500000	17.676159  
711.000000	16.765666  
711.500000	16.392022  
712.000000	16.333356  
712.500000	16.663818  
713.000000	16.284166  
713.500000	15.455257  
714.000000	14.498878  
714.500000	14.398522  
715.000000	14.787916  
715.500000	14.758469  
716.000000	14.144166  
716.500000	13.486500  
717.000000	13.159356  
717.500000	12.618469  
718.000000	12.232363  
718.500000	11.955234  
719.000000	11.936901  
719.500000	11.689212  
720.000000	11.328977  
720.500000	11.047500  
721.000000	10.973916  
721.500000	11.039515  
722.000000	10.906909  
722.500000	10.836507  
723.000000	10.711704  
723.500000	10.584924  
724.000000	10.055280  
724.500000	9.882727   
725.000000	9.976659   
725.500000	10.114553  
726.000000	9.624522   
726.500000	9.209045   
727.000000	8.936393   
727.500000	8.889939   
728.000000	8.803946   
728.500000	8.986068   
729.000000	9.060931   
729.500000	8.659151   
730.000000	7.946606   
730.500000	7.540659   
731.000000	7.640196   
731.500000	7.837537   
732.000000	7.800219   
732.500000	7.360106   
733.000000	6.919878   
733.500000	6.709537   
734.000000	6.908454   
734.500000	7.049507   
735.000000	7.061871   
735.500000	6.990189   
736.000000	6.961590   
736.500000	6.835590   
737.000000	6.655204   
737.500000	6.489863   
738.000000	6.169553   
738.500000	6.001606   
739.000000	6.026856   
739.500000	6.234613   
740.000000	6.164916   
740.500000	5.857234   
741.000000	5.776537   
741.500000	5.961318   
742.000000	6.148037   
742.500000	6.011628   
743.000000	5.746204   
743.500000	5.345318   
744.000000	5.226500   
744.500000	5.345946   
745.000000	5.502007   
745.500000	5.377083   
746.000000	5.115181   
746.500000	5.057431   
747.000000	5.278962   
747.500000	5.453613   
748.000000	5.416454   
748.500000	5.021583   
749.000000	4.676674   
749.500000	4.666643   
750.000000	4.955310   
750.500000	5.173310   
751.000000	5.177613   
751.500000	5.176931   
752.000000	5.058537   
752.500000	4.979484   
753.000000	4.741893   
753.500000	4.782272   
754.000000	4.792007   
754.500000	4.748795   
755.000000	4.393871   
755.500000	4.003787   
756.000000	3.798219   
756.500000	3.913318   
757.000000	4.030946   
757.500000	4.071537   
758.000000	4.091613   
758.500000	4.058333   
759.000000	3.967090   
759.500000	3.807333   
760.000000	3.805840   
760.500000	4.103727   
761.000000	4.470590   
761.500000	4.481181   
762.000000	4.141098   
762.500000	3.884234   
763.000000	3.846651   
763.500000	3.893909   
764.000000	3.786613   
764.500000	3.722962   
765.000000	3.721886   
765.500000	3.715727   
766.000000	3.613219   
766.500000	3.469734   
767.000000	3.313681   
767.500000	3.207757   
768.000000	3.228030   
768.500000	3.203242   
769.000000	3.198280   
769.500000	3.279583   
770.000000	3.308454   
770.500000	3.168840   
771.000000	2.999878   
771.500000	3.125409   
772.000000	3.408242   
772.500000	3.572083   
773.000000	3.438212   
773.500000	3.376113   
774.000000	3.325196   
774.500000	3.294878   
775.000000	3.097083   
775.500000	2.922303   
776.000000	2.947916   
776.500000	3.052242   
777.000000	3.149750   
777.500000	3.114893   
778.000000	3.084681   
778.500000	3.014568   
779.000000	3.087515   
779.500000	3.193666   
780.000000	3.370189   
780.500000	3.258106   
781.000000	2.957242   
781.500000	2.688613   
782.000000	2.697924   
782.500000	2.762765   
783.000000	2.820136   
783.500000	2.823560   
784.000000	2.891295   
784.500000	3.001204   
785.000000	2.993007   
785.500000	2.933772   
786.000000	2.809257   
786.500000	2.600840   
787.000000	2.353462   
787.500000	2.283636   
788.000000	2.527598   
788.500000	2.851159   
789.000000	3.021530   
789.500000	2.943424   
790.000000	2.938696   
790.500000	2.759272   
791.000000	2.484439   
791.500000	2.148113   
792.000000	2.256916   
792.500000	2.369030   
793.000000	2.369886   
793.500000	2.213446   
794.000000	2.337121   
794.500000	2.536727   
795.000000	2.693333   
795.500000	2.682962   
796.000000	2.589159   
796.500000	2.472325   
797.000000	2.376477   
797.500000	2.409045   
798.000000	2.285833   
798.500000	2.001666   
799.000000	1.779628   
799.500000	1.852166   
800.000000	1.930818   
800.500000	2.037856   
801.000000	2.198280   
801.500000	2.569954   
802.000000	2.663606   
802.500000	2.450356   
803.000000	1.987750   
803.500000	1.825303   
804.000000	1.944136   
804.500000	2.222553   
805.000000	2.134871   
805.500000	1.912075   
806.000000	1.770227   
806.500000	1.969469   
807.000000	2.096401   
807.500000	1.926833   
808.000000	1.598939   
808.500000	1.696439   
809.000000	2.019492   
809.500000	2.233545   
810.000000	1.905674   
810.500000	1.524712   
811.000000	1.432765   
811.500000	1.751780   
812.000000	1.858643   
812.500000	1.845992   
813.000000	1.716128   
813.500000	1.764060   
814.000000	1.692318   
814.500000	1.490863   
815.000000	1.250643   
815.500000	1.212090   
816.000000	1.224772   
816.500000	1.246159   
817.000000	1.276992   
817.500000	1.433734   
818.000000	1.696977   
818.500000	1.944583   
819.000000	2.005954   
819.500000	1.906106   
820.000000	1.931090   
820.500000	1.998598   
821.000000	2.102984   
821.500000	2.018386   
822.000000	2.056174   
822.500000	2.171007   
823.000000	2.376189   
823.500000	2.437696   
824.000000	2.450469   
824.500000	2.544363   
825.000000	2.690757   
825.500000	2.796818   
826.000000	2.612856   
826.500000	2.363295   
827.000000	2.126015   
827.500000	2.024272   
828.000000	1.812878   
828.500000	1.763325   
829.000000	1.785674   
829.500000	1.858727   
830.000000	1.724530   
830.500000	1.572931   
831.000000	1.411356   
831.500000	1.343507   
832.000000	1.264250   
832.500000	1.255916   
833.000000	1.285628   
833.500000	1.237992   
834.000000	1.172689   
834.500000	1.142681   
835.000000	1.135446   
835.500000	1.119856   
836.000000	1.123795   
836.500000	1.173340   
837.000000	1.155272   
837.500000	1.047439   
838.000000	0.899833   
838.500000	0.860984   
839.000000	0.879363   
839.500000	0.866734   
840.000000	0.754659   
840.500000	0.681825   
841.000000	0.734310   
841.500000	0.846696   
842.000000	0.868068   
842.500000	0.802537   
843.000000	0.737287   
843.500000	0.699500   
844.000000	0.695712   
844.500000	0.731348   
845.000000	0.740606   
845.500000	0.729833   
846.000000	0.760901   
846.500000	0.683098   
847.000000	0.501749   
847.500000	0.159106   
848.000000	0.073007   
848.500000	0.176886   
849.000000	0.401242   
849.500000	0.464871   
850.000000	0.340356   
850.500000	0.165136   
851.000000	0.115871   
851.500000	0.336196   
852.000000	0.376015   
852.500000	0.348507   
853.000000	0.171765   
853.500000	0.205848   
854.000000	0.261204   
854.500000	0.303295   
855.000000	0.196280   
855.500000	0.052977   
856.000000	0.024159   
856.500000	0.129946   
857.000000	0.216795   
857.500000	0.164386   
858.000000	0.128424   
858.500000	0.157015   
859.000000	0.200939   
859.500000	0.161704   
860.000000	0.112984   
860.500000	0.110181   
861.000000	0.259000   
861.500000	0.368098   
862.000000	0.337765   
862.500000	0.139424   
863.000000	-0.049583  
863.500000	-0.179356  
864.000000	-0.184750  
864.500000	-0.096643  
865.000000	0.033863   
865.500000	0.042931   
866.000000	0.041045   
866.500000	-0.033946  
867.000000	-0.079265  
867.500000	-0.171939  
868.000000	-0.092742  
868.500000	-0.063340  
869.000000	-0.087681  
869.500000	-0.170810  
870.000000	-0.143954  
870.500000	-0.089340  
871.000000	-0.116250  
871.500000	-0.075848  
872.000000	0.003310   
872.500000	0.098295   
873.000000	0.057628   
873.500000	0.011651   
874.000000	-0.017537  
874.500000	-0.035840  
875.000000	-0.081234  
875.500000	-0.081053  
876.000000	0.034999   
876.500000	0.117174   
877.000000	0.124560   
877.500000	0.040484   
878.000000	0.050795   
878.500000	0.161257   
879.000000	0.218136   
879.500000	0.129515   
880.000000	-0.080977  
880.500000	-0.164522  
881.000000	-0.155992  
881.500000	-0.091287  
882.000000	-0.116242  
882.500000	-0.039257  
883.000000	0.038674   
883.500000	0.093287   
884.000000	0.026196   
884.500000	-0.034992  
885.000000	-0.058833  
885.500000	-0.028833  
886.000000	-0.003613  
886.500000	0.083659   
887.000000	0.146371   
887.500000	0.128575   
888.000000	-0.047500  
888.500000	-0.159772  
889.000000	-0.157143  
889.500000	-0.036318  
890.000000	0.028242   
890.500000	-0.007833  
891.000000	-0.143530  
891.500000	-0.263068  
892.000000	-0.236325  
892.500000	-0.107992  
893.000000	0.017053   
893.500000	0.050492   
894.000000	0.051696   
894.500000	0.044969   
895.000000	0.020136   
895.500000	-0.056196  
896.000000	-0.126242  
896.500000	-0.162931  
897.000000	-0.134219  
897.500000	-0.066916  

