PE FL                   SPECTRUM    ASCII       PEDS        1.60        
  -1
SA9BBD~1.SP
24/04/12
16:09:09.00
24/04/12
16:09:09.00
Jan

897.500000
1









LS55
405.00
5.00
5.00
SCAN
1
20
100
100
0
400
0
1
0
1
5
ON
450 405 
1 0 0
#HDR
-1
-1
#GR
NM

0.00002384185791015625
0.0
450.000000
0.500000
896
8
338.259431
-0.402500
#DATA
450.000000	0.339000   
450.500000	0.513568   
451.000000	0.419969   
451.500000	0.157492   
452.000000	-0.154606  
452.500000	-0.161962  
453.000000	-0.008484  
453.500000	0.195712   
454.000000	0.139393   
454.500000	0.062636   
455.000000	-0.050568  
455.500000	-0.058545  
456.000000	-0.136439  
456.500000	-0.137696  
457.000000	-0.060886  
457.500000	0.057613   
458.000000	0.108613   
458.500000	0.039022   
459.000000	-0.041992  
459.500000	-0.001204  
460.000000	0.213931   
460.500000	0.365424   
461.000000	0.367840   
461.500000	0.191446   
462.000000	0.137492   
462.500000	0.197242   
463.000000	0.292590   
463.500000	0.179583   
464.000000	-0.006204  
464.500000	-0.196037  
465.000000	-0.144318  
465.500000	-0.018068  
466.000000	0.014053   
466.500000	-0.170386  
467.000000	-0.266333  
467.500000	-0.181318  
468.000000	-0.013787  
468.500000	0.046924   
469.000000	0.050280   
469.500000	0.193037   
470.000000	0.302765   
470.500000	0.253174   
471.000000	0.082734   
471.500000	-0.000000  
472.000000	0.076795   
472.500000	0.092878   
473.000000	0.014810   
473.500000	-0.019522  
474.000000	0.190439   
474.500000	0.335272   
475.000000	0.307643   
475.500000	0.133712   
476.000000	0.081863   
476.500000	0.051151   
477.000000	0.070689   
477.500000	0.081825   
478.000000	0.018765   
478.500000	-0.195037  
479.000000	-0.294787  
479.500000	-0.140765  
480.000000	0.178030   
480.500000	0.310075   
481.000000	0.121651   
481.500000	-0.197484  
482.000000	-0.226393  
482.500000	0.083787   
483.000000	0.395378   
483.500000	0.313196   
484.000000	-0.034212  
484.500000	-0.330318  
485.000000	-0.235522  
485.500000	0.113022   
486.000000	0.460666   
486.500000	0.495954   
487.000000	0.259196   
487.500000	0.038840   
488.000000	-0.067651  
488.500000	0.041227   
489.000000	0.118780   
489.500000	0.173818   
490.000000	0.073015   
490.500000	0.016560   
491.000000	-0.068492  
491.500000	-0.050007  
492.000000	0.028575   
492.500000	0.243530   
493.000000	0.485431   
493.500000	0.547257   
494.000000	0.438621   
494.500000	0.375113   
495.000000	0.436439   
495.500000	0.568810   
496.000000	0.432628   
496.500000	0.208689   
497.000000	0.059515   
497.500000	0.187931   
498.000000	0.318439   
498.500000	0.415106   
499.000000	0.363333   
499.500000	0.399401   
500.000000	0.458613   
500.500000	0.459598   
501.000000	0.296325   
501.500000	0.161469   
502.000000	0.248969   
502.500000	0.568348   
503.000000	0.822818   
503.500000	0.864787   
504.000000	0.780553   
504.500000	0.792916   
505.000000	0.852727   
505.500000	0.877727   
506.000000	0.772962   
506.500000	0.626727   
507.000000	0.584189   
507.500000	0.695386   
508.000000	0.863590   
508.500000	0.927151   
509.000000	0.937606   
509.500000	0.992545   
510.000000	1.098265   
510.500000	1.029689   
511.000000	0.877757   
511.500000	0.892325   
512.000000	1.164734   
512.500000	1.394537   
513.000000	1.394409   
513.500000	1.273492   
514.000000	1.266000   
514.500000	1.326507   
515.000000	1.356007   
515.500000	1.382666   
516.000000	1.529106   
516.500000	1.707795   
517.000000	1.782886   
517.500000	1.800780   
518.000000	1.763969   
518.500000	1.900068   
519.000000	1.926045   
519.500000	1.964409   
520.000000	1.841530   
520.500000	2.057106   
521.000000	2.270492   
521.500000	2.507121   
522.000000	2.342848   
522.500000	2.296159   
523.000000	2.306818   
523.500000	2.467204   
524.000000	2.604795   
524.500000	2.756780   
525.000000	2.846901   
525.500000	2.867772   
526.000000	2.904848   
526.500000	2.937113   
527.000000	3.101992   
527.500000	3.281431   
528.000000	3.591984   
528.500000	3.697984   
529.000000	3.829325   
529.500000	3.998295   
530.000000	4.374393   
530.500000	4.693628   
531.000000	4.978780   
531.500000	5.178234   
532.000000	5.315598   
532.500000	5.183151   
533.000000	5.064340   
533.500000	5.226371   
534.000000	5.937113   
534.500000	6.677295   
535.000000	7.189643   
535.500000	7.294136   
536.000000	7.467810   
536.500000	7.661037   
537.000000	7.814984   
537.500000	7.926431   
538.000000	8.120772   
538.500000	8.544310   
539.000000	8.937234   
539.500000	9.272583   
540.000000	9.594189   
540.500000	9.886878   
541.000000	10.130136  
541.500000	10.359621  
542.000000	10.743484  
542.500000	11.139159  
543.000000	11.359295  
543.500000	11.380651  
544.000000	11.229090  
544.500000	11.306704  
545.000000	11.745901  
545.500000	12.316765  
546.000000	12.199704  
546.500000	11.680386  
547.000000	11.502053  
547.500000	11.884757  
548.000000	12.318931  
548.500000	12.391318  
549.000000	12.211931  
549.500000	11.760522  
550.000000	11.151522  
550.500000	11.058212  
551.000000	11.526181  
551.500000	12.040136  
552.000000	12.097196  
552.500000	11.874189  
553.000000	11.759628  
553.500000	11.754909  
554.000000	12.042742  
554.500000	12.379128  
555.000000	12.721651  
555.500000	12.869363  
556.000000	12.995863  
556.500000	13.059128  
557.000000	12.867946  
557.500000	12.939643  
558.000000	13.450969  
558.500000	14.358060  
559.000000	14.752598  
559.500000	14.623098  
560.000000	14.403734  
560.500000	14.756272  
561.000000	15.300325  
561.500000	15.839522  
562.000000	16.540439  
562.500000	17.381015  
563.000000	17.932962  
563.500000	17.960575  
564.000000	17.834924  
564.500000	17.997856  
565.000000	18.256325  
565.500000	18.536742  
566.000000	19.227848  
566.500000	19.756045  
567.000000	20.122469  
567.500000	20.227765  
568.000000	20.930287  
568.500000	21.830878  
569.000000	23.017946  
569.500000	23.934303  
570.000000	24.866575  
570.500000	25.438772  
571.000000	25.891409  
571.500000	26.165090  
572.000000	26.328424  
572.500000	26.411878  
573.000000	26.570401  
573.500000	26.866022  
574.000000	27.402500  
574.500000	28.027159  
575.000000	29.075628  
575.500000	29.917272  
576.000000	30.483371  
576.500000	30.271060  
577.000000	30.610409  
577.500000	31.311969  
578.000000	33.031143  
578.500000	33.617893  
579.000000	33.845204  
579.500000	33.179742  
580.000000	33.432863  
580.500000	34.433704  
581.000000	36.739962  
581.500000	38.300303  
582.000000	38.767121  
582.500000	38.185431  
583.000000	37.876439  
583.500000	38.333128  
584.000000	39.442553  
584.500000	40.582583  
585.000000	41.597833  
585.500000	42.156886  
586.000000	42.909151  
586.500000	43.877106  
587.000000	44.932674  
587.500000	45.980045  
588.000000	47.127583  
588.500000	47.775083  
589.000000	48.695234  
589.500000	50.137818  
590.000000	51.980992  
590.500000	53.038848  
591.000000	53.266083  
591.500000	53.546590  
592.000000	54.766416  
592.500000	56.379984  
593.000000	58.333734  
593.500000	60.143757  
594.000000	61.908083  
594.500000	63.153409  
595.000000	64.289159  
595.500000	64.779090  
596.000000	65.728787  
596.500000	66.751416  
597.000000	68.274045  
597.500000	69.491136  
598.000000	70.806083  
598.500000	71.850022  
599.000000	73.438651  
599.500000	75.041234  
600.000000	77.304318  
600.500000	79.035340  
601.000000	80.249242  
601.500000	80.923371  
602.000000	81.966204  
602.500000	83.419371  
603.000000	85.043886  
603.500000	87.031045  
604.000000	88.543015  
604.500000	89.825909  
605.000000	90.866734  
605.500000	93.000696  
606.000000	95.968159  
606.500000	98.680492  
607.000000	100.794530 
607.500000	101.193348 
608.000000	101.651924 
608.500000	102.115818 
609.000000	104.565977 
609.500000	107.701909 
610.000000	111.655742 
610.500000	114.578181 
611.000000	116.958431 
611.500000	118.449780 
612.000000	120.488598 
612.500000	123.251931 
613.000000	126.121287 
613.500000	129.155901 
614.000000	132.348962 
614.500000	135.001416 
615.000000	136.804310 
615.500000	138.167803 
616.000000	139.489469 
616.500000	141.135878 
617.000000	143.352787 
617.500000	146.662189 
618.000000	150.643545 
618.500000	154.109015 
619.000000	156.512454 
619.500000	158.532810 
620.000000	161.470871 
620.500000	165.291886 
621.000000	169.187628 
621.500000	172.105416 
622.000000	175.516863 
622.500000	178.761151 
623.000000	182.225969 
623.500000	185.231060 
624.000000	190.361848 
624.500000	194.789219 
625.000000	197.848537 
625.500000	198.243121 
626.000000	200.237977 
626.500000	202.927924 
627.000000	205.580484 
627.500000	207.036522 
628.000000	210.058234 
628.500000	214.830295 
629.000000	220.212651 
629.500000	224.925833 
630.000000	228.970742 
630.500000	232.300553 
631.000000	234.353310 
631.500000	236.027000 
632.000000	239.327242 
632.500000	243.812090 
633.000000	248.560318 
633.500000	253.387871 
634.000000	258.147068 
634.500000	262.474969 
635.000000	265.105545 
635.500000	267.620098 
636.000000	270.697499 
636.500000	273.925992 
637.000000	276.234469 
637.500000	278.444037 
638.000000	282.054454 
638.500000	286.564303 
639.000000	291.152833 
639.500000	294.570371 
640.000000	298.604053 
640.500000	302.617962 
641.000000	304.646606 
641.500000	305.030886 
642.000000	305.926401 
642.500000	310.356787 
643.000000	315.240242 
643.500000	318.022439 
644.000000	317.874939 
644.500000	317.945704 
645.000000	319.024007 
645.500000	320.877780 
646.000000	322.980659 
646.500000	324.944219 
647.000000	327.235060 
647.500000	329.019636 
648.000000	331.260454 
648.500000	331.928378 
649.000000	331.487484 
649.500000	329.614863 
650.000000	330.573560 
650.500000	334.390515 
651.000000	338.259431 
651.500000	337.809712 
652.000000	335.062954 
652.500000	333.649333 
653.000000	334.598439 
653.500000	335.589424 
654.000000	335.891871 
654.500000	335.589643 
655.000000	335.019583 
655.500000	332.327416 
656.000000	330.197962 
656.500000	328.945333 
657.000000	329.042856 
657.500000	327.555643 
658.000000	326.383992 
658.500000	324.972469 
659.000000	324.099098 
659.500000	322.606674 
660.000000	321.044613 
660.500000	319.121621 
661.000000	316.170310 
661.500000	310.905007 
662.000000	305.981219 
662.500000	303.480946 
663.000000	303.439916 
663.500000	302.016378 
664.000000	298.758757 
664.500000	293.446386 
665.000000	289.488265 
665.500000	285.134310 
666.000000	282.903181 
666.500000	279.201643 
667.000000	274.552666 
667.500000	267.151704 
668.000000	262.372250 
668.500000	258.191303 
669.000000	255.723363 
669.500000	252.311272 
670.000000	249.111537 
670.500000	243.988568 
671.000000	238.644378 
671.500000	234.400189 
672.000000	231.679280 
672.500000	228.251750 
673.000000	223.077856 
673.500000	217.902174 
674.000000	212.950560 
674.500000	207.494719 
675.000000	202.234250 
675.500000	198.304500 
676.000000	194.611856 
676.500000	189.323015 
677.000000	182.420598 
677.500000	176.233931 
678.000000	171.388325 
678.500000	166.313772 
679.000000	160.862015 
679.500000	156.888818 
680.000000	154.321106 
680.500000	151.753310 
681.000000	147.978696 
681.500000	142.723954 
682.000000	137.292295 
682.500000	133.017189 
683.000000	130.174439 
683.500000	127.838651 
684.000000	123.771333 
684.500000	119.338901 
685.000000	115.246856 
685.500000	112.242553 
686.000000	108.550931 
686.500000	105.377424 
687.000000	102.493325 
687.500000	100.381500 
688.000000	97.867856  
688.500000	94.590984  
689.000000	91.117833  
689.500000	87.001499  
690.000000	83.980712  
690.500000	81.907310  
691.000000	80.984196  
691.500000	79.019590  
692.000000	76.686310  
692.500000	73.978871  
693.000000	71.795666  
693.500000	69.599401  
694.000000	67.059727  
694.500000	64.777348  
695.000000	62.619500  
695.500000	60.895553  
696.000000	59.230848  
696.500000	57.578098  
697.000000	55.631250  
697.500000	53.570272  
698.000000	51.621734  
698.500000	49.530318  
699.000000	47.714545  
699.500000	46.361060  
700.000000	45.747962  
700.500000	44.975151  
701.000000	43.401265  
701.500000	41.490181  
702.000000	39.967477  
702.500000	39.327871  
703.000000	38.887719  
703.500000	38.558265  
704.000000	37.734409  
704.500000	36.268818  
705.000000	34.394734  
705.500000	33.005621  
706.000000	32.177499  
706.500000	31.654075  
707.000000	30.733356  
707.500000	29.654356  
708.000000	28.496984  
708.500000	27.790871  
709.000000	27.397386  
709.500000	27.274575  
710.000000	26.966590  
710.500000	26.007477  
711.000000	24.982628  
711.500000	24.105166  
712.000000	24.014530  
712.500000	23.935303  
713.000000	23.640727  
713.500000	23.063674  
714.000000	22.875333  
714.500000	22.657681  
715.000000	21.992818  
715.500000	21.104810  
716.000000	20.238143  
716.500000	19.817386  
717.000000	19.305340  
717.500000	18.735606  
718.000000	18.185537  
718.500000	17.762106  
719.000000	17.235181  
719.500000	16.718333  
720.000000	16.079022  
720.500000	15.385098  
721.000000	15.063818  
721.500000	15.093992  
722.000000	15.294265  
722.500000	14.958621  
723.000000	14.280068  
723.500000	13.893272  
724.000000	14.053772  
724.500000	14.012659  
725.000000	13.421500  
725.500000	12.735136  
726.000000	12.419227  
726.500000	12.275053  
727.000000	12.006265  
727.500000	11.787439  
728.000000	11.745924  
728.500000	11.588795  
729.000000	11.185181  
729.500000	10.898522  
730.000000	10.902159  
730.500000	10.872356  
731.000000	10.578416  
731.500000	10.403522  
732.000000	10.512507  
732.500000	10.599704  
733.000000	10.288643  
733.500000	9.724348   
734.000000	9.220749   
734.500000	8.948318   
735.000000	8.809946   
735.500000	8.933901   
736.000000	9.025174   
736.500000	8.937553   
737.000000	8.676666   
737.500000	8.547446   
738.000000	8.730840   
738.500000	8.889196   
739.000000	8.699242   
739.500000	8.013060   
740.000000	7.544446   
740.500000	7.452257   
741.000000	7.533916   
741.500000	7.196303   
742.000000	6.742431   
742.500000	6.748757   
743.000000	7.105856   
743.500000	7.158045   
744.000000	6.817613   
744.500000	6.484719   
745.000000	6.468909   
745.500000	6.414143   
746.000000	6.435962   
746.500000	6.499674   
747.000000	6.794924   
747.500000	6.720454   
748.000000	6.464053   
748.500000	6.037537   
749.000000	5.976651   
749.500000	6.021181   
750.000000	6.159363   
750.500000	5.942636   
751.000000	5.809840   
751.500000	5.751030   
752.000000	5.998431   
752.500000	5.881696   
753.000000	5.699363   
753.500000	5.424598   
754.000000	5.424946   
754.500000	5.323780   
755.000000	5.390840   
755.500000	5.418287   
756.000000	5.500977   
756.500000	5.236007   
757.000000	4.893765   
757.500000	4.565825   
758.000000	4.539825   
758.500000	4.643696   
759.000000	4.750545   
759.500000	4.633833   
760.000000	4.479787   
760.500000	4.394916   
761.000000	4.353363   
761.500000	4.289015   
762.000000	4.347765   
762.500000	4.594454   
763.000000	4.748143   
763.500000	4.643856   
764.000000	4.412795   
764.500000	4.259560   
765.000000	4.125022   
765.500000	3.952651   
766.000000	3.890515   
766.500000	3.861560   
767.000000	3.797250   
767.500000	3.586075   
768.000000	3.654356   
768.500000	3.660863   
769.000000	3.688681   
769.500000	3.519083   
770.000000	3.595083   
770.500000	3.565318   
771.000000	3.537060   
771.500000	3.298431   
772.000000	3.229946   
772.500000	3.268659   
773.000000	3.410636   
773.500000	3.453628   
774.000000	3.329537   
774.500000	3.202568   
775.000000	3.307037   
775.500000	3.433515   
776.000000	3.530295   
776.500000	3.412371   
777.000000	3.308696   
777.500000	3.064666   
778.000000	2.974227   
778.500000	2.878969   
779.000000	3.073295   
779.500000	3.205128   
780.000000	3.377590   
780.500000	3.342825   
781.000000	3.296053   
781.500000	3.219500   
782.000000	3.119825   
782.500000	2.982310   
783.000000	2.924818   
783.500000	2.914340   
784.000000	2.829318   
784.500000	2.759378   
785.000000	2.799530   
785.500000	2.957030   
786.000000	3.046803   
786.500000	3.018553   
787.000000	2.944757   
787.500000	2.915659   
788.000000	2.879666   
788.500000	2.903363   
789.000000	2.961909   
789.500000	3.077863   
790.000000	3.067325   
790.500000	2.936181   
791.000000	2.707143   
791.500000	2.532446   
792.000000	2.388030   
792.500000	2.343371   
793.000000	2.442250   
793.500000	2.604742   
794.000000	2.594931   
794.500000	2.427818   
795.000000	2.282515   
795.500000	2.376318   
796.000000	2.445795   
796.500000	2.512598   
797.000000	2.473871   
797.500000	2.522053   
798.000000	2.481416   
798.500000	2.403106   
799.000000	2.324393   
799.500000	2.306598   
800.000000	2.317856   
800.500000	2.370234   
801.000000	2.495219   
801.500000	2.546151   
802.000000	2.631151   
802.500000	2.512780   
803.000000	2.298439   
803.500000	2.042977   
804.000000	2.009522   
804.500000	2.137568   
805.000000	2.192333   
805.500000	2.150946   
806.000000	2.163174   
806.500000	2.088189   
807.000000	1.940045   
807.500000	1.839121   
808.000000	2.001204   
808.500000	2.072128   
809.000000	2.174893   
809.500000	2.144181   
810.000000	2.214159   
810.500000	2.093303   
811.000000	1.916348   
811.500000	1.808931   
812.000000	1.729674   
812.500000	1.716765   
813.000000	1.763500   
813.500000	2.017810   
814.000000	2.119765   
814.500000	2.149590   
815.000000	2.056727   
815.500000	1.987356   
816.000000	1.765446   
816.500000	1.445681   
817.000000	1.218924   
817.500000	1.282462   
818.000000	1.403446   
818.500000	1.497689   
819.000000	1.626159   
819.500000	1.802818   
820.000000	1.954954   
820.500000	1.924537   
821.000000	1.925863   
821.500000	1.940886   
822.000000	2.045795   
822.500000	2.073893   
823.000000	2.106818   
823.500000	2.029318   
824.000000	2.035340   
824.500000	2.037787   
825.000000	2.116500   
825.500000	2.216348   
826.000000	2.353628   
826.500000	2.527780   
827.000000	2.611174   
827.500000	2.547106   
828.000000	2.341106   
828.500000	2.204143   
829.000000	2.122303   
829.500000	1.993712   
830.000000	1.591204   
830.500000	1.183689   
831.000000	1.090401   
831.500000	1.209371   
832.000000	1.273446   
832.500000	1.176196   
833.000000	1.078378   
833.500000	1.052659   
834.000000	1.121174   
834.500000	1.100030   
835.000000	1.016500   
835.500000	0.928863   
836.000000	0.918969   
836.500000	0.881848   
837.000000	0.860984   
837.500000	0.792068   
838.000000	0.810212   
838.500000	0.763515   
839.000000	0.691954   
839.500000	0.623174   
840.000000	0.620212   
840.500000	0.703393   
841.000000	0.817325   
841.500000	0.903060   
842.000000	0.892310   
842.500000	0.834151   
843.000000	0.747522   
843.500000	0.648530   
844.000000	0.604757   
844.500000	0.584098   
845.000000	0.619121   
845.500000	0.574606   
846.000000	0.385530   
846.500000	0.192560   
847.000000	0.142128   
847.500000	0.292151   
848.000000	0.358075   
848.500000	0.330340   
849.000000	0.207075   
849.500000	0.126719   
850.000000	0.124878   
850.500000	0.115196   
851.000000	0.249492   
851.500000	0.336500   
852.000000	0.388340   
852.500000	0.296719   
853.000000	0.208234   
853.500000	0.100401   
854.000000	-0.007446  
854.500000	-0.070666  
855.000000	-0.105303  
855.500000	-0.036257  
856.000000	-0.017287  
856.500000	0.031992   
857.000000	0.060848   
857.500000	0.084303   
858.000000	0.046090   
858.500000	0.059265   
859.000000	0.096378   
859.500000	0.139363   
860.000000	0.060856   
860.500000	-0.053136  
861.000000	-0.083825  
861.500000	0.017212   
862.000000	0.110757   
862.500000	0.071000   
863.000000	-0.038719  
863.500000	-0.100530  
864.000000	-0.018590  
864.500000	0.073037   
865.000000	0.042439   
865.500000	-0.067507  
866.000000	-0.084583  
866.500000	0.046757   
867.000000	0.102378   
867.500000	0.053250   
868.000000	0.002219   
868.500000	0.024083   
869.000000	0.061719   
869.500000	0.059537   
870.000000	0.090083   
870.500000	0.078575   
871.000000	-0.015363  
871.500000	-0.138340  
872.000000	-0.053242  
872.500000	0.050439   
873.000000	0.102386   
873.500000	0.059462   
874.000000	0.058272   
874.500000	-0.027280  
875.000000	-0.131515  
875.500000	-0.242893  
876.000000	-0.153030  
876.500000	0.005734   
877.000000	0.149295   
877.500000	0.169303   
878.000000	0.064219   
878.500000	-0.060333  
879.000000	-0.095780  
879.500000	-0.038196  
880.000000	0.009386   
880.500000	0.000863   
881.000000	-0.143810  
881.500000	-0.305340  
882.000000	-0.402500  
882.500000	-0.275310  
883.000000	-0.061439  
883.500000	0.122393   
884.000000	0.084537   
884.500000	-0.023803  
885.000000	-0.114363  
885.500000	-0.044500  
886.000000	0.037818   
886.500000	0.066015   
887.000000	0.061265   
887.500000	0.113128   
888.000000	0.091689   
888.500000	-0.070931  
889.000000	-0.243765  
889.500000	-0.239818  
890.000000	-0.124575  
890.500000	-0.032507  
891.000000	-0.069999  
891.500000	-0.113681  
892.000000	-0.160901  
892.500000	-0.143007  
893.000000	-0.072378  
893.500000	0.033234   
894.000000	0.076871   
894.500000	0.069378   
895.000000	0.008462   
895.500000	-0.051833  
896.000000	-0.089553  
896.500000	-0.073166  
897.000000	-0.083871  
897.500000	-0.135939  

