PE FL                   SPECTRUM    ASCII       PEDS        1.60        
  -1
SA9BA1~1.SP
24/04/12
16:20:33.00
24/04/12
16:20:33.00
Jan

897.500000
1









LS55
405.00
5.00
5.00
SCAN
1
20
100
100
0
400
0
1
0
1
5
ON
450 405 
1 0 0
#HDR
-1
-1
#GR
NM

0.00002384185791015625
0.0
450.000000
0.500000
896
8
301.846295
-0.438621
#DATA
450.000000	-0.032999  
450.500000	0.058886   
451.000000	0.031712   
451.500000	0.053590   
452.000000	0.036560   
452.500000	-0.047575  
453.000000	-0.340234  
453.500000	-0.438621  
454.000000	-0.309515  
454.500000	-0.000333  
455.000000	0.152803   
455.500000	0.274689   
456.000000	0.301303   
456.500000	0.262492   
457.000000	0.084712   
457.500000	-0.034234  
458.000000	-0.053386  
458.500000	-0.005674  
459.000000	-0.032628  
459.500000	-0.109628  
460.000000	-0.072393  
460.500000	-0.031340  
461.000000	0.047606   
461.500000	0.080363   
462.000000	0.155075   
462.500000	0.143378   
463.000000	0.022606   
463.500000	-0.144053  
464.000000	-0.251136  
464.500000	-0.221606  
465.000000	-0.103810  
465.500000	0.047083   
466.000000	0.078992   
466.500000	-0.024386  
467.000000	0.012712   
467.500000	0.087454   
468.000000	0.187719   
468.500000	0.017446   
469.000000	-0.015893  
469.500000	0.014098   
470.000000	0.249863   
470.500000	0.168856   
471.000000	0.008962   
471.500000	-0.172136  
472.000000	-0.186007  
472.500000	-0.122325  
473.000000	0.031234   
473.500000	0.225166   
474.000000	0.297227   
474.500000	0.154227   
475.000000	0.001454   
475.500000	0.034409   
476.000000	0.162689   
476.500000	0.188053   
477.000000	0.121893   
477.500000	-0.038037  
478.000000	-0.002310  
478.500000	0.092219   
479.000000	0.219598   
479.500000	0.219787   
480.000000	0.158560   
480.500000	0.103590   
481.000000	0.094015   
481.500000	0.163651   
482.000000	0.248446   
482.500000	0.417931   
483.000000	0.423166   
483.500000	0.351287   
484.000000	0.104871   
484.500000	-0.051651  
485.000000	-0.053037  
485.500000	0.054310   
486.000000	0.109393   
486.500000	0.007886   
487.000000	-0.024787  
487.500000	-0.050318  
488.000000	0.074378   
488.500000	0.214590   
489.000000	0.365507   
489.500000	0.370742   
490.000000	0.157303   
490.500000	-0.086909  
491.000000	-0.085189  
491.500000	0.095613   
492.000000	0.193196   
492.500000	0.148560   
493.000000	0.103416   
493.500000	0.115613   
494.000000	0.068174   
494.500000	0.048287   
495.000000	0.064674   
495.500000	0.158992   
496.000000	0.252606   
496.500000	0.311818   
497.000000	0.208303   
497.500000	0.011530   
498.000000	-0.015598  
498.500000	0.112954   
499.000000	0.261280   
499.500000	0.190310   
500.000000	0.177507   
500.500000	0.077257   
501.000000	0.056174   
501.500000	0.167780   
502.000000	0.471106   
502.500000	0.672204   
503.000000	0.701871   
503.500000	0.629515   
504.000000	0.597196   
504.500000	0.630174   
505.000000	0.680166   
505.500000	0.754378   
506.000000	0.744462   
506.500000	0.836507   
507.000000	0.884537   
507.500000	0.884749   
508.000000	0.696515   
508.500000	0.730939   
509.000000	0.806825   
509.500000	0.999462   
510.000000	0.976621   
510.500000	0.964348   
511.000000	0.891969   
511.500000	0.997250   
512.000000	1.146409   
512.500000	1.223492   
513.000000	1.083719   
513.500000	0.922719   
514.000000	1.001606   
514.500000	1.292757   
515.000000	1.641454   
515.500000	1.827007   
516.000000	1.913643   
516.500000	2.121053   
517.000000	2.287522   
517.500000	2.311992   
518.000000	1.995151   
518.500000	1.688696   
519.000000	1.523515   
519.500000	1.695893   
520.000000	1.892265   
520.500000	2.045227   
521.000000	2.168424   
521.500000	2.354378   
522.000000	2.562393   
522.500000	2.626212   
523.000000	2.661598   
523.500000	2.701613   
524.000000	2.790121   
524.500000	2.921583   
525.000000	3.090681   
525.500000	3.239825   
526.000000	3.230386   
526.500000	3.178295   
527.000000	3.179666   
527.500000	3.339719   
528.000000	3.448962   
528.500000	3.498030   
529.000000	3.614787   
529.500000	4.092590   
530.000000	4.441356   
530.500000	4.685818   
531.000000	4.685901   
531.500000	4.954219   
532.000000	5.180704   
532.500000	5.406787   
533.000000	5.541984   
533.500000	5.783484   
534.000000	5.788734   
534.500000	5.913871   
535.000000	6.421371   
535.500000	7.150765   
536.000000	7.575636   
536.500000	7.684704   
537.000000	7.763484   
537.500000	8.037174   
538.000000	8.205772   
538.500000	8.479878   
539.000000	9.015833   
539.500000	9.847515   
540.000000	10.318174  
540.500000	10.639568  
541.000000	10.415303  
541.500000	10.443969  
542.000000	10.413863  
542.500000	10.845401  
543.000000	10.983121  
543.500000	11.357068  
544.000000	11.649204  
544.500000	12.098810  
545.000000	12.030590  
545.500000	11.344189  
546.000000	10.738492  
546.500000	10.604939  
547.000000	10.983750  
547.500000	11.332712  
548.000000	11.699939  
548.500000	11.951136  
549.000000	12.181386  
549.500000	12.067196  
550.000000	11.779492  
550.500000	11.433386  
551.000000	11.355931  
551.500000	11.545113  
552.000000	11.961386  
552.500000	12.259477  
553.000000	12.381780  
553.500000	12.181825  
554.000000	11.781825  
554.500000	11.536272  
555.000000	11.845848  
555.500000	12.359651  
556.000000	12.893325  
556.500000	13.154757  
557.000000	13.269553  
557.500000	13.255212  
558.000000	13.170840  
558.500000	12.939818  
559.000000	13.020742  
559.500000	13.663053  
560.000000	14.576424  
560.500000	15.317962  
561.000000	15.605000  
561.500000	15.855962  
562.000000	16.112068  
562.500000	16.252401  
563.000000	16.355757  
563.500000	16.923295  
564.000000	17.887295  
564.500000	18.689015  
565.000000	18.876606  
565.500000	18.762333  
566.000000	19.067924  
566.500000	19.508022  
567.000000	20.167598  
567.500000	20.860924  
568.000000	22.009090  
568.500000	22.766931  
569.000000	23.096795  
569.500000	22.993363  
570.000000	22.875007  
570.500000	23.378522  
571.000000	24.159265  
571.500000	25.160037  
572.000000	25.747378  
572.500000	26.619515  
573.000000	27.221757  
573.500000	27.664257  
574.000000	27.576439  
574.500000	27.941030  
575.000000	28.588075  
575.500000	29.260643  
576.000000	29.638030  
576.500000	30.115136  
577.000000	30.544310  
577.500000	31.027348  
578.000000	31.580689  
578.500000	32.235363  
579.000000	32.552931  
579.500000	32.740946  
580.000000	33.214598  
580.500000	33.838219  
581.000000	34.429431  
581.500000	35.221568  
582.000000	36.308689  
582.500000	37.279454  
583.000000	37.779916  
583.500000	38.180189  
584.000000	38.633386  
584.500000	39.076886  
585.000000	39.624227  
585.500000	40.756075  
586.000000	41.780363  
586.500000	42.557409  
587.000000	43.224886  
587.500000	44.295621  
588.000000	45.737500  
588.500000	47.060015  
589.000000	48.019340  
589.500000	48.803613  
590.000000	49.720924  
590.500000	50.919446  
591.000000	52.121507  
591.500000	52.916181  
592.000000	53.375106  
592.500000	53.860477  
593.000000	54.548613  
593.500000	55.610621  
594.000000	56.988007  
594.500000	58.585583  
595.000000	60.071712  
595.500000	61.047757  
596.000000	61.388606  
596.500000	62.303999  
597.000000	64.013181  
597.500000	66.285348  
598.000000	67.706166  
598.500000	68.651174  
599.000000	69.131439  
599.500000	70.645568  
600.000000	72.672749  
600.500000	74.874825  
601.000000	76.129545  
601.500000	77.236727  
602.000000	78.627249  
602.500000	80.543499  
603.000000	82.374234  
603.500000	83.622750  
604.000000	84.085992  
604.500000	84.045257  
605.000000	85.263734  
605.500000	87.654166  
606.000000	89.720734  
606.500000	90.705386  
607.000000	92.261356  
607.500000	95.396803  
608.000000	99.079704  
608.500000	102.332750 
609.000000	104.263984 
609.500000	105.191810 
610.000000	105.477113 
610.500000	107.032484 
611.000000	109.542181 
611.500000	112.296787 
612.000000	114.477765 
612.500000	116.640446 
613.000000	118.867643 
613.500000	121.399174 
614.000000	123.581833 
614.500000	125.725560 
615.000000	127.630553 
615.500000	129.618060 
616.000000	132.007386 
616.500000	134.296719 
617.000000	136.823659 
617.500000	138.973613 
618.000000	141.874575 
618.500000	144.597310 
619.000000	147.459621 
619.500000	148.930969 
620.000000	150.782189 
620.500000	153.521333 
621.000000	157.637106 
621.500000	161.657234 
622.000000	164.143424 
622.500000	166.408545 
623.000000	168.707772 
623.500000	172.818507 
624.000000	176.843765 
624.500000	180.463325 
625.000000	182.763424 
625.500000	186.018333 
626.000000	189.366500 
626.500000	192.525189 
627.000000	194.236696 
627.500000	195.826750 
628.000000	198.504492 
628.500000	202.352962 
629.000000	207.013393 
629.500000	210.839401 
630.000000	213.966856 
630.500000	216.530628 
631.000000	219.677363 
631.500000	222.384075 
632.000000	224.267575 
632.500000	225.401575 
633.000000	228.979992 
633.500000	234.289818 
634.000000	239.667242 
634.500000	240.958257 
635.000000	240.886651 
635.500000	242.628969 
636.000000	247.712727 
636.500000	252.325939 
637.000000	254.925924 
637.500000	257.392537 
638.000000	260.522340 
638.500000	264.276265 
639.000000	265.998583 
639.500000	267.986189 
640.000000	269.734310 
640.500000	271.764166 
641.000000	272.941174 
641.500000	274.517227 
642.000000	275.561393 
642.500000	276.957462 
643.000000	279.392234 
643.500000	283.545174 
644.000000	286.807931 
644.500000	289.834234 
645.000000	292.202515 
645.500000	294.067037 
646.000000	293.475265 
646.500000	292.601000 
647.000000	292.795075 
647.500000	293.902053 
648.000000	294.346643 
648.500000	294.398613 
649.000000	295.687060 
649.500000	296.819727 
650.000000	298.260689 
650.500000	297.835083 
651.000000	297.463848 
651.500000	297.920424 
652.000000	300.582962 
652.500000	301.846295 
653.000000	300.401992 
653.500000	296.494515 
654.000000	293.590113 
654.500000	292.486265 
655.000000	292.562636 
655.500000	292.466787 
656.000000	292.354704 
656.500000	291.714143 
657.000000	290.809742 
657.500000	289.145325 
658.000000	286.941098 
658.500000	284.852204 
659.000000	283.210462 
659.500000	282.423765 
660.000000	281.075848 
660.500000	278.681803 
661.000000	277.142734 
661.500000	276.291257 
662.000000	274.539992 
662.500000	269.851931 
663.000000	265.484136 
663.500000	262.561590 
664.000000	261.198090 
664.500000	257.395068 
665.000000	252.387674 
665.500000	247.033674 
666.000000	243.436257 
666.500000	241.915674 
667.000000	240.201659 
667.500000	235.762833 
668.000000	229.551250 
668.500000	224.225401 
669.000000	220.333310 
669.500000	216.712068 
670.000000	212.684772 
670.500000	206.895143 
671.000000	200.377742 
671.500000	194.858333 
672.000000	192.765037 
672.500000	190.994696 
673.000000	187.182446 
673.500000	182.123166 
674.000000	177.984325 
674.500000	174.752416 
675.000000	170.925189 
675.500000	167.038750 
676.000000	162.954977 
676.500000	158.886719 
677.000000	153.926280 
677.500000	148.720272 
678.000000	144.203234 
678.500000	140.788712 
679.000000	137.588946 
679.500000	132.916734 
680.000000	128.045863 
680.500000	124.698719 
681.000000	122.812878 
681.500000	120.370969 
682.000000	116.360696 
682.500000	112.778310 
683.000000	110.083545 
683.500000	107.747507 
684.000000	104.235439 
684.500000	100.733045 
685.000000	96.893575  
685.500000	92.984969  
686.000000	89.136984  
686.500000	85.851909  
687.000000	83.351363  
687.500000	81.180363  
688.000000	79.376143  
688.500000	77.522507  
689.000000	75.303969  
689.500000	73.247477  
690.000000	70.842257  
690.500000	69.453856  
691.000000	67.850749  
691.500000	65.873772  
692.000000	62.663174  
692.500000	60.241704  
693.000000	59.034901  
693.500000	58.159568  
694.000000	56.233128  
694.500000	53.711704  
695.000000	51.943159  
695.500000	50.198045  
696.000000	48.883962  
696.500000	47.122477  
697.000000	45.722356  
697.500000	44.063000  
698.000000	42.972416  
698.500000	41.382136  
699.000000	40.281871  
699.500000	39.178356  
700.000000	38.777363  
700.500000	37.761196  
701.000000	36.274303  
701.500000	34.744000  
702.000000	33.940113  
702.500000	33.324636  
703.000000	32.163393  
703.500000	30.727340  
704.000000	29.877795  
704.500000	29.752772  
705.000000	29.677356  
705.500000	28.882446  
706.000000	28.042969  
706.500000	26.926969  
707.000000	25.756098  
707.500000	24.388295  
708.000000	23.373750  
708.500000	23.113424  
709.000000	22.843204  
709.500000	22.593530  
710.000000	22.057545  
710.500000	21.871636  
711.000000	21.592840  
711.500000	21.279507  
712.000000	20.437553  
712.500000	19.581219  
713.000000	19.169340  
713.500000	18.693454  
714.000000	18.201757  
714.500000	17.670621  
715.000000	17.826507  
715.500000	18.009060  
716.000000	17.783931  
716.500000	17.093295  
717.000000	16.546053  
717.500000	16.103393  
718.000000	15.673454  
718.500000	15.407363  
719.000000	15.147636  
719.500000	14.807909  
720.000000	14.095393  
720.500000	13.586128  
721.000000	13.285765  
721.500000	13.177742  
722.000000	12.666272  
722.500000	12.118075  
723.000000	11.816522  
723.500000	11.853848  
724.000000	11.863121  
724.500000	11.600992  
725.000000	11.465992  
725.500000	11.471257  
726.000000	11.605795  
726.500000	11.425431  
727.000000	11.133818  
727.500000	10.695962  
728.000000	10.396613  
728.500000	10.078303  
729.000000	9.613803   
729.500000	9.180901   
730.000000	9.086537   
730.500000	9.487719   
731.000000	9.759628   
731.500000	9.564348   
732.000000	9.033916   
732.500000	8.723757   
733.000000	8.654719   
733.500000	8.604242   
734.000000	8.454083   
734.500000	8.291999   
735.000000	8.056537   
735.500000	7.903628   
736.000000	7.746053   
736.500000	7.720598   
737.000000	7.484515   
737.500000	7.195734   
738.000000	6.675681   
738.500000	6.372537   
739.000000	6.206136   
739.500000	6.345530   
740.000000	6.360613   
740.500000	6.460553   
741.000000	6.517045   
741.500000	6.612378   
742.000000	6.565257   
742.500000	6.439075   
743.000000	6.196719   
743.500000	6.093257   
744.000000	6.144189   
744.500000	6.309977   
745.000000	6.284954   
745.500000	6.044803   
746.000000	5.817333   
746.500000	5.586643   
747.000000	5.247242   
747.500000	4.970515   
748.000000	4.970234   
748.500000	5.113454   
749.000000	5.294454   
749.500000	5.509757   
750.000000	5.585068   
750.500000	5.548946   
751.000000	5.123090   
751.500000	4.857583   
752.000000	4.697257   
752.500000	4.954121   
753.000000	4.948507   
753.500000	4.814969   
754.000000	4.429568   
754.500000	4.321174   
755.000000	4.293674   
755.500000	4.374522   
756.000000	4.549515   
756.500000	4.863469   
757.000000	5.091545   
757.500000	5.068537   
758.000000	4.847818   
758.500000	4.669636   
759.000000	4.575060   
759.500000	4.411681   
760.000000	4.169515   
760.500000	4.104659   
761.000000	4.218234   
761.500000	4.328174   
762.000000	4.232628   
762.500000	4.173060   
763.000000	4.181325   
763.500000	4.119280   
764.000000	3.792212   
764.500000	3.635969   
765.000000	3.735825   
765.500000	3.974287   
766.000000	3.877212   
766.500000	3.550128   
767.000000	3.260568   
767.500000	3.364446   
768.000000	3.622378   
768.500000	3.719878   
769.000000	3.668484   
769.500000	3.631818   
770.000000	3.715515   
770.500000	3.770765   
771.000000	3.674734   
771.500000	3.484295   
772.000000	3.340106   
772.500000	3.250310   
773.000000	3.191280   
773.500000	3.182492   
774.000000	3.296530   
774.500000	3.437909   
775.000000	3.515977   
775.500000	3.422181   
776.000000	3.383310   
776.500000	3.362333   
777.000000	3.348469   
777.500000	3.219348   
778.000000	3.171083   
778.500000	3.198174   
779.000000	3.224863   
779.500000	3.183098   
780.000000	3.162651   
780.500000	3.197393   
781.000000	3.064446   
781.500000	2.816212   
782.000000	2.545075   
782.500000	2.622969   
783.000000	2.769962   
783.500000	2.954886   
784.000000	2.985568   
784.500000	3.097727   
785.000000	3.095098   
785.500000	3.097742   
786.000000	3.048984   
786.500000	3.066068   
787.000000	2.935893   
787.500000	2.780136   
788.000000	2.663166   
788.500000	2.728757   
789.000000	2.712166   
789.500000	2.671787   
790.000000	2.542462   
790.500000	2.606106   
791.000000	2.589712   
791.500000	2.624643   
792.000000	2.539303   
792.500000	2.601477   
793.000000	2.619053   
793.500000	2.711833   
794.000000	2.739265   
794.500000	2.775325   
795.000000	2.626734   
795.500000	2.310750   
796.000000	2.192689   
796.500000	2.376484   
797.000000	2.689772   
797.500000	2.589984   
798.000000	2.250704   
798.500000	1.808643   
799.000000	1.732886   
799.500000	1.796000   
800.000000	2.025363   
800.500000	2.107083   
801.000000	2.213992   
801.500000	2.141886   
802.000000	2.051325   
802.500000	1.991212   
803.000000	2.058128   
803.500000	2.040015   
804.000000	2.003166   
804.500000	1.919265   
805.000000	1.861651   
805.500000	1.717931   
806.000000	1.684636   
806.500000	1.748651   
807.000000	1.922810   
807.500000	1.959954   
808.000000	2.075810   
808.500000	1.986477   
809.000000	1.886969   
809.500000	1.801007   
810.000000	1.959689   
810.500000	1.825628   
811.000000	1.608500   
811.500000	1.359651   
812.000000	1.513946   
812.500000	1.785848   
813.000000	1.939303   
813.500000	1.785356   
814.000000	1.572613   
814.500000	1.435628   
815.000000	1.389378   
815.500000	1.402431   
816.000000	1.411022   
816.500000	1.436083   
817.000000	1.475886   
817.500000	1.466621   
818.000000	1.471257   
818.500000	1.440825   
819.000000	1.354825   
819.500000	1.385363   
820.000000	1.606393   
820.500000	1.880727   
821.000000	1.963825   
821.500000	1.882848   
822.000000	1.884416   
822.500000	2.242931   
823.000000	2.618310   
823.500000	2.688151   
824.000000	2.507696   
824.500000	2.394439   
825.000000	2.277189   
825.500000	2.086439   
826.000000	1.838515   
826.500000	2.015500   
827.000000	2.341765   
827.500000	2.445606   
828.000000	2.130863   
828.500000	1.974613   
829.000000	2.014818   
829.500000	2.075537   
830.000000	1.923795   
830.500000	1.771159   
831.000000	1.710833   
831.500000	1.522378   
832.000000	1.348371   
832.500000	1.295765   
833.000000	1.360446   
833.500000	1.220250   
834.000000	1.017166   
834.500000	0.848909   
835.000000	0.908371   
835.500000	0.954863   
836.000000	0.991598   
836.500000	1.000734   
837.000000	1.080265   
837.500000	1.088219   
838.000000	0.979325   
838.500000	0.786696   
839.000000	0.738492   
839.500000	0.793060   
840.000000	0.852939   
840.500000	0.732371   
841.000000	0.632128   
841.500000	0.483378   
842.000000	0.418068   
842.500000	0.273500   
843.000000	0.350651   
843.500000	0.505007   
844.000000	0.682893   
844.500000	0.630030   
845.000000	0.613598   
845.500000	0.656545   
846.000000	0.732060   
846.500000	0.677704   
847.000000	0.584696   
847.500000	0.485393   
848.000000	0.347250   
848.500000	0.271704   
849.000000	0.278659   
849.500000	0.294060   
850.000000	0.250977   
850.500000	0.305704   
851.000000	0.489075   
851.500000	0.593409   
852.000000	0.468053   
852.500000	0.257295   
853.000000	0.196272   
853.500000	0.239113   
854.000000	0.238356   
854.500000	0.073878   
855.000000	-0.117916  
855.500000	-0.124151  
856.000000	0.058954   
856.500000	0.273795   
857.000000	0.243878   
857.500000	-0.003704  
858.000000	-0.139795  
858.500000	-0.041568  
859.000000	0.125681   
859.500000	0.100174   
860.000000	0.002977   
860.500000	-0.069280  
861.000000	0.004446   
861.500000	0.099242   
862.000000	0.230174   
862.500000	0.239098   
863.000000	0.160189   
863.500000	0.036204   
864.000000	0.004712   
864.500000	-0.020174  
865.000000	-0.018825  
865.500000	-0.079545  
866.000000	-0.111106  
866.500000	-0.211159  
867.000000	-0.194636  
867.500000	-0.140606  
868.000000	-0.011212  
868.500000	-0.006704  
869.000000	-0.027469  
869.500000	-0.072696  
870.000000	-0.031128  
870.500000	0.066818   
871.000000	0.151689   
871.500000	0.177765   
872.000000	0.130621   
872.500000	0.132689   
873.000000	0.171265   
873.500000	0.210598   
874.000000	0.146227   
874.500000	0.067159   
875.000000	-0.039401  
875.500000	-0.121106  
876.000000	-0.060037  
876.500000	-0.008719  
877.000000	0.053507   
877.500000	-0.011219  
878.000000	0.019068   
878.500000	-0.066234  
879.000000	-0.065666  
879.500000	-0.086469  
880.000000	0.109568   
880.500000	0.187257   
881.000000	0.166242   
881.500000	0.022553   
882.000000	-0.006356  
882.500000	0.035606   
883.000000	0.108212   
883.500000	0.028969   
884.000000	-0.095606  
884.500000	-0.174727  
885.000000	-0.134196  
885.500000	-0.063128  
886.000000	-0.037681  
886.500000	-0.017871  
887.000000	-0.081462  
887.500000	-0.097878  
888.000000	-0.123083  
888.500000	-0.095272  
889.000000	-0.164424  
889.500000	-0.179068  
890.000000	-0.114901  
890.500000	0.019075   
891.000000	0.064696   
891.500000	0.023545   
892.000000	-0.021257  
892.500000	0.024886   
893.000000	0.027984   
893.500000	-0.017643  
894.000000	-0.100848  
894.500000	-0.101340  
895.000000	-0.033378  
895.500000	0.041931   
896.000000	0.025075   
896.500000	-0.049999  
897.000000	-0.094303  
897.500000	-0.102734  

