PE FL                   SPECTRUM    ASCII       PEDS        1.60        
  -1
SA8395~1.SP
24/04/12
15:33:29.00
24/04/12
15:33:29.00
Jan

897.500000
1









LS55
405.00
5.00
5.00
SCAN
1
20
100
100
0
400
0
1
0
1
5
ON
450 405 
1 0 0
#HDR
-1
-1
#GR
NM

0.00002384185791015625
0.0
450.000000
0.500000
896
8
395.822643
-0.573386
#DATA
450.000000	-0.033000  
450.500000	0.100363   
451.000000	-0.142742  
451.500000	-0.514651  
452.000000	-0.573386  
452.500000	-0.278659  
453.000000	-0.023500  
453.500000	0.054553   
454.000000	0.049977   
454.500000	0.020234   
455.000000	0.027007   
455.500000	0.134159   
456.000000	0.347136   
456.500000	0.412007   
457.000000	0.269916   
457.500000	0.052621   
458.000000	0.052075   
458.500000	0.070378   
459.000000	-0.033242  
459.500000	-0.074196  
460.000000	0.025212   
460.500000	0.274530   
461.000000	0.353166   
461.500000	0.379386   
462.000000	0.217416   
462.500000	0.176439   
463.000000	0.182765   
463.500000	0.400219   
464.000000	0.352560   
464.500000	0.105719   
465.000000	-0.145727  
465.500000	-0.088204  
466.000000	0.159401   
466.500000	0.314295   
467.000000	0.266893   
467.500000	0.072818   
468.000000	-0.041151  
468.500000	-0.060606  
469.000000	0.038651   
469.500000	0.087568   
470.000000	0.142037   
470.500000	0.129939   
471.000000	0.159484   
471.500000	0.164462   
472.000000	0.170045   
472.500000	0.078598   
473.000000	0.083492   
473.500000	0.147340   
474.000000	0.261128   
474.500000	0.155719   
475.000000	0.056598   
475.500000	0.035318   
476.000000	0.255810   
476.500000	0.333075   
477.000000	0.258681   
477.500000	0.047583   
478.000000	-0.001242  
478.500000	-0.029401  
479.000000	0.055431   
479.500000	0.164507   
480.000000	0.235621   
480.500000	0.178022   
481.000000	0.168439   
481.500000	0.104333   
482.000000	0.039651   
482.500000	-0.070878  
483.000000	0.015560   
483.500000	0.146492   
484.000000	0.224818   
484.500000	0.069613   
485.000000	0.082984   
485.500000	0.247704   
486.000000	0.596590   
486.500000	0.714143   
487.000000	0.558477   
487.500000	0.237250   
488.000000	0.082333   
488.500000	0.100696   
489.000000	0.283287   
489.500000	0.445530   
490.000000	0.426590   
490.500000	0.338310   
491.000000	0.196712   
491.500000	0.158037   
492.000000	0.026166   
492.500000	0.073848   
493.000000	0.151924   
493.500000	0.346386   
494.000000	0.347659   
494.500000	0.397401   
495.000000	0.429212   
495.500000	0.450446   
496.000000	0.424454   
496.500000	0.350030   
497.000000	0.373219   
497.500000	0.324878   
498.000000	0.321053   
498.500000	0.198378   
499.000000	0.158613   
499.500000	0.109121   
500.000000	0.219439   
500.500000	0.487553   
501.000000	0.742590   
501.500000	0.814181   
502.000000	0.704060   
502.500000	0.761840   
503.000000	0.814015   
503.500000	0.788371   
504.000000	0.628265   
504.500000	0.753969   
505.000000	0.970977   
505.500000	1.063893   
506.000000	0.946545   
506.500000	0.862462   
507.000000	0.863757   
507.500000	0.866606   
508.000000	0.859939   
508.500000	0.814848   
509.000000	0.784280   
509.500000	0.835348   
510.000000	0.976939   
510.500000	1.127409   
511.000000	1.114553   
511.500000	1.042325   
512.000000	0.916454   
512.500000	0.890060   
513.000000	0.880128   
513.500000	0.971234   
514.000000	1.083621   
514.500000	1.332015   
515.000000	1.575916   
515.500000	1.785250   
516.000000	1.777151   
516.500000	1.526946   
517.000000	1.264962   
517.500000	1.284643   
518.000000	1.681530   
518.500000	1.909522   
519.000000	1.906977   
519.500000	1.822871   
520.000000	1.995856   
520.500000	2.205727   
521.000000	2.367537   
521.500000	2.418507   
522.000000	2.480007   
522.500000	2.550340   
523.000000	2.551159   
523.500000	2.605901   
524.000000	2.624537   
524.500000	2.652106   
525.000000	2.673212   
525.500000	2.750772   
526.000000	2.856787   
526.500000	2.894257   
527.000000	3.038356   
527.500000	3.421734   
528.000000	3.986992   
528.500000	4.307689   
529.000000	4.312348   
529.500000	4.127500   
530.000000	4.002037   
530.500000	4.021893   
531.000000	4.148310   
531.500000	4.463113   
532.000000	4.794166   
532.500000	5.105303   
533.000000	5.228333   
533.500000	5.283227   
534.000000	5.635234   
534.500000	6.208280   
535.000000	6.816431   
535.500000	7.226795   
536.000000	7.470356   
536.500000	7.572265   
537.000000	7.636537   
537.500000	7.764219   
538.000000	8.304583   
538.500000	9.006772   
539.000000	9.502257   
539.500000	9.737363   
540.000000	10.128712  
540.500000	10.625886  
541.000000	11.020803  
541.500000	10.985969  
542.000000	11.102121  
542.500000	11.441787  
543.000000	11.945325  
543.500000	12.199681  
544.000000	12.203060  
544.500000	11.861128  
545.000000	11.468575  
545.500000	11.314272  
546.000000	11.524878  
546.500000	11.687166  
547.000000	11.737712  
547.500000	11.948386  
548.000000	12.367007  
548.500000	12.561121  
549.000000	12.279621  
549.500000	11.925446  
550.000000	11.997143  
550.500000	12.386030  
551.000000	12.866106  
551.500000	13.125901  
552.000000	13.078189  
552.500000	12.771651  
553.000000	12.581856  
553.500000	12.692409  
554.000000	12.823772  
554.500000	12.799333  
555.000000	12.953204  
555.500000	13.577287  
556.000000	14.350606  
556.500000	14.657045  
557.000000	14.321265  
557.500000	14.075522  
558.000000	14.324734  
558.500000	15.021606  
559.000000	15.667083  
559.500000	15.974924  
560.000000	15.743409  
560.500000	15.703363  
561.000000	15.899621  
561.500000	16.546242  
562.000000	17.133363  
562.500000	17.630431  
563.000000	17.884628  
563.500000	18.025636  
564.000000	18.174272  
564.500000	18.512166  
565.000000	18.938007  
565.500000	19.411151  
566.000000	19.938090  
566.500000	20.857553  
567.000000	21.660363  
567.500000	22.413196  
568.000000	23.053446  
568.500000	23.473659  
569.000000	23.717886  
569.500000	24.166583  
570.000000	25.349219  
570.500000	25.997477  
571.000000	26.265037  
571.500000	26.242446  
572.000000	27.244969  
572.500000	28.303825  
573.000000	29.009484  
573.500000	29.304636  
574.000000	30.028000  
574.500000	31.155825  
575.000000	32.281840  
575.500000	32.746181  
576.000000	32.938454  
576.500000	33.262318  
577.000000	33.956522  
577.500000	34.304431  
578.000000	34.502757  
578.500000	34.725871  
579.000000	35.317651  
579.500000	35.850500  
580.000000	36.520295  
580.500000	37.419757  
581.000000	38.216113  
581.500000	38.659765  
582.000000	39.117643  
582.500000	39.931242  
583.000000	41.112606  
583.500000	42.222984  
584.000000	43.141946  
584.500000	43.780856  
585.000000	44.526681  
585.500000	45.445734  
586.000000	46.813856  
586.500000	48.033681  
587.000000	48.855340  
587.500000	49.319863  
588.000000	50.187121  
588.500000	51.494840  
589.000000	52.986507  
589.500000	54.377810  
590.000000	55.804159  
590.500000	57.013196  
591.000000	57.449295  
591.500000	57.679143  
592.000000	58.695212  
592.500000	61.283848  
593.000000	63.789977  
593.500000	65.540810  
594.000000	66.068098  
594.500000	67.212469  
595.000000	68.518659  
595.500000	70.754984  
596.000000	72.689878  
596.500000	74.665840  
597.000000	75.913196  
597.500000	76.534280  
598.000000	76.489734  
598.500000	76.616469  
599.000000	78.090136  
599.500000	80.865121  
600.000000	83.895613  
600.500000	85.480583  
601.000000	86.776765  
601.500000	88.477901  
602.000000	90.467378  
602.500000	91.614636  
603.000000	92.845068  
603.500000	94.598098  
604.000000	96.957977  
604.500000	98.615416  
605.000000	100.057484 
605.500000	101.976022 
606.000000	104.890583 
606.500000	108.034136 
607.000000	110.847143 
607.500000	112.347492 
608.000000	113.141840 
608.500000	114.165833 
609.000000	116.408878 
609.500000	119.793227 
610.000000	123.132545 
610.500000	125.606333 
611.000000	127.210439 
611.500000	129.184325 
612.000000	132.468621 
612.500000	136.178590 
613.000000	139.627946 
613.500000	142.304189 
614.000000	145.348666 
614.500000	148.110643 
615.000000	150.836022 
615.500000	153.015212 
616.000000	155.946272 
616.500000	159.279454 
617.000000	162.925121 
617.500000	166.509575 
618.000000	169.368128 
618.500000	172.397575 
619.000000	174.817469 
619.500000	177.901242 
620.000000	181.050045 
620.500000	184.419924 
621.000000	186.973227 
621.500000	190.303795 
622.000000	193.334318 
622.500000	196.508969 
623.000000	199.521969 
623.500000	204.073196 
624.000000	208.988545 
624.500000	213.888734 
625.000000	217.077196 
625.500000	220.546530 
626.000000	223.527537 
626.500000	226.089848 
627.000000	228.575030 
627.500000	232.565075 
628.000000	237.687219 
628.500000	243.455196 
629.000000	248.956174 
629.500000	253.352810 
630.000000	256.775545 
630.500000	259.851750 
631.000000	263.616636 
631.500000	268.412757 
632.000000	273.775280 
632.500000	279.644015 
633.000000	285.135590 
633.500000	288.934621 
634.000000	292.513856 
634.500000	295.177833 
635.000000	298.179424 
635.500000	301.517371 
636.000000	308.377393 
636.500000	314.209462 
637.000000	318.041227 
637.500000	318.845681 
638.000000	323.004984 
638.500000	327.804151 
639.000000	332.220037 
639.500000	334.008537 
640.000000	337.144818 
640.500000	341.144719 
641.000000	346.209704 
641.500000	349.870356 
642.000000	352.065992 
642.500000	353.387984 
643.000000	356.025878 
643.500000	359.264363 
644.000000	363.553962 
644.500000	366.728325 
645.000000	369.067037 
645.500000	369.413803 
646.000000	371.518977 
646.500000	374.842962 
647.000000	378.644530 
647.500000	379.049954 
648.000000	379.919113 
648.500000	382.497136 
649.000000	387.280386 
649.500000	390.073553 
650.000000	390.792795 
650.500000	390.062310 
651.000000	390.542999 
651.500000	391.238515 
652.000000	391.913015 
652.500000	392.531340 
653.000000	393.965249 
653.500000	395.822643 
654.000000	395.476045 
654.500000	393.156007 
655.000000	390.998492 
655.500000	390.222492 
656.000000	389.144719 
656.500000	387.440765 
657.000000	385.560886 
657.500000	384.482507 
658.000000	384.692545 
658.500000	386.134606 
659.000000	387.929537 
659.500000	387.949265 
660.000000	385.330446 
660.500000	382.204750 
661.000000	378.825310 
661.500000	376.589265 
662.000000	374.740621 
662.500000	373.709280 
663.000000	370.232287 
663.500000	364.940545 
664.000000	359.766166 
664.500000	356.410749 
665.000000	354.392840 
665.500000	350.936083 
666.000000	347.779909 
666.500000	342.420863 
667.000000	337.227136 
667.500000	330.859401 
668.000000	328.576477 
668.500000	327.615765 
669.000000	325.929901 
669.500000	319.455181 
670.000000	312.475174 
670.500000	307.575939 
671.000000	304.574098 
671.500000	300.870212 
672.000000	295.371181 
672.500000	289.383318 
673.000000	282.804833 
673.500000	276.595022 
674.000000	271.291590 
674.500000	266.137022 
675.000000	259.739098 
675.500000	253.026606 
676.000000	248.378303 
676.500000	244.366674 
677.000000	239.396651 
677.500000	232.668090 
678.000000	226.561196 
678.500000	220.318477 
679.000000	215.126750 
679.500000	210.142590 
680.000000	205.771765 
680.500000	200.385477 
681.000000	196.134803 
681.500000	191.228174 
682.000000	185.570356 
682.500000	177.500265 
683.000000	171.597113 
683.500000	167.336530 
684.000000	164.397537 
684.500000	160.121257 
685.000000	156.233212 
685.500000	152.412825 
686.000000	148.554356 
686.500000	143.957492 
687.000000	139.411954 
687.500000	135.427871 
688.000000	130.988780 
688.500000	125.820121 
689.000000	121.379628 
689.500000	118.175068 
690.000000	115.487265 
690.500000	112.134431 
691.000000	109.364060 
691.500000	106.043712 
692.000000	102.499772 
692.500000	98.200462  
693.000000	94.354598  
693.500000	90.939439  
694.000000	87.828151  
694.500000	85.742522  
695.000000	83.995757  
695.500000	82.227340  
696.000000	79.909053  
696.500000	77.679015  
697.000000	74.524106  
697.500000	71.618212  
698.000000	69.536272  
698.500000	68.261128  
699.000000	66.771469  
699.500000	64.915424  
700.000000	63.093363  
700.500000	60.923075  
701.000000	58.395848  
701.500000	56.555098  
702.000000	55.337704  
702.500000	53.963757  
703.000000	52.003719  
703.500000	50.417333  
704.000000	49.129325  
704.500000	47.485530  
705.000000	45.303689  
705.500000	43.513325  
706.000000	42.388265  
706.500000	41.804484  
707.000000	41.175363  
707.500000	40.277189  
708.000000	39.184060  
708.500000	38.315681  
709.000000	37.126636  
709.500000	35.893386  
710.000000	34.443181  
710.500000	33.656946  
711.000000	32.767696  
711.500000	31.862742  
712.000000	30.704954  
712.500000	30.140757  
713.000000	29.639106  
713.500000	29.279128  
714.000000	28.793174  
714.500000	28.101454  
715.000000	27.336643  
715.500000	26.623469  
716.000000	25.872545  
716.500000	25.179446  
717.000000	24.819606  
717.500000	24.654765  
718.000000	23.800272  
718.500000	22.679083  
719.000000	21.921537  
719.500000	22.002924  
720.000000	22.159674  
720.500000	21.870234  
721.000000	21.013727  
721.500000	19.738151  
722.000000	18.642893  
722.500000	18.151606  
723.000000	18.315643  
723.500000	18.479878  
724.000000	18.098492  
724.500000	16.928401  
725.000000	15.744484  
725.500000	15.433340  
726.000000	15.959977  
726.500000	16.116484  
727.000000	15.630969  
727.500000	14.865257  
728.000000	14.547492  
728.500000	14.360856  
729.000000	14.207560  
729.500000	13.996977  
730.000000	13.715409  
730.500000	13.298712  
731.000000	12.687825  
731.500000	12.314954  
732.000000	12.225515  
732.500000	12.460636  
733.000000	12.550689  
733.500000	12.404553  
734.000000	11.954636  
734.500000	11.480378  
735.000000	11.017196  
735.500000	10.757613  
736.000000	10.649954  
736.500000	10.633242  
737.000000	10.481628  
737.500000	10.219318  
738.000000	10.019128  
738.500000	9.867325   
739.000000	9.723583   
739.500000	9.539787   
740.000000	9.377439   
740.500000	9.120886   
741.000000	8.890537   
741.500000	8.661128   
742.000000	8.496454   
742.500000	8.225371   
743.000000	7.967083   
743.500000	7.939765   
744.000000	7.976863   
744.500000	8.091962   
745.000000	8.085333   
745.500000	7.930954   
746.000000	7.540090   
746.500000	7.136969   
747.000000	7.106356   
747.500000	7.444772   
748.000000	7.620318   
748.500000	7.179098   
749.000000	6.731401   
749.500000	6.649356   
750.000000	6.911575   
750.500000	6.846242   
751.000000	6.446757   
751.500000	6.053878   
752.000000	5.947477   
752.500000	5.938287   
753.000000	5.927348   
753.500000	5.773242   
754.000000	5.595598   
754.500000	5.316340   
755.000000	5.099196   
755.500000	5.172568   
756.000000	5.735946   
756.500000	6.175287   
757.000000	6.118977   
757.500000	5.727325   
758.000000	5.595295   
758.500000	5.716787   
759.000000	5.850909   
759.500000	5.677787   
760.000000	5.272757   
760.500000	4.983462   
761.000000	5.051060   
761.500000	5.301674   
762.000000	5.384492   
762.500000	5.189219   
763.000000	4.958174   
763.500000	4.690560   
764.000000	4.576863   
764.500000	4.400128   
765.000000	4.361818   
765.500000	4.143886   
766.000000	4.255916   
766.500000	4.419159   
767.000000	4.579750   
767.500000	4.514250   
768.000000	4.612128   
768.500000	4.897946   
769.000000	5.063424   
769.500000	4.765916   
770.000000	4.313810   
770.500000	3.999992   
771.000000	4.007909   
771.500000	4.013863   
772.000000	4.065060   
772.500000	3.862651   
773.000000	3.736090   
773.500000	3.675083   
774.000000	3.742924   
774.500000	3.599674   
775.000000	3.397856   
775.500000	3.392416   
776.000000	3.671810   
776.500000	3.847492   
777.000000	3.810310   
777.500000	3.545871   
778.000000	3.378393   
778.500000	3.298409   
779.000000	3.458727   
779.500000	3.521598   
780.000000	3.397909   
780.500000	3.137878   
781.000000	3.012469   
781.500000	3.054348   
782.000000	3.055409   
782.500000	3.014401   
783.000000	2.961189   
783.500000	3.034727   
784.000000	3.079068   
784.500000	3.075590   
785.000000	3.029121   
785.500000	2.993212   
786.000000	3.103469   
786.500000	3.179507   
787.000000	3.207159   
787.500000	3.191969   
788.000000	3.260712   
788.500000	3.095545   
789.000000	2.770871   
789.500000	2.473553   
790.000000	2.598621   
790.500000	2.854825   
791.000000	3.034924   
791.500000	2.980409   
792.000000	2.970015   
792.500000	2.977909   
793.000000	3.075196   
793.500000	3.070636   
794.000000	2.933318   
794.500000	2.830363   
795.000000	2.810000   
795.500000	2.809954   
796.000000	2.764840   
796.500000	2.642265   
797.000000	2.477037   
797.500000	2.399613   
798.000000	2.541803   
798.500000	2.756121   
799.000000	2.754780   
799.500000	2.553704   
800.000000	2.364795   
800.500000	2.487295   
801.000000	2.458590   
801.500000	2.472924   
802.000000	2.312371   
802.500000	2.366568   
803.000000	2.367659   
803.500000	2.509590   
804.000000	2.523666   
804.500000	2.491522   
805.000000	2.272507   
805.500000	2.087803   
806.000000	2.105083   
806.500000	2.153098   
807.000000	1.956712   
807.500000	1.640659   
808.000000	1.601318   
808.500000	1.731492   
809.000000	1.857833   
809.500000	1.769136   
810.000000	1.679477   
810.500000	1.643893   
811.000000	1.810053   
811.500000	1.923681   
812.000000	2.008022   
812.500000	1.825454   
813.000000	1.562613   
813.500000	1.287446   
814.000000	1.144378   
814.500000	1.231939   
815.000000	1.481378   
815.500000	1.596984   
816.000000	1.644151   
816.500000	1.722136   
817.000000	1.767416   
817.500000	1.577030   
818.000000	1.499143   
818.500000	1.568280   
819.000000	1.922712   
819.500000	2.038287   
820.000000	2.003946   
820.500000	1.849166   
821.000000	1.892530   
821.500000	2.083204   
822.000000	2.402939   
822.500000	2.600106   
823.000000	2.612750   
823.500000	2.544439   
824.000000	2.580651   
824.500000	2.466045   
825.000000	2.303840   
825.500000	2.101689   
826.000000	2.223143   
826.500000	2.370507   
827.000000	2.446212   
827.500000	2.306856   
828.000000	2.033977   
828.500000	1.650166   
829.000000	1.456151   
829.500000	1.599583   
830.000000	1.767477   
830.500000	1.713659   
831.000000	1.526583   
831.500000	1.382090   
832.000000	1.373242   
832.500000	1.318090   
833.000000	1.258151   
833.500000	1.098734   
834.000000	0.994909   
834.500000	1.039053   
835.000000	1.282515   
835.500000	1.415507   
836.000000	1.259507   
836.500000	0.961007   
837.000000	0.793318   
837.500000	0.899249   
838.000000	0.979325   
838.500000	0.994037   
839.000000	0.956295   
839.500000	1.021234   
840.000000	1.072060   
840.500000	1.072636   
841.000000	1.067037   
841.500000	1.078484   
842.000000	1.052196   
842.500000	0.935318   
843.000000	0.795287   
843.500000	0.702636   
844.000000	0.625659   
844.500000	0.608060   
845.000000	0.528272   
845.500000	0.543484   
846.000000	0.502598   
846.500000	0.517310   
847.000000	0.352181   
847.500000	0.293946   
848.000000	0.261984   
848.500000	0.384651   
849.000000	0.382704   
849.500000	0.323772   
850.000000	0.183234   
850.500000	0.183007   
851.000000	0.343272   
851.500000	0.498068   
852.000000	0.593856   
852.500000	0.396340   
853.000000	0.219068   
853.500000	0.047833   
854.000000	0.137977   
854.500000	0.199515   
855.000000	0.274409   
855.500000	0.190742   
856.000000	0.165515   
856.500000	0.265992   
857.000000	0.402515   
857.500000	0.451083   
858.000000	0.244340   
858.500000	0.000719   
859.000000	-0.112553  
859.500000	-0.027606  
860.000000	0.156666   
860.500000	0.274234   
861.000000	0.239553   
861.500000	0.042515   
862.000000	0.021371   
862.500000	0.153545   
863.000000	0.259840   
863.500000	0.168651   
864.000000	0.103681   
864.500000	0.084500   
865.000000	0.001098   
865.500000	-0.153204  
866.000000	-0.160840  
866.500000	-0.070196  
867.000000	-0.026795  
867.500000	-0.073409  
868.000000	-0.062060  
868.500000	-0.020560  
869.000000	0.022212   
869.500000	0.001568   
870.000000	0.015810   
870.500000	0.092606   
871.000000	0.206106   
871.500000	0.182075   
872.000000	0.004742   
872.500000	-0.129234  
873.000000	-0.015992  
873.500000	0.208431   
874.000000	0.286446   
874.500000	0.172787   
875.000000	0.008454   
875.500000	-0.088954  
876.000000	-0.146037  
876.500000	-0.033151  
877.000000	0.087348   
877.500000	0.192007   
878.000000	0.082333   
878.500000	0.062659   
879.000000	0.107250   
879.500000	0.244060   
880.000000	0.193818   
880.500000	0.092340   
881.000000	-0.026424  
881.500000	-0.096878  
882.000000	-0.091507  
882.500000	0.007553   
883.000000	0.201477   
883.500000	0.269204   
884.000000	0.191143   
884.500000	-0.060022  
885.000000	-0.126734  
885.500000	-0.011992  
886.000000	0.175409   
886.500000	0.082106   
887.000000	-0.092969  
887.500000	-0.143628  
888.000000	0.003416   
888.500000	0.125280   
889.000000	0.067136   
889.500000	-0.014598  
890.000000	-0.151606  
890.500000	-0.173068  
891.000000	-0.172924  
891.500000	-0.078219  
892.000000	-0.080371  
892.500000	-0.035780  
893.000000	-0.039643  
893.500000	-0.022181  
894.000000	-0.048022  
894.500000	0.029560   
895.000000	0.085075   
895.500000	0.066348   
896.000000	-0.045962  
896.500000	-0.042810  
897.000000	-0.018174  
897.500000	-0.038234  

