PE FL                   SPECTRUM    ASCII       PEDS        1.60        
  -1
SAA381~1.SP
24/04/12
17:10:28.00
24/04/12
17:10:28.00
Jan

897.500000
1









LS55
405.00
5.00
5.00
SCAN
1
20
100
100
0
400
0
1
0
1
5
ON
450 405 
1 0 0
#HDR
-1
-1
#GR
NM

0.00002384185791015625
0.0
450.000000
0.500000
896
8
210.095984
-0.483053
#DATA
450.000000	-0.169000  
450.500000	-0.004446  
451.000000	0.081068   
451.500000	0.147121   
452.000000	0.267962   
452.500000	0.258840   
453.000000	0.164939   
453.500000	0.065098   
454.000000	0.136469   
454.500000	0.161954   
455.000000	0.273909   
455.500000	0.376060   
456.000000	0.506530   
456.500000	0.422227   
457.000000	0.253803   
457.500000	0.032522   
458.000000	-0.067651  
458.500000	-0.147371  
459.000000	-0.196143  
459.500000	-0.280628  
460.000000	-0.335848  
460.500000	-0.406757  
461.000000	-0.372583  
461.500000	-0.293689  
462.000000	-0.131462  
462.500000	0.105053   
463.000000	0.430424   
463.500000	0.655712   
464.000000	0.614696   
464.500000	0.238606   
465.000000	-0.201325  
465.500000	-0.483053  
466.000000	-0.480439  
466.500000	-0.330401  
467.000000	-0.106575  
467.500000	0.032333   
468.000000	0.084939   
468.500000	0.166310   
469.000000	0.158340   
469.500000	0.081886   
470.000000	-0.212825  
470.500000	-0.339590  
471.000000	-0.309787  
471.500000	-0.054340  
472.000000	0.019174   
472.500000	0.018818   
473.000000	-0.016954  
473.500000	0.023356   
474.000000	0.110946   
474.500000	0.080924   
475.000000	-0.074484  
475.500000	-0.214227  
476.000000	-0.178143  
476.500000	-0.103939  
477.000000	-0.112151  
477.500000	-0.132969  
478.000000	0.060704   
478.500000	0.239136   
479.000000	0.116803   
479.500000	-0.190901  
480.000000	-0.319977  
480.500000	-0.112212  
481.000000	0.151212   
481.500000	0.285068   
482.000000	0.195000   
482.500000	0.172696   
483.000000	0.202219   
483.500000	0.219878   
484.000000	0.011469   
484.500000	-0.164628  
485.000000	-0.041196  
485.500000	0.264196   
486.000000	0.425977   
486.500000	0.341424   
487.000000	0.246886   
487.500000	0.264507   
488.000000	0.253166   
488.500000	0.153795   
489.000000	-0.036636  
489.500000	-0.088901  
490.000000	-0.040454  
490.500000	0.022818   
491.000000	0.063022   
491.500000	0.057992   
492.000000	0.074189   
492.500000	0.060136   
493.000000	0.106280   
493.500000	0.121803   
494.000000	0.269227   
494.500000	0.259325   
495.000000	0.150272   
495.500000	-0.096545  
496.000000	-0.037030  
496.500000	0.228833   
497.000000	0.512401   
497.500000	0.419484   
498.000000	0.304295   
498.500000	0.284340   
499.000000	0.371712   
499.500000	0.248121   
500.000000	0.062522   
500.500000	-0.115462  
501.000000	-0.040068  
501.500000	0.104378   
502.000000	0.357219   
502.500000	0.487765   
503.000000	0.612553   
503.500000	0.586598   
504.000000	0.608106   
504.500000	0.606295   
505.000000	0.715863   
505.500000	0.812916   
506.000000	0.892969   
506.500000	0.834189   
507.000000	0.757000   
507.500000	0.712378   
508.000000	0.827666   
508.500000	0.962583   
509.000000	1.065462   
509.500000	1.032386   
510.000000	1.022363   
510.500000	1.009636   
511.000000	1.002977   
511.500000	0.971303   
512.000000	0.996424   
512.500000	1.122159   
513.000000	1.268045   
513.500000	1.313227   
514.000000	1.385401   
514.500000	1.616757   
515.000000	1.932431   
515.500000	2.130015   
516.000000	2.202098   
516.500000	2.316553   
517.000000	2.430431   
517.500000	2.352613   
518.000000	2.060553   
518.500000	1.986598   
519.000000	2.162234   
519.500000	2.379181   
520.000000	2.359121   
520.500000	2.290772   
521.000000	2.435075   
521.500000	2.699515   
522.000000	2.900901   
522.500000	2.876166   
523.000000	2.837969   
523.500000	2.805454   
524.000000	2.899712   
524.500000	2.959560   
525.000000	2.995901   
525.500000	3.000681   
526.000000	3.188666   
526.500000	3.737795   
527.000000	4.330863   
527.500000	4.575727   
528.000000	4.476803   
528.500000	4.505992   
529.000000	4.671977   
529.500000	4.739022   
530.000000	4.669901   
530.500000	5.021893   
531.000000	5.621333   
531.500000	6.119795   
532.000000	6.295250   
532.500000	6.425356   
533.000000	6.551507   
533.500000	6.831613   
534.000000	7.174219   
534.500000	7.551340   
535.000000	7.823386   
535.500000	7.996234   
536.000000	8.392325   
536.500000	9.124499   
537.000000	9.879704   
537.500000	10.372643  
538.000000	10.542446  
538.500000	10.687886  
539.000000	10.681151  
539.500000	10.764772  
540.000000	10.983333  
540.500000	11.394356  
541.000000	11.576674  
541.500000	11.728287  
542.000000	12.243931  
542.500000	12.631098  
543.000000	12.797325  
543.500000	12.659674  
544.000000	12.659287  
544.500000	12.375795  
545.000000	12.139628  
545.500000	12.100787  
546.000000	12.405000  
546.500000	12.560704  
547.000000	12.469446  
547.500000	12.396159  
548.000000	12.174454  
548.500000	12.045409  
549.000000	11.910265  
549.500000	11.978143  
550.000000	12.017606  
550.500000	12.074803  
551.000000	11.698348  
551.500000	11.462553  
552.000000	11.628742  
552.500000	12.088946  
553.000000	12.223886  
553.500000	12.100522  
554.000000	12.083204  
554.500000	12.463681  
555.000000	12.939598  
555.500000	13.260303  
556.000000	13.447090  
556.500000	13.583674  
557.000000	14.112106  
557.500000	14.622151  
558.000000	14.938795  
558.500000	15.170621  
559.000000	15.804136  
559.500000	16.334159  
560.000000	16.331272  
560.500000	16.098833  
561.000000	16.401204  
561.500000	17.029015  
562.000000	17.666181  
562.500000	18.120977  
563.000000	18.701545  
563.500000	19.106174  
564.000000	19.754257  
564.500000	20.036500  
565.000000	20.411689  
565.500000	20.423151  
566.000000	20.684484  
566.500000	20.917204  
567.000000	21.101371  
567.500000	21.006636  
568.000000	21.248333  
568.500000	21.811742  
569.000000	22.456651  
569.500000	23.104234  
570.000000	23.978787  
570.500000	24.854098  
571.000000	25.247378  
571.500000	25.354553  
572.000000	25.840325  
572.500000	26.724613  
573.000000	27.019098  
573.500000	27.061280  
574.000000	27.373333  
574.500000	28.249181  
575.000000	28.547666  
575.500000	28.361075  
576.000000	28.455886  
576.500000	29.634545  
577.000000	30.827128  
577.500000	31.158356  
578.000000	30.943772  
578.500000	31.382045  
579.000000	32.270704  
579.500000	33.166893  
580.000000	33.665378  
580.500000	34.297136  
581.000000	34.444507  
581.500000	34.694969  
582.000000	35.216121  
582.500000	36.256325  
583.000000	36.960750  
583.500000	37.562590  
584.000000	38.709628  
584.500000	40.388393  
585.000000	42.080742  
585.500000	43.198977  
586.000000	43.426931  
586.500000	43.027674  
587.000000	42.907803  
587.500000	44.186696  
588.000000	46.036893  
588.500000	47.540712  
589.000000	48.098530  
589.500000	48.708537  
590.000000	49.236507  
590.500000	49.990136  
591.000000	51.045250  
591.500000	52.703393  
592.000000	53.934189  
592.500000	54.939931  
593.000000	55.400772  
593.500000	56.017090  
594.000000	56.393674  
594.500000	57.173121  
595.000000	58.436318  
595.500000	60.418409  
596.000000	61.920909  
596.500000	62.649696  
597.000000	62.810416  
597.500000	63.078878  
598.000000	63.564143  
598.500000	64.874015  
599.000000	67.130643  
599.500000	69.834484  
600.000000	71.373143  
600.500000	71.943257  
601.000000	72.307272  
601.500000	73.259886  
602.000000	74.082583  
602.500000	75.068310  
603.000000	75.924931  
603.500000	77.553340  
604.000000	78.858893  
604.500000	80.565393  
605.000000	81.969992  
605.500000	83.974893  
606.000000	86.058136  
606.500000	87.683681  
607.000000	88.208462  
607.500000	88.748098  
608.000000	90.748424  
608.500000	93.842568  
609.000000	96.030962  
609.500000	96.590356  
610.000000	97.219924  
610.500000	99.550484  
611.000000	102.105204 
611.500000	104.333287 
612.000000	106.449257 
612.500000	109.093212 
613.000000	110.807484 
613.500000	111.164712 
614.000000	111.588356 
614.500000	112.634053 
615.000000	114.123780 
615.500000	115.788871 
616.000000	117.845000 
616.500000	120.230651 
617.000000	122.378083 
617.500000	124.392537 
618.000000	126.168113 
618.500000	128.798446 
619.000000	130.855689 
619.500000	132.701545 
620.000000	134.033348 
620.500000	136.546795 
621.000000	139.217454 
621.500000	141.586583 
622.000000	142.707583 
622.500000	145.087022 
623.000000	148.531909 
623.500000	152.256833 
624.000000	154.786606 
624.500000	157.004333 
625.000000	158.401977 
625.500000	158.675143 
626.000000	158.203174 
626.500000	159.999333 
627.000000	164.104128 
627.500000	167.096492 
628.000000	167.537106 
628.500000	168.528871 
629.000000	171.474575 
629.500000	174.841939 
630.000000	176.610628 
630.500000	178.061325 
631.000000	179.175030 
631.500000	180.072196 
632.000000	180.892946 
632.500000	183.226606 
633.000000	186.696000 
633.500000	190.172128 
634.000000	191.522318 
634.500000	192.600083 
635.000000	193.285613 
635.500000	194.594515 
636.000000	194.760848 
636.500000	195.251750 
637.000000	196.475106 
637.500000	198.789727 
638.000000	200.107886 
638.500000	199.871242 
639.000000	200.865053 
639.500000	202.057136 
640.000000	204.545295 
640.500000	204.548439 
641.000000	204.483424 
641.500000	203.622416 
642.000000	205.099204 
642.500000	207.220901 
643.000000	209.950590 
643.500000	210.095984 
644.000000	209.350378 
644.500000	208.271250 
645.000000	207.968068 
645.500000	207.140643 
646.000000	206.792318 
646.500000	206.729545 
647.000000	207.569250 
647.500000	208.392924 
648.000000	209.559416 
648.500000	209.801257 
649.000000	208.013416 
649.500000	205.445196 
650.000000	204.647871 
650.500000	204.182621 
651.000000	203.661909 
651.500000	202.109750 
652.000000	201.659181 
652.500000	199.958371 
653.000000	198.019477 
653.500000	194.995621 
654.000000	194.000234 
654.500000	192.953848 
655.000000	191.429106 
655.500000	188.385181 
656.000000	185.977962 
656.500000	184.547893 
657.000000	184.406590 
657.500000	183.053507 
658.000000	179.857446 
658.500000	175.224750 
659.000000	171.648310 
659.500000	169.485416 
660.000000	168.169613 
660.500000	164.967303 
661.000000	160.693189 
661.500000	156.782500 
662.000000	153.625484 
662.500000	149.815053 
663.000000	146.439946 
663.500000	144.329901 
664.000000	143.113522 
664.500000	140.537992 
665.000000	136.940719 
665.500000	133.745606 
666.000000	130.257424 
666.500000	126.014083 
667.000000	121.833530 
667.500000	119.884196 
668.000000	118.678977 
668.500000	117.109507 
669.000000	113.315318 
669.500000	109.413272 
670.000000	105.449954 
670.500000	103.710000 
671.000000	102.010560 
671.500000	99.884606  
672.000000	95.603621  
672.500000	91.501863  
673.000000	88.143227  
673.500000	85.934371  
674.000000	83.502492  
674.500000	81.111696  
675.000000	78.636371  
675.500000	76.123946  
676.000000	73.662484  
676.500000	71.947098  
677.000000	70.514416  
677.500000	68.841712  
678.000000	66.030159  
678.500000	62.948969  
679.000000	60.315666  
679.500000	58.626962  
680.000000	57.778227  
680.500000	56.890515  
681.000000	55.758174  
681.500000	53.801303  
682.000000	51.744227  
682.500000	49.704333  
683.000000	48.498348  
683.500000	47.325159  
684.000000	45.786143  
684.500000	43.821166  
685.000000	42.329893  
685.500000	41.115303  
686.000000	39.552613  
686.500000	37.495765  
687.000000	36.111901  
687.500000	35.885606  
688.000000	36.082060  
688.500000	35.487613  
689.000000	34.116628  
689.500000	32.517454  
690.000000	31.293878  
690.500000	30.332242  
691.000000	29.427030  
691.500000	28.319537  
692.000000	27.557393  
692.500000	27.221787  
693.000000	27.038856  
693.500000	26.089348  
694.000000	24.816787  
694.500000	23.949250  
695.000000	23.697719  
695.500000	22.979348  
696.000000	22.254219  
696.500000	21.244651  
697.000000	20.950280  
697.500000	20.641924  
698.000000	20.773931  
698.500000	20.258015  
699.000000	19.680969  
699.500000	18.738151  
700.000000	18.241401  
700.500000	17.834037  
701.000000	17.556386  
701.500000	17.161431  
702.000000	16.558371  
702.500000	15.822628  
703.000000	15.529356  
703.500000	15.275060  
704.000000	14.871257  
704.500000	14.209689  
705.000000	14.058098  
705.500000	14.103840  
706.000000	13.921219  
706.500000	13.341121  
707.000000	12.712696  
707.500000	12.403333  
708.000000	12.155621  
708.500000	12.132348  
709.000000	11.949719  
709.500000	11.734871  
710.000000	11.111295  
710.500000	10.563143  
711.000000	10.089303  
711.500000	10.160401  
712.000000	10.395196  
712.500000	10.792901  
713.000000	10.681628  
713.500000	10.488795  
714.000000	10.098106  
714.500000	9.878643   
715.000000	9.389462   
715.500000	9.004257   
716.000000	8.830674   
716.500000	8.990371   
717.000000	8.891530   
717.500000	8.480174   
718.000000	8.128946   
718.500000	8.023583   
719.000000	8.025303   
719.500000	8.000742   
720.000000	7.992583   
720.500000	7.725325   
721.000000	7.251212   
721.500000	6.771181   
722.000000	6.599431   
722.500000	6.508007   
723.000000	6.520416   
723.500000	6.643848   
724.000000	6.942530   
724.500000	6.869151   
725.000000	6.575704   
725.500000	6.387484   
726.000000	6.535757   
726.500000	6.597098   
727.000000	6.456310   
727.500000	6.254962   
728.000000	6.184386   
728.500000	6.046325   
729.000000	5.627090   
729.500000	5.396022   
730.000000	5.628431   
730.500000	6.111318   
731.000000	6.257371   
731.500000	5.977909   
732.000000	5.452681   
732.500000	5.171954   
733.000000	5.273765   
733.500000	5.585946   
734.000000	5.772734   
734.500000	5.543015   
735.000000	5.252401   
735.500000	5.192825   
736.000000	5.326507   
736.500000	5.297295   
737.000000	5.192636   
737.500000	5.132371   
738.000000	5.225386   
738.500000	5.114189   
739.000000	4.785780   
739.500000	4.569204   
740.000000	4.684749   
740.500000	4.826674   
741.000000	4.840333   
741.500000	4.737765   
742.000000	4.661303   
742.500000	4.557363   
743.000000	4.462159   
743.500000	4.542409   
744.000000	4.828386   
744.500000	4.949090   
745.000000	4.851606   
745.500000	4.611530   
746.000000	4.396878   
746.500000	4.224143   
747.000000	4.095734   
747.500000	4.027416   
748.000000	3.973560   
748.500000	3.945787   
749.000000	3.862098   
749.500000	3.838212   
750.000000	3.891515   
750.500000	4.076090   
751.000000	4.151810   
751.500000	3.991196   
752.000000	3.794106   
752.500000	3.755295   
753.000000	3.856174   
753.500000	3.813590   
754.000000	3.796719   
754.500000	3.789590   
755.000000	3.736954   
755.500000	3.647909   
756.000000	3.616257   
756.500000	3.636931   
757.000000	3.584462   
757.500000	3.420371   
758.000000	3.342409   
758.500000	3.385113   
759.000000	3.419621   
759.500000	3.393696   
760.000000	3.462083   
760.500000	3.713128   
761.000000	3.927106   
761.500000	3.809674   
762.000000	3.449878   
762.500000	3.179568   
763.000000	3.109598   
763.500000	3.224651   
764.000000	3.315750   
764.500000	3.254530   
765.000000	3.318318   
765.500000	3.470318   
766.000000	3.697174   
766.500000	3.588454   
767.000000	3.361856   
767.500000	3.213810   
768.000000	3.245128   
768.500000	3.247984   
769.000000	3.124643   
769.500000	3.077106   
770.000000	3.070522   
770.500000	3.256568   
771.000000	3.346598   
771.500000	3.440575   
772.000000	3.484522   
772.500000	3.429045   
773.000000	3.128310   
773.500000	2.764689   
774.000000	2.681037   
774.500000	2.850363   
775.000000	3.061628   
775.500000	3.104507   
776.000000	3.074045   
776.500000	3.028530   
777.000000	3.003560   
777.500000	2.979446   
778.000000	2.965022   
778.500000	3.019128   
779.000000	3.129469   
779.500000	3.198825   
780.000000	3.085295   
780.500000	2.845462   
781.000000	2.711924   
781.500000	2.821704   
782.000000	3.036272   
782.500000	3.037681   
783.000000	2.820863   
783.500000	2.510818   
784.000000	2.389280   
784.500000	2.406643   
785.000000	2.505931   
785.500000	2.530416   
786.000000	2.488984   
786.500000	2.502371   
787.000000	2.660674   
787.500000	2.820265   
788.000000	2.799000   
788.500000	2.705613   
789.000000	2.622098   
789.500000	2.607090   
790.000000	2.685272   
790.500000	2.779484   
791.000000	2.816810   
791.500000	2.655106   
792.000000	2.490704   
792.500000	2.570454   
793.000000	2.799265   
793.500000	2.837409   
794.000000	2.612969   
794.500000	2.271575   
795.000000	2.113696   
795.500000	2.115257   
796.000000	2.275371   
796.500000	2.313340   
797.000000	2.333121   
797.500000	2.200621   
798.000000	2.218340   
798.500000	2.173696   
799.000000	2.141015   
799.500000	2.089030   
800.000000	2.040977   
800.500000	1.991454   
801.000000	1.828060   
801.500000	1.798765   
802.000000	1.865060   
802.500000	2.063969   
803.000000	2.124174   
803.500000	2.181196   
804.000000	2.164825   
804.500000	2.151696   
805.000000	2.059931   
805.500000	1.875462   
806.000000	1.680333   
806.500000	1.436439   
807.000000	1.320636   
807.500000	1.353636   
808.000000	1.546295   
808.500000	1.510568   
809.000000	1.323272   
809.500000	1.076560   
810.000000	1.168568   
810.500000	1.341962   
811.000000	1.386287   
811.500000	1.308484   
812.000000	1.379909   
812.500000	1.445984   
813.000000	1.316507   
813.500000	1.084500   
814.000000	1.112674   
814.500000	1.508954   
815.000000	1.883924   
815.500000	2.012007   
816.000000	1.816037   
816.500000	1.579159   
817.000000	1.328189   
817.500000	1.439750   
818.000000	1.636037   
818.500000	1.791469   
819.000000	1.622090   
819.500000	1.564121   
820.000000	1.608833   
820.500000	1.662492   
821.000000	1.470598   
821.500000	1.381007   
822.000000	1.639984   
822.500000	2.002530   
823.000000	2.258356   
823.500000	2.257621   
824.000000	2.315045   
824.500000	2.250772   
825.000000	2.195689   
825.500000	2.075863   
826.000000	2.112893   
826.500000	2.213469   
827.000000	2.369863   
827.500000	2.447924   
828.000000	2.343606   
828.500000	2.153136   
829.000000	1.911015   
829.500000	1.745893   
830.000000	1.556878   
830.500000	1.456416   
831.000000	1.470333   
831.500000	1.514856   
832.000000	1.527757   
832.500000	1.473636   
833.000000	1.333515   
833.500000	1.123098   
834.000000	0.983340   
834.500000	0.985053   
835.000000	1.064969   
835.500000	1.101113   
836.000000	1.047621   
836.500000	1.004378   
837.000000	0.995159   
837.500000	1.030984   
838.000000	0.986522   
838.500000	0.940439   
839.000000	0.922772   
839.500000	0.940719   
840.000000	0.920469   
840.500000	0.890780   
841.000000	0.850143   
841.500000	0.827446   
842.000000	0.712507   
842.500000	0.606212   
843.000000	0.471901   
843.500000	0.385257   
844.000000	0.329666   
844.500000	0.460939   
845.000000	0.608454   
845.500000	0.682287   
846.000000	0.588674   
846.500000	0.536113   
847.000000	0.497818   
847.500000	0.436265   
848.000000	0.310848   
848.500000	0.351030   
849.000000	0.480977   
849.500000	0.556621   
850.000000	0.523863   
850.500000	0.453090   
851.000000	0.271128   
851.500000	0.064750   
852.000000	0.022492   
852.500000	0.101689   
853.000000	0.173295   
853.500000	0.153666   
854.000000	0.254969   
854.500000	0.372424   
855.000000	0.367780   
855.500000	0.226651   
856.000000	0.187727   
856.500000	0.258787   
857.000000	0.307575   
857.500000	0.248606   
858.000000	0.170166   
858.500000	0.104098   
859.000000	0.087287   
859.500000	0.077636   
860.000000	0.097431   
860.500000	0.035545   
861.000000	0.012878   
861.500000	-0.004371  
862.000000	0.076136   
862.500000	0.138136   
863.000000	0.173401   
863.500000	0.171022   
864.000000	0.179030   
864.500000	0.186477   
865.000000	0.136083   
865.500000	0.057840   
866.000000	0.012462   
866.500000	0.003962   
867.000000	-0.017840  
867.500000	-0.090674  
868.000000	-0.120303  
868.500000	-0.092727  
869.000000	-0.064143  
869.500000	-0.048575  
870.000000	-0.071757  
870.500000	-0.102962  
871.000000	-0.107090  
871.500000	0.004098   
872.000000	0.063674   
872.500000	0.032863   
873.000000	-0.049257  
873.500000	-0.011325  
874.000000	0.067371   
874.500000	0.045075   
875.000000	-0.069234  
875.500000	-0.120363  
876.000000	-0.060454  
876.500000	0.002954   
877.000000	0.015113   
877.500000	0.015939   
878.000000	-0.008159  
878.500000	-0.057492  
879.000000	-0.096386  
879.500000	-0.083787  
880.000000	-0.027363  
880.500000	0.022159   
881.000000	-0.016643  
881.500000	-0.045469  
882.000000	-0.067090  
882.500000	-0.046462  
883.000000	-0.103075  
883.500000	-0.172356  
884.000000	-0.204280  
884.500000	-0.096204  
885.000000	-0.014719  
885.500000	0.034659   
886.000000	0.044537   
886.500000	0.047159   
887.000000	0.050696   
887.500000	0.042204   
888.000000	-0.085492  
888.500000	-0.213409  
889.000000	-0.251795  
889.500000	-0.068946  
890.000000	0.139424   
890.500000	0.216159   
891.000000	0.087121   
891.500000	-0.094636  
892.000000	-0.180863  
892.500000	-0.129780  
893.000000	-0.029598  
893.500000	0.001704   
894.000000	0.016583   
894.500000	0.035500   
895.000000	0.044363   
895.500000	0.046515   
896.000000	0.028560   
896.500000	0.076068   
897.000000	0.104015   
897.500000	0.125772   

