PE FL                   SPECTRUM    ASCII       PEDS        1.60        
  -1
SAMPLE~4.SP
24/04/12
15:23:31.00
24/04/12
15:23:31.00
Jan

897.500000
1









LS55
405.00
5.00
5.00
SCAN
1
20
100
100
0
400
0
1
0
1
5
ON
450 405 
1 0 0
#HDR
-1
-1
#GR
NM

0.00002384185791015625
0.0
450.000000
0.500000
896
8
406.792598
-0.229083
#DATA
450.000000	0.034000   
450.500000	0.069909   
451.000000	0.012984   
451.500000	-0.149121  
452.000000	-0.219174  
452.500000	-0.125454  
453.000000	0.042075   
453.500000	0.162765   
454.000000	0.246196   
454.500000	0.271007   
455.000000	0.300416   
455.500000	0.311795   
456.000000	0.416234   
456.500000	0.463484   
457.000000	0.411439   
457.500000	0.166340   
458.000000	0.054795   
458.500000	0.028871   
459.000000	0.259136   
459.500000	0.422636   
460.000000	0.517333   
460.500000	0.375227   
461.000000	0.252386   
461.500000	0.090696   
462.000000	0.008628   
462.500000	-0.120030  
463.000000	-0.143204  
463.500000	-0.079151  
464.000000	0.013916   
464.500000	0.031992   
465.000000	0.013371   
465.500000	0.041174   
466.000000	0.191962   
466.500000	0.322575   
467.000000	0.449083   
467.500000	0.545189   
468.000000	0.572340   
468.500000	0.385795   
469.000000	0.218060   
469.500000	0.144333   
470.000000	0.214121   
470.500000	0.142931   
471.000000	0.038007   
471.500000	-0.017878  
472.000000	0.024787   
472.500000	0.090212   
473.000000	0.189689   
473.500000	0.304515   
474.000000	0.399106   
474.500000	0.434666   
475.000000	0.351409   
475.500000	0.297409   
476.000000	0.246469   
476.500000	0.237901   
477.000000	0.141106   
477.500000	0.036719   
478.000000	0.084128   
478.500000	0.186848   
479.000000	0.171303   
479.500000	0.101507   
480.000000	0.180568   
480.500000	0.236719   
481.000000	0.304772   
481.500000	0.359295   
482.000000	0.510916   
482.500000	0.500090   
483.000000	0.395749   
483.500000	0.322613   
484.000000	0.350363   
484.500000	0.395825   
485.000000	0.544522   
485.500000	0.727901   
486.000000	0.711151   
486.500000	0.386696   
487.000000	0.056757   
487.500000	-0.044848  
488.000000	0.180515   
488.500000	0.304333   
489.000000	0.294681   
489.500000	0.133962   
490.000000	0.140628   
490.500000	0.246727   
491.000000	0.351825   
491.500000	0.367742   
492.000000	0.358575   
492.500000	0.430393   
493.000000	0.417348   
493.500000	0.360810   
494.000000	0.164280   
494.500000	0.093462   
495.000000	0.078560   
495.500000	0.142765   
496.000000	0.046356   
496.500000	0.110515   
497.000000	0.222053   
497.500000	0.431439   
498.000000	0.448371   
498.500000	0.533848   
499.000000	0.667083   
499.500000	0.852765   
500.000000	0.900818   
500.500000	0.829439   
501.000000	0.793204   
501.500000	0.732196   
502.000000	0.688272   
502.500000	0.562734   
503.000000	0.521454   
503.500000	0.534954   
504.000000	0.568871   
504.500000	0.614393   
505.000000	0.706727   
505.500000	0.806303   
506.000000	0.806583   
506.500000	0.824553   
507.000000	0.874477   
507.500000	0.924000   
508.000000	0.810833   
508.500000	0.775780   
509.000000	0.981166   
509.500000	1.350583   
510.000000	1.517871   
510.500000	1.432946   
511.000000	1.206181   
511.500000	1.113984   
512.000000	1.046825   
512.500000	1.165704   
513.000000	1.349886   
513.500000	1.606371   
514.000000	1.605189   
514.500000	1.482045   
515.000000	1.387318   
515.500000	1.529250   
516.000000	1.794772   
516.500000	1.906568   
517.000000	1.900727   
517.500000	1.732507   
518.000000	1.709553   
518.500000	1.631878   
519.000000	1.650477   
519.500000	1.751340   
520.000000	2.129681   
520.500000	2.398825   
521.000000	2.492068   
521.500000	2.381310   
522.000000	2.380530   
522.500000	2.432795   
523.000000	2.564757   
523.500000	2.668030   
524.000000	2.789401   
524.500000	2.852075   
525.000000	2.889000   
525.500000	3.037431   
526.000000	3.125659   
526.500000	3.231189   
527.000000	3.152325   
527.500000	3.311651   
528.000000	3.627666   
528.500000	4.047886   
529.000000	4.059401   
529.500000	3.973325   
530.000000	3.956628   
530.500000	4.222022   
531.000000	4.502484   
531.500000	4.779901   
532.000000	4.953992   
532.500000	5.031128   
533.000000	5.128901   
533.500000	5.508303   
534.000000	5.988651   
534.500000	6.546553   
535.000000	7.053159   
535.500000	7.357340   
536.000000	7.321636   
536.500000	7.294522   
537.000000	7.600742   
537.500000	8.190734   
538.000000	8.705575   
538.500000	8.994780   
539.000000	9.238765   
539.500000	9.572924   
540.000000	10.056871  
540.500000	10.487378  
541.000000	10.636204  
541.500000	10.720318  
542.000000	10.972537  
542.500000	11.480803  
543.000000	11.960477  
543.500000	12.312037  
544.000000	12.219704  
544.500000	12.010363  
545.000000	11.852484  
545.500000	11.936053  
546.000000	12.066651  
546.500000	12.057553  
547.000000	12.288530  
547.500000	12.723348  
548.000000	13.080954  
548.500000	12.933151  
549.000000	12.658598  
549.500000	12.661166  
550.000000	13.037727  
550.500000	13.352901  
551.000000	13.386386  
551.500000	13.284053  
552.000000	13.259863  
552.500000	13.425530  
553.000000	13.471863  
553.500000	13.198446  
554.000000	12.867090  
554.500000	12.736257  
555.000000	12.835007  
555.500000	12.987787  
556.000000	13.329174  
556.500000	14.280969  
557.000000	15.112333  
557.500000	15.353575  
558.000000	14.952128  
558.500000	14.909810  
559.000000	15.349090  
559.500000	16.091643  
560.000000	16.473121  
560.500000	17.162931  
561.000000	17.746613  
561.500000	18.128348  
562.000000	17.942583  
562.500000	17.995871  
563.000000	18.252590  
563.500000	18.771053  
564.000000	19.207643  
564.500000	19.931916  
565.000000	20.738227  
565.500000	21.283446  
566.000000	21.790303  
566.500000	22.205696  
567.000000	23.168681  
567.500000	24.001893  
568.000000	24.484371  
568.500000	24.250477  
569.000000	24.575628  
569.500000	25.643022  
570.000000	27.350719  
570.500000	28.449303  
571.000000	29.020424  
571.500000	29.315734  
572.000000	29.751727  
572.500000	30.309606  
573.000000	30.912606  
573.500000	31.311159  
574.000000	31.790939  
574.500000	32.745787  
575.000000	33.913787  
575.500000	34.818787  
576.000000	34.843606  
576.500000	34.689249  
577.000000	34.808878  
577.500000	35.514174  
578.000000	36.404916  
578.500000	37.416780  
579.000000	38.119166  
579.500000	38.448484  
580.000000	38.849840  
580.500000	40.127280  
581.000000	41.804856  
581.500000	42.379325  
582.000000	41.546818  
582.500000	41.066409  
583.000000	42.231242  
583.500000	44.445363  
584.000000	45.855977  
584.500000	45.884909  
585.000000	45.832803  
585.500000	46.665924  
586.000000	48.304234  
586.500000	49.756992  
587.000000	50.578659  
587.500000	51.278674  
588.000000	52.687196  
588.500000	54.511159  
589.000000	55.907704  
589.500000	56.671628  
590.000000	56.986848  
590.500000	58.332181  
591.000000	60.341515  
591.500000	62.871772  
592.000000	64.610439  
592.500000	66.040803  
593.000000	66.118318  
593.500000	66.545439  
594.000000	68.581484  
594.500000	71.381878  
595.000000	72.704431  
595.500000	72.128515  
596.000000	72.522742  
596.500000	74.586795  
597.000000	77.865113  
597.500000	80.586863  
598.000000	82.970234  
598.500000	84.166590  
599.000000	84.908416  
599.500000	85.684553  
600.000000	87.577810  
600.500000	90.704045  
601.000000	94.702333  
601.500000	96.891818  
602.000000	96.634446  
602.500000	96.129287  
603.000000	98.313045  
603.500000	101.950628 
604.000000	104.462250 
604.500000	105.690106 
605.000000	107.459250 
605.500000	110.486242 
606.000000	113.218946 
606.500000	114.794287 
607.000000	115.629780 
607.500000	117.160886 
608.000000	118.808818 
608.500000	121.327037 
609.000000	124.329742 
609.500000	127.976234 
610.000000	130.230500 
610.500000	132.411765 
611.000000	134.747878 
611.500000	137.824045 
612.000000	139.653015 
612.500000	141.648545 
613.000000	144.546045 
613.500000	148.502916 
614.000000	150.933446 
614.500000	152.596477 
615.000000	153.700310 
615.500000	156.317431 
616.000000	159.570825 
616.500000	164.370371 
617.000000	168.449393 
617.500000	172.099719 
618.000000	174.476962 
618.500000	177.836454 
619.000000	181.116181 
619.500000	184.606075 
620.000000	188.111583 
620.500000	192.845022 
621.000000	197.653068 
621.500000	201.202515 
622.000000	203.107946 
622.500000	205.034143 
623.000000	208.757325 
623.500000	214.073174 
624.000000	219.831015 
624.500000	224.356583 
625.000000	226.762818 
625.500000	228.398462 
626.000000	231.936181 
626.500000	237.555113 
627.000000	243.610401 
627.500000	248.390530 
628.000000	252.760522 
628.500000	256.768356 
629.000000	260.632795 
629.500000	263.587742 
630.000000	267.725666 
630.500000	272.046575 
631.000000	276.420424 
631.500000	280.404810 
632.000000	285.066128 
632.500000	289.090469 
633.000000	292.555015 
633.500000	296.452068 
634.000000	301.869121 
634.500000	308.070151 
635.000000	312.896121 
635.500000	315.836136 
636.000000	316.959068 
636.500000	319.552954 
637.000000	324.047583 
637.500000	329.863696 
638.000000	334.165159 
638.500000	337.741810 
639.000000	342.081545 
639.500000	347.050287 
640.000000	350.716568 
640.500000	352.092560 
641.000000	352.999689 
641.500000	356.393818 
642.000000	362.931780 
642.500000	370.271628 
643.000000	374.684560 
643.500000	376.668924 
644.000000	376.653234 
644.500000	378.736000 
645.000000	381.467712 
645.500000	384.882333 
646.000000	385.813575 
646.500000	386.156287 
647.000000	387.292712 
647.500000	389.587825 
648.000000	391.400280 
648.500000	393.162742 
649.000000	395.460431 
649.500000	397.174636 
650.000000	396.411181 
650.500000	396.086098 
651.000000	399.084780 
651.500000	403.980128 
652.000000	404.872159 
652.500000	401.462992 
653.000000	397.966507 
653.500000	398.131606 
654.000000	401.073325 
654.500000	404.183409 
655.000000	406.792598 
655.500000	406.405318 
656.000000	403.744272 
656.500000	400.308757 
657.000000	398.386939 
657.500000	397.365265 
658.000000	395.636712 
658.500000	395.045181 
659.000000	395.640606 
659.500000	397.154000 
660.000000	395.186469 
660.500000	392.047136 
661.000000	386.387727 
661.500000	382.437318 
662.000000	378.662659 
662.500000	376.246537 
663.000000	372.987765 
663.500000	370.804371 
664.000000	371.171772 
664.500000	370.495007 
665.000000	367.435462 
665.500000	362.311674 
666.000000	359.244689 
666.500000	355.899409 
667.000000	352.342893 
667.500000	347.178500 
668.000000	341.673045 
668.500000	336.454977 
669.000000	332.670386 
669.500000	329.681439 
670.000000	325.142719 
670.500000	319.236325 
671.000000	314.039113 
671.500000	309.457757 
672.000000	303.256280 
672.500000	296.523621 
673.000000	290.165916 
673.500000	285.616015 
674.000000	279.788151 
674.500000	273.774333 
675.000000	267.500545 
675.500000	263.450484 
676.000000	259.708446 
676.500000	254.940954 
677.000000	248.294992 
677.500000	241.165500 
678.000000	235.002568 
678.500000	230.800477 
679.000000	227.565242 
679.500000	222.842250 
680.000000	216.681727 
680.500000	210.851886 
681.000000	205.158212 
681.500000	199.910469 
682.000000	194.265712 
682.500000	190.675560 
683.000000	187.317810 
683.500000	183.008083 
684.000000	175.937772 
684.500000	169.862886 
685.000000	164.299666 
685.500000	160.238651 
686.000000	156.182977 
686.500000	152.579575 
687.000000	147.918053 
687.500000	142.162901 
688.000000	135.906825 
688.500000	131.181810 
689.000000	128.307575 
689.500000	125.671568 
690.000000	122.439159 
690.500000	118.516454 
691.000000	115.096863 
691.500000	111.701803 
692.000000	108.384757 
692.500000	104.302280 
693.000000	101.147477 
693.500000	98.267340  
694.000000	96.110886  
694.500000	93.057871  
695.000000	90.362681  
695.500000	87.527363  
696.000000	85.217136  
696.500000	82.617431  
697.000000	80.281886  
697.500000	77.615772  
698.000000	75.206704  
698.500000	72.995287  
699.000000	71.141356  
699.500000	68.478977  
700.000000	64.822643  
700.500000	62.529462  
701.000000	62.159462  
701.500000	62.272757  
702.000000	60.596825  
702.500000	58.182772  
703.000000	55.716439  
703.500000	53.700583  
704.000000	51.174030  
704.500000	48.915734  
705.000000	47.463037  
705.500000	46.552424  
706.000000	45.592901  
706.500000	44.697234  
707.000000	43.786060  
707.500000	42.588446  
708.000000	40.912159  
708.500000	39.629613  
709.000000	38.738446  
709.500000	37.972696  
710.000000	36.641946  
710.500000	35.865560  
711.000000	35.255507  
711.500000	34.664909  
712.000000	34.094780  
712.500000	33.380143  
713.000000	32.214181  
713.500000	30.811863  
714.000000	30.121227  
714.500000	29.646340  
715.000000	28.868000  
715.500000	27.808189  
716.000000	27.403007  
716.500000	27.079704  
717.000000	26.425295  
717.500000	25.564242  
718.000000	24.755545  
718.500000	24.181356  
719.000000	23.863409  
719.500000	23.505780  
720.000000	22.832886  
720.500000	21.957121  
721.000000	21.183939  
721.500000	20.656545  
722.000000	20.357250  
722.500000	20.161515  
723.000000	19.828575  
723.500000	19.147712  
724.000000	18.652856  
724.500000	18.181136  
725.000000	17.692613  
725.500000	17.042977  
726.000000	16.746227  
726.500000	16.616454  
727.000000	16.176439  
727.500000	15.372340  
728.000000	14.759659  
728.500000	14.966628  
729.000000	15.355954  
729.500000	15.218674  
730.000000	14.147090  
730.500000	13.543401  
731.000000	13.479651  
731.500000	13.679522  
732.000000	13.364765  
732.500000	12.763219  
733.000000	12.214462  
733.500000	12.050545  
734.000000	11.989106  
734.500000	12.037159  
735.000000	11.949598  
735.500000	11.789984  
736.000000	11.372871  
736.500000	10.988621  
737.000000	10.709825  
737.500000	10.832386  
738.000000	10.700462  
738.500000	10.352734  
739.000000	10.050204  
739.500000	10.039363  
740.000000	10.170825  
740.500000	9.938196   
741.000000	9.636999   
741.500000	9.305590   
742.000000	9.415090   
742.500000	9.480704   
743.000000	9.572083   
743.500000	9.276204   
744.000000	8.983439   
744.500000	8.610287   
745.000000	8.454454   
745.500000	8.150045   
746.000000	7.831212   
746.500000	7.682068   
747.000000	7.768227   
747.500000	7.813424   
748.000000	7.875545   
748.500000	7.824674   
749.000000	7.652575   
749.500000	7.166530   
750.000000	6.823583   
750.500000	6.784022   
751.000000	6.855492   
751.500000	6.673909   
752.000000	6.360121   
752.500000	6.366295   
753.000000	6.543681   
753.500000	6.694454   
754.000000	6.670492   
754.500000	6.448204   
755.000000	6.050174   
755.500000	5.628462   
756.000000	5.360977   
756.500000	5.609000   
757.000000	5.916651   
757.500000	5.973356   
758.000000	5.619886   
758.500000	5.458825   
759.000000	5.367681   
759.500000	5.435856   
760.000000	5.425939   
760.500000	5.320674   
761.000000	5.196356   
761.500000	5.067287   
762.000000	5.333098   
762.500000	5.406136   
763.000000	5.292878   
763.500000	4.939310   
764.000000	4.888272   
764.500000	4.971628   
765.000000	5.107196   
765.500000	5.119431   
766.000000	4.957333   
766.500000	4.863863   
767.000000	4.946431   
767.500000	5.134590   
768.000000	4.941878   
768.500000	4.664863   
769.000000	4.392871   
769.500000	4.325787   
770.000000	4.178371   
770.500000	4.151234   
771.000000	4.193310   
771.500000	4.263181   
772.000000	4.098189   
772.500000	3.745068   
773.000000	3.543750   
773.500000	3.662621   
774.000000	3.899424   
774.500000	3.905537   
775.000000	3.650507   
775.500000	3.318181   
776.000000	3.155181   
776.500000	3.304871   
777.000000	3.615659   
777.500000	3.926522   
778.000000	3.951007   
778.500000	3.723174   
779.000000	3.281848   
779.500000	3.024674   
780.000000	3.102166   
780.500000	3.597560   
781.000000	3.770227   
781.500000	3.620598   
782.000000	3.172863   
782.500000	3.036568   
783.000000	3.098469   
783.500000	3.278924   
784.000000	3.179909   
784.500000	3.007696   
785.000000	2.910500   
785.500000	2.930803   
786.000000	3.018545   
786.500000	2.975530   
787.000000	2.914499   
787.500000	2.902954   
788.000000	2.941825   
788.500000	3.048492   
789.000000	3.142575   
789.500000	3.040462   
790.000000	2.741295   
790.500000	2.586886   
791.000000	2.775780   
791.500000	3.087363   
792.000000	3.198136   
792.500000	3.150378   
793.000000	3.046810   
793.500000	2.900583   
794.000000	2.762310   
794.500000	2.824598   
795.000000	2.957568   
795.500000	2.935227   
796.000000	2.809151   
796.500000	2.665500   
797.000000	2.618121   
797.500000	2.491734   
798.000000	2.350106   
798.500000	2.259189   
799.000000	2.376666   
799.500000	2.461234   
800.000000	2.528143   
800.500000	2.212712   
801.000000	1.930818   
801.500000	1.864090   
802.000000	2.196431   
802.500000	2.503325   
803.000000	2.634568   
803.500000	2.521871   
804.000000	2.341734   
804.500000	2.165409   
805.000000	2.117310   
805.500000	2.356022   
806.000000	2.560121   
806.500000	2.664227   
807.000000	2.527166   
807.500000	2.301045   
808.000000	1.987946   
808.500000	2.024719   
809.000000	2.299643   
809.500000	2.652681   
810.000000	2.520015   
810.500000	2.302856   
811.000000	2.119734   
811.500000	2.137992   
812.000000	2.005136   
812.500000	1.868742   
813.000000	1.783325   
813.500000	1.887977   
814.000000	1.991553   
814.500000	2.090424   
815.000000	2.139469   
815.500000	2.096469   
816.000000	1.842401   
816.500000	1.620583   
817.000000	1.646507   
817.500000	1.969121   
818.000000	2.093901   
818.500000	1.954250   
819.000000	1.831204   
819.500000	2.013075   
820.000000	2.213924   
820.500000	2.328659   
821.000000	2.291022   
821.500000	2.331068   
822.000000	2.374128   
822.500000	2.394318   
823.000000	2.341840   
823.500000	2.316583   
824.000000	2.280750   
824.500000	2.473431   
825.000000	2.664348   
825.500000	2.861780   
826.000000	2.694219   
826.500000	2.496734   
827.000000	2.359151   
827.500000	2.485462   
828.000000	2.488848   
828.500000	2.457598   
829.000000	2.308409   
829.500000	2.208840   
830.000000	2.036424   
830.500000	1.875189   
831.000000	1.654628   
831.500000	1.411227   
832.000000	1.256590   
832.500000	1.297287   
833.000000	1.356598   
833.500000	1.239962   
834.000000	1.065090   
834.500000	0.975287   
835.000000	1.051151   
835.500000	1.119363   
836.000000	1.171954   
836.500000	1.075386   
837.000000	0.938530   
837.500000	0.866848   
838.000000	0.931992   
838.500000	1.027053   
839.000000	1.074689   
839.500000	1.064181   
840.000000	1.070909   
840.500000	1.109409   
841.000000	1.118121   
841.500000	1.067022   
842.000000	0.915871   
842.500000	0.787378   
843.000000	0.668318   
843.500000	0.623022   
844.000000	0.680310   
844.500000	0.700287   
845.000000	0.639977   
845.500000	0.545939   
846.000000	0.659878   
846.500000	0.727825   
847.000000	0.721863   
847.500000	0.459295   
848.000000	0.187363   
848.500000	-0.016318  
849.000000	0.035818   
849.500000	0.186522   
850.000000	0.206068   
850.500000	0.241030   
851.000000	0.352750   
851.500000	0.457507   
852.000000	0.258924   
852.500000	-0.011545  
853.000000	-0.093030  
853.500000	-0.006325  
854.000000	0.081212   
854.500000	0.255234   
855.000000	0.505712   
855.500000	0.651856   
856.000000	0.535189   
856.500000	0.262954   
857.000000	0.044363   
857.500000	-0.030954  
858.000000	-0.008969  
858.500000	0.077962   
859.000000	0.274318   
859.500000	0.333469   
860.000000	0.394734   
860.500000	0.274454   
861.000000	0.176825   
861.500000	-0.026212  
862.000000	-0.075909  
862.500000	-0.108340  
863.000000	-0.035515  
863.500000	-0.004386  
864.000000	0.087878   
864.500000	0.202060   
865.000000	0.248628   
865.500000	0.213015   
866.000000	0.124606   
866.500000	0.048909   
867.000000	0.038757   
867.500000	0.058787   
868.000000	0.069060   
868.500000	-0.047272  
869.000000	-0.175537  
869.500000	-0.229083  
870.000000	-0.122431  
870.500000	0.014681   
871.000000	0.114265   
871.500000	0.202696   
872.000000	0.237651   
872.500000	0.172825   
873.000000	0.045098   
873.500000	0.018333   
874.000000	0.029681   
874.500000	-0.002348  
875.000000	0.000787   
875.500000	-0.014795  
876.000000	0.047340   
876.500000	0.021454   
877.000000	0.049295   
877.500000	0.032810   
878.000000	0.008522   
878.500000	-0.036537  
879.000000	-0.030606  
879.500000	-0.024037  
880.000000	-0.039712  
880.500000	0.006765   
881.000000	0.024765   
881.500000	0.014765   
882.000000	-0.077606  
882.500000	-0.041439  
883.000000	0.086280   
883.500000	0.190818   
884.000000	0.142681   
884.500000	0.075689   
885.000000	0.114962   
885.500000	0.154863   
886.000000	0.071136   
886.500000	-0.097818  
887.000000	-0.137053  
887.500000	-0.049507  
888.000000	0.136477   
888.500000	0.264598   
889.000000	0.309022   
889.500000	0.213166   
890.000000	0.050325   
890.500000	-0.004416  
891.000000	-0.012651  
891.500000	-0.033287  
892.000000	-0.062181  
892.500000	0.006083   
893.000000	0.076371   
893.500000	0.081704   
894.000000	0.015484   
894.500000	0.005136   
895.000000	0.028598   
895.500000	0.075757   
896.000000	0.181651   
896.500000	0.247583   
897.000000	0.237492   
897.500000	0.142090   

