PE FL                   SPECTRUM    ASCII       PEDS        1.60        
  -1
SA93A1~1.SP
24/04/12
16:19:08.00
24/04/12
16:19:08.00
Jan

897.500000
1









LS55
405.00
5.00
5.00
SCAN
1
20
100
100
0
400
0
1
0
1
5
ON
450 405 
1 0 0
#HDR
-1
-1
#GR
NM

0.00002384185791015625
0.0
450.000000
0.500000
896
8
309.051143
-0.999000
#DATA
450.000000	-0.999000  
450.500000	-0.287522  
451.000000	-0.021363  
451.500000	-0.136598  
452.000000	-0.168515  
452.500000	0.085621   
453.000000	0.415848   
453.500000	0.480356   
454.000000	0.375446   
454.500000	0.310886   
455.000000	0.294856   
455.500000	0.292613   
456.000000	0.185174   
456.500000	0.100553   
457.000000	0.072318   
457.500000	0.170613   
458.000000	0.155356   
458.500000	0.136045   
459.000000	0.018704   
459.500000	0.045750   
460.000000	-0.046712  
460.500000	-0.051659  
461.000000	-0.088492  
461.500000	0.057196   
462.000000	0.049212   
462.500000	0.091886   
463.000000	-0.009742  
463.500000	-0.002113  
464.000000	-0.005590  
464.500000	0.116348   
465.000000	0.086681   
465.500000	0.016962   
466.000000	-0.155113  
466.500000	-0.129500  
467.000000	0.002977   
467.500000	0.166083   
468.000000	0.202431   
468.500000	0.217295   
469.000000	0.172545   
469.500000	0.067825   
470.000000	-0.094681  
470.500000	-0.084545  
471.000000	0.087681   
471.500000	0.175575   
472.000000	0.119772   
472.500000	0.032780   
473.000000	0.146348   
473.500000	0.408363   
474.000000	0.697871   
474.500000	0.698196   
475.000000	0.518348   
475.500000	0.272234   
476.000000	0.184454   
476.500000	0.074037   
477.000000	-0.050303  
477.500000	-0.189015  
478.000000	-0.109439  
478.500000	0.092818   
479.000000	0.196083   
479.500000	0.176212   
480.000000	0.158848   
480.500000	0.348015   
481.000000	0.484181   
481.500000	0.421924   
482.000000	0.093378   
482.500000	-0.032204  
483.000000	-0.049219  
483.500000	-0.027128  
484.000000	-0.046666  
484.500000	-0.057098  
485.000000	0.096462   
485.500000	0.271833   
486.000000	0.401621   
486.500000	0.435613   
487.000000	0.417106   
487.500000	0.299401   
488.000000	0.244401   
488.500000	0.134030   
489.000000	-0.020757  
489.500000	-0.067007  
490.000000	0.003522   
490.500000	0.140310   
491.000000	0.176174   
491.500000	0.181439   
492.000000	0.300500   
492.500000	0.381568   
493.000000	0.248583   
493.500000	0.044628   
494.000000	-0.001825  
494.500000	0.059727   
495.000000	0.157712   
495.500000	0.272613   
496.000000	0.499469   
496.500000	0.733022   
497.000000	0.609143   
497.500000	0.284113   
498.000000	-0.006742  
498.500000	0.128090   
499.000000	0.433439   
499.500000	0.718106   
500.000000	0.746257   
500.500000	0.717356   
501.000000	0.591196   
501.500000	0.472393   
502.000000	0.481840   
502.500000	0.718386   
503.000000	0.912750   
503.500000	0.911196   
504.000000	0.751462   
504.500000	0.691621   
505.000000	0.660227   
505.500000	0.608151   
506.000000	0.542704   
506.500000	0.615333   
507.000000	0.734136   
507.500000	0.790106   
508.000000	0.719651   
508.500000	0.672007   
509.000000	0.711962   
509.500000	0.868060   
510.000000	1.001325   
510.500000	0.979954   
511.000000	0.818265   
511.500000	0.826083   
512.000000	0.942037   
512.500000	1.239469   
513.000000	1.453590   
513.500000	1.765212   
514.000000	1.916280   
514.500000	1.951772   
515.000000	1.731212   
515.500000	1.674795   
516.000000	1.668992   
516.500000	1.646954   
517.000000	1.647015   
517.500000	1.737636   
518.000000	1.911356   
518.500000	1.990727   
519.000000	1.988053   
519.500000	2.043136   
520.000000	2.261340   
520.500000	2.516636   
521.000000	2.659113   
521.500000	2.675560   
522.000000	2.662856   
522.500000	2.626962   
523.000000	2.563780   
523.500000	2.536863   
524.000000	2.668060   
524.500000	2.824613   
525.000000	2.907825   
525.500000	2.973272   
526.000000	3.150121   
526.500000	3.329386   
527.000000	3.445295   
527.500000	3.486431   
528.000000	3.555272   
528.500000	3.614651   
529.000000	3.673333   
529.500000	3.722196   
530.000000	3.960280   
530.500000	4.344037   
531.000000	4.804272   
531.500000	5.027265   
532.000000	5.145000   
532.500000	5.008143   
533.000000	5.119886   
533.500000	5.310371   
534.000000	5.795878   
534.500000	5.918643   
535.000000	6.039469   
535.500000	6.248537   
536.000000	6.783121   
536.500000	7.326022   
537.000000	7.823181   
537.500000	8.269606   
538.000000	8.824469   
538.500000	9.499409   
539.000000	9.993954   
539.500000	10.244780  
540.000000	10.263560  
540.500000	10.450227  
541.000000	10.740984  
541.500000	10.937712  
542.000000	10.784318  
542.500000	10.784022  
543.000000	10.978416  
543.500000	11.236969  
544.000000	11.257954  
544.500000	11.233272  
545.000000	11.539000  
545.500000	11.832250  
546.000000	12.032840  
546.500000	11.885219  
547.000000	11.891045  
547.500000	11.743250  
548.000000	11.689136  
548.500000	11.620878  
549.000000	11.885242  
549.500000	11.994045  
550.000000	11.910136  
550.500000	11.556189  
551.000000	11.528757  
551.500000	11.811848  
552.000000	12.155378  
552.500000	12.355537  
553.000000	12.451810  
553.500000	12.340151  
554.000000	12.038750  
554.500000	11.859136  
555.000000	12.084795  
555.500000	12.544537  
556.000000	12.911628  
556.500000	12.882477  
557.000000	12.827962  
557.500000	12.896409  
558.000000	13.355825  
558.500000	13.993878  
559.000000	14.509325  
559.500000	14.734840  
560.000000	14.689393  
560.500000	14.995765  
561.000000	15.499287  
561.500000	16.029507  
562.000000	16.178545  
562.500000	16.498090  
563.000000	17.099113  
563.500000	17.858166  
564.000000	18.468272  
564.500000	18.760643  
565.000000	19.035015  
565.500000	19.301727  
566.000000	19.728113  
566.500000	20.061545  
567.000000	20.487992  
567.500000	21.111507  
568.000000	21.406659  
568.500000	21.636439  
569.000000	21.593515  
569.500000	22.286916  
570.000000	23.149598  
570.500000	24.579848  
571.000000	25.278916  
571.500000	25.445219  
572.000000	24.910113  
572.500000	25.265757  
573.000000	26.430151  
573.500000	27.745469  
574.000000	28.462212  
574.500000	28.593825  
575.000000	28.585818  
575.500000	28.887575  
576.000000	29.273507  
576.500000	30.136045  
577.000000	31.085219  
577.500000	31.820787  
578.000000	32.021143  
578.500000	32.337886  
579.000000	33.108484  
579.500000	34.185386  
580.000000	34.785128  
580.500000	35.099439  
581.000000	35.801333  
581.500000	36.275863  
582.000000	36.538212  
582.500000	36.626810  
583.000000	37.454136  
583.500000	38.723772  
584.000000	39.643515  
584.500000	39.898000  
585.000000	40.327454  
585.500000	41.258545  
586.000000	42.463037  
586.500000	43.902643  
587.000000	44.993166  
587.500000	45.596401  
588.000000	45.806909  
588.500000	46.094886  
589.000000	46.870204  
589.500000	48.321204  
590.000000	50.565037  
590.500000	52.469401  
591.000000	53.218075  
591.500000	52.563734  
592.000000	52.814098  
592.500000	54.018643  
593.000000	56.246189  
593.500000	57.830242  
594.000000	59.132075  
594.500000	59.727219  
595.000000	60.552295  
595.500000	60.822469  
596.000000	61.797409  
596.500000	63.142363  
597.000000	64.778075  
597.500000	65.839719  
598.000000	67.036280  
598.500000	68.607409  
599.000000	70.012984  
599.500000	70.889242  
600.000000	72.567795  
600.500000	75.300106  
601.000000	77.964560  
601.500000	79.265765  
602.000000	79.973810  
602.500000	80.804674  
603.000000	82.279060  
603.500000	83.795757  
604.000000	86.286484  
604.500000	88.655636  
605.000000	90.580969  
605.500000	91.555613  
606.000000	92.681545  
606.500000	94.267727  
607.000000	96.036454  
607.500000	97.755590  
608.000000	99.784757  
608.500000	101.585969 
609.000000	102.819651 
609.500000	104.360931 
610.000000	107.550401 
610.500000	110.792053 
611.000000	112.841416 
611.500000	113.512522 
612.000000	114.419598 
612.500000	116.560257 
613.000000	119.419765 
613.500000	122.453613 
614.000000	124.676234 
614.500000	126.627356 
615.000000	128.244409 
615.500000	131.348643 
616.000000	134.907984 
616.500000	138.883181 
617.000000	141.266098 
617.500000	142.885560 
618.000000	144.310340 
618.500000	147.217757 
619.000000	150.139189 
619.500000	152.803825 
620.000000	155.048037 
620.500000	157.366553 
621.000000	160.160871 
621.500000	162.937462 
622.000000	166.235984 
622.500000	169.791363 
623.000000	174.037340 
623.500000	178.197750 
624.000000	181.648515 
624.500000	184.143287 
625.000000	185.749439 
625.500000	187.864181 
626.000000	190.257598 
626.500000	193.560833 
627.000000	196.138212 
627.500000	198.684863 
628.000000	201.606068 
628.500000	206.195719 
629.000000	210.174090 
629.500000	213.813765 
630.000000	216.491287 
630.500000	220.647696 
631.000000	224.860878 
631.500000	228.192621 
632.000000	229.662825 
632.500000	231.467234 
633.000000	233.832712 
633.500000	237.377840 
634.000000	239.848765 
634.500000	242.894356 
635.000000	247.075962 
635.500000	252.396068 
636.000000	256.040772 
636.500000	258.968750 
637.000000	260.797121 
637.500000	263.396022 
638.000000	266.484545 
638.500000	270.363939 
639.000000	273.777393 
639.500000	276.001909 
640.000000	277.690484 
640.500000	280.281424 
641.000000	282.850325 
641.500000	284.180151 
642.000000	285.695166 
642.500000	287.967060 
643.000000	291.534356 
643.500000	294.306689 
644.000000	296.728106 
644.500000	297.474431 
645.000000	298.184219 
645.500000	298.068083 
646.000000	298.404325 
646.500000	298.307893 
647.000000	299.650901 
647.500000	302.225250 
648.000000	305.111560 
648.500000	306.186651 
649.000000	306.069166 
649.500000	305.757878 
650.000000	306.243401 
650.500000	306.328590 
651.000000	306.700446 
651.500000	307.547166 
652.000000	308.528681 
652.500000	309.051143 
653.000000	308.416454 
653.500000	307.115606 
654.000000	305.498568 
654.500000	304.801250 
655.000000	304.414659 
655.500000	303.994356 
656.000000	301.999106 
656.500000	299.849189 
657.000000	297.973196 
657.500000	296.541174 
658.000000	295.254553 
658.500000	295.564174 
659.000000	295.684606 
659.500000	293.515613 
660.000000	289.084636 
660.500000	286.026227 
661.000000	284.732939 
661.500000	282.456696 
662.000000	278.606060 
662.500000	275.406363 
663.000000	274.590962 
663.500000	273.469560 
664.000000	269.970037 
664.500000	264.899000 
665.000000	259.660840 
665.500000	255.183901 
666.000000	250.629045 
666.500000	247.128727 
667.000000	243.785189 
667.500000	240.659030 
668.000000	236.243886 
668.500000	232.188121 
669.000000	228.205931 
669.500000	224.926909 
670.000000	221.645772 
670.500000	218.128878 
671.000000	213.323257 
671.500000	207.775250 
672.000000	202.282613 
672.500000	197.468015 
673.000000	192.762522 
673.500000	188.572310 
674.000000	184.452553 
674.500000	180.310242 
675.000000	175.485878 
675.500000	170.476765 
676.000000	165.198113 
676.500000	160.290893 
677.000000	156.453128 
677.500000	153.505136 
678.000000	150.483484 
678.500000	146.316136 
679.000000	141.196931 
679.500000	136.432340 
680.000000	132.706848 
680.500000	129.792454 
681.000000	126.658075 
681.500000	123.526166 
682.000000	120.302727 
682.500000	116.886621 
683.000000	112.901143 
683.500000	108.857090 
684.000000	105.521537 
684.500000	102.932893 
685.000000	100.622606 
685.500000	98.294287  
686.000000	95.261833  
686.500000	91.796734  
687.000000	87.972643  
687.500000	84.973242  
688.000000	82.256015  
688.500000	80.135840  
689.000000	77.722825  
689.500000	75.969962  
690.000000	73.994712  
690.500000	71.999916  
691.000000	69.202659  
691.500000	67.087439  
692.000000	65.320318  
692.500000	63.829075  
693.000000	61.549303  
693.500000	59.221992  
694.000000	57.070628  
694.500000	54.846196  
695.000000	52.285795  
695.500000	49.975818  
696.000000	48.517083  
696.500000	47.730954  
697.000000	47.103537  
697.500000	46.189666  
698.000000	44.857651  
698.500000	43.646143  
699.000000	42.546151  
699.500000	41.450568  
700.000000	39.847022  
700.500000	38.104022  
701.000000	36.756803  
701.500000	35.881613  
702.000000	34.989621  
702.500000	34.388250  
703.000000	33.948575  
703.500000	33.757742  
704.000000	33.113962  
704.500000	31.972939  
705.000000	30.516856  
705.500000	29.658204  
706.000000	28.706007  
706.500000	27.931121  
707.000000	26.980363  
707.500000	26.501000  
708.000000	26.103386  
708.500000	25.793128  
709.000000	25.101795  
709.500000	24.332825  
710.000000	23.377166  
710.500000	22.889909  
711.000000	22.628795  
711.500000	22.301916  
712.000000	21.291727  
712.500000	20.543196  
713.000000	19.980219  
713.500000	19.712954  
714.000000	19.044386  
714.500000	18.841431  
715.000000	18.624939  
715.500000	18.256477  
716.000000	17.505348  
716.500000	16.831272  
717.000000	16.542924  
717.500000	16.336462  
718.000000	16.298621  
718.500000	16.025287  
719.000000	15.368787  
719.500000	14.262174  
720.000000	13.520000  
720.500000	13.286530  
721.000000	13.378871  
721.500000	13.554606  
722.000000	13.556719  
722.500000	13.270825  
723.000000	12.902818  
723.500000	12.574553  
724.000000	12.441583  
724.500000	12.295704  
725.000000	12.283303  
725.500000	11.962803  
726.000000	11.376522  
726.500000	10.735363  
727.000000	10.528053  
727.500000	10.465992  
728.000000	10.467643  
728.500000	10.300545  
729.000000	10.078196  
729.500000	9.740545   
730.000000	9.630507   
730.500000	9.628393   
731.000000	9.626363   
731.500000	9.500507   
732.000000	9.351363   
732.500000	9.240469   
733.000000	9.261393   
733.500000	9.379159   
734.000000	9.136030   
734.500000	8.510265   
735.000000	7.981060   
735.500000	8.000204   
736.000000	8.086939   
736.500000	8.179825   
737.000000	8.311530   
737.500000	8.227159   
738.000000	7.584840   
738.500000	6.984962   
739.000000	6.913734   
739.500000	7.161371   
740.000000	7.310893   
740.500000	7.364969   
741.000000	7.359651   
741.500000	7.156886   
742.000000	6.942651   
742.500000	6.834795   
743.000000	6.690893   
743.500000	6.301931   
744.000000	6.092742   
744.500000	6.156674   
745.000000	6.201075   
745.500000	5.994136   
746.000000	5.776651   
746.500000	5.756590   
747.000000	5.841303   
747.500000	5.872378   
748.000000	5.731015   
748.500000	5.552977   
749.000000	5.515545   
749.500000	5.635931   
750.000000	5.692250   
750.500000	5.291287   
751.000000	4.857803   
751.500000	4.584037   
752.000000	4.863681   
752.500000	5.002462   
753.000000	4.835015   
753.500000	4.455636   
754.000000	4.559621   
754.500000	4.751159   
755.000000	4.754189   
755.500000	4.516318   
756.000000	4.541196   
756.500000	4.685727   
757.000000	4.718878   
757.500000	4.540787   
758.000000	4.345492   
758.500000	4.109325   
759.000000	4.077674   
759.500000	4.202500   
760.000000	4.242621   
760.500000	4.214424   
761.000000	4.257590   
761.500000	4.449727   
762.000000	4.375901   
762.500000	4.298386   
763.000000	4.391219   
763.500000	4.754000   
764.000000	4.738750   
764.500000	4.412007   
765.000000	3.960318   
765.500000	3.790454   
766.000000	3.775780   
766.500000	3.821409   
767.000000	3.802325   
767.500000	3.718772   
768.000000	3.567871   
768.500000	3.343492   
769.000000	3.191878   
769.500000	3.247068   
770.000000	3.409045   
770.500000	3.373340   
771.000000	3.228348   
771.500000	3.082636   
772.000000	3.126901   
772.500000	3.225371   
773.000000	3.312257   
773.500000	3.420886   
774.000000	3.464757   
774.500000	3.367606   
775.000000	3.174333   
775.500000	3.022606   
776.000000	2.966803   
776.500000	3.014825   
777.000000	3.058886   
777.500000	3.066568   
778.000000	3.037946   
778.500000	3.012045   
779.000000	2.981825   
779.500000	3.014007   
780.000000	3.100280   
780.500000	3.227378   
781.000000	3.196681   
781.500000	3.113742   
782.000000	3.059340   
782.500000	3.081545   
783.000000	3.067113   
783.500000	3.057090   
784.000000	3.089856   
784.500000	3.123500   
785.000000	3.065568   
785.500000	2.984212   
786.000000	2.924651   
786.500000	2.749977   
787.000000	2.575409   
787.500000	2.530234   
788.000000	2.681159   
788.500000	2.823257   
789.000000	2.817356   
789.500000	2.733356   
790.000000	2.565143   
790.500000	2.394257   
791.000000	2.323651   
791.500000	2.497272   
792.000000	2.651780   
792.500000	2.739439   
793.000000	2.674560   
793.500000	2.676446   
794.000000	2.680030   
794.500000	2.631484   
795.000000	2.457939   
795.500000	2.287333   
796.000000	2.181310   
796.500000	2.231143   
797.000000	2.378310   
797.500000	2.464037   
798.000000	2.415818   
798.500000	2.292121   
799.000000	2.297765   
799.500000	2.324840   
800.000000	2.243500   
800.500000	2.188393   
801.000000	2.315636   
801.500000	2.410424   
802.000000	2.098219   
802.500000	1.846742   
803.000000	1.998280   
803.500000	2.495340   
804.000000	2.521606   
804.500000	2.240750   
805.000000	1.934780   
805.500000	1.910030   
806.000000	1.872636   
806.500000	1.795893   
807.000000	1.809962   
807.500000	1.911121   
808.000000	1.935106   
808.500000	1.979856   
809.000000	1.998492   
809.500000	2.030681   
810.000000	1.872431   
810.500000	1.682848   
811.000000	1.519507   
811.500000	1.614810   
812.000000	1.676454   
812.500000	1.589742   
813.000000	1.425113   
813.500000	1.345333   
814.000000	1.528734   
814.500000	1.694666   
815.000000	1.773356   
815.500000	1.740090   
816.000000	1.710787   
816.500000	1.703234   
817.000000	1.590606   
817.500000	1.384181   
818.000000	1.365583   
818.500000	1.501000   
819.000000	1.731250   
819.500000	1.728318   
820.000000	1.701984   
820.500000	1.657075   
821.000000	1.917106   
821.500000	2.216787   
822.000000	2.508507   
822.500000	2.413507   
823.000000	2.241325   
823.500000	2.295856   
824.000000	2.625719   
824.500000	2.761833   
825.000000	2.660424   
825.500000	2.475068   
826.000000	2.445977   
826.500000	2.380893   
827.000000	2.262090   
827.500000	2.165378   
828.000000	2.111939   
828.500000	2.026787   
829.000000	1.879575   
829.500000	1.775015   
830.000000	1.584787   
830.500000	1.281265   
831.000000	1.045537   
831.500000	1.015242   
832.000000	1.152848   
832.500000	1.235628   
833.000000	1.234348   
833.500000	1.161560   
834.000000	1.055810   
834.500000	0.951795   
835.000000	0.925234   
835.500000	0.944363   
836.000000	0.963651   
836.500000	0.921666   
837.000000	0.862856   
837.500000	0.819409   
838.000000	0.862598   
838.500000	0.915030   
839.000000	0.891659   
839.500000	0.714734   
840.000000	0.481340   
840.500000	0.541250   
841.000000	0.702287   
841.500000	0.904303   
842.000000	0.866454   
842.500000	0.808462   
843.000000	0.728590   
843.500000	0.665909   
844.000000	0.584204   
844.500000	0.602318   
845.000000	0.629439   
845.500000	0.515893   
846.000000	0.384545   
846.500000	0.290674   
847.000000	0.260409   
847.500000	0.302106   
848.000000	0.334757   
848.500000	0.357909   
849.000000	0.266795   
849.500000	0.202689   
850.000000	0.213227   
850.500000	0.247757   
851.000000	0.199590   
851.500000	0.148166   
852.000000	0.147439   
852.500000	0.140393   
853.000000	0.074772   
853.500000	-0.044530  
854.000000	-0.073878  
854.500000	0.024015   
855.000000	0.157333   
855.500000	0.170106   
856.000000	0.066825   
856.500000	-0.021560  
857.000000	0.066249   
857.500000	0.188166   
858.000000	0.256750   
858.500000	0.165409   
859.000000	0.099522   
859.500000	0.049287   
860.000000	0.084825   
860.500000	0.105128   
861.000000	0.157409   
861.500000	0.149416   
862.000000	0.048749   
862.500000	-0.023151  
863.000000	0.008136   
863.500000	0.061477   
864.000000	-0.026022  
864.500000	-0.110128  
865.000000	-0.072969  
865.500000	0.066159   
866.000000	0.186560   
866.500000	0.279871   
867.000000	0.384712   
867.500000	0.329409   
868.000000	0.142030   
868.500000	-0.076075  
869.000000	-0.123795  
869.500000	-0.146439  
870.000000	-0.119765  
870.500000	-0.138113  
871.000000	-0.127977  
871.500000	-0.152924  
872.000000	-0.172704  
872.500000	-0.217196  
873.000000	-0.226780  
873.500000	-0.155696  
874.000000	-0.047772  
874.500000	0.040431   
875.000000	0.027424   
875.500000	-0.010553  
876.000000	-0.013386  
876.500000	0.075643   
877.000000	0.168075   
877.500000	0.232719   
878.000000	0.166340   
878.500000	0.078303   
879.000000	-0.002083  
879.500000	-0.000174  
880.000000	0.007393   
880.500000	0.030833   
881.000000	0.010583   
881.500000	0.033310   
882.000000	0.043424   
882.500000	0.062598   
883.000000	0.079954   
883.500000	0.110704   
884.000000	0.062090   
884.500000	-0.062727  
885.000000	-0.166916  
885.500000	-0.108431  
886.000000	0.044325   
886.500000	0.062265   
887.000000	-0.037856  
887.500000	-0.136871  
888.000000	-0.127643  
888.500000	-0.084878  
889.000000	-0.092030  
889.500000	-0.117787  
890.000000	-0.127901  
890.500000	-0.118068  
891.000000	-0.015424  
891.500000	0.169151   
892.000000	0.295431   
892.500000	0.178204   
893.000000	-0.034310  
893.500000	-0.224106  
894.000000	-0.263734  
894.500000	-0.250287  
895.000000	-0.172734  
895.500000	-0.145022  
896.000000	-0.183136  
896.500000	-0.235189  
897.000000	-0.172151  
897.500000	-0.001840  

