PE FL                   SPECTRUM    ASCII       PEDS        1.60        
  -1
SAMPLE~2.SP
24/04/12
15:20:39.00
24/04/12
15:20:39.00
Jan

897.500000
1









LS55
405.00
5.00
5.00
SCAN
1
20
100
100
0
400
0
1
0
1
5
ON
450 405 
1 0 0
#HDR
-1
-1
#GR
NM

0.00002384185791015625
0.0
450.000000
0.500000
896
8
400.464022
-0.384939
#DATA
450.000000	0.806999   
450.500000	0.403909   
451.000000	0.193196   
451.500000	0.163492   
452.000000	0.103689   
452.500000	0.206477   
453.000000	0.346560   
453.500000	0.475780   
454.000000	0.378280   
454.500000	0.354348   
455.000000	0.254272   
455.500000	0.250939   
456.000000	0.290598   
456.500000	0.431045   
457.000000	0.467060   
457.500000	0.266651   
458.000000	0.057727   
458.500000	-0.135674  
459.000000	-0.281810  
459.500000	-0.384939  
460.000000	-0.135310  
460.500000	0.263568   
461.000000	0.504946   
461.500000	0.405212   
462.000000	0.260477   
462.500000	0.234954   
463.000000	0.236022   
463.500000	0.121681   
464.000000	0.073946   
464.500000	0.115015   
465.000000	0.255424   
465.500000	0.246613   
466.000000	0.281954   
466.500000	0.320575   
467.000000	0.483454   
467.500000	0.551053   
468.000000	0.555969   
468.500000	0.449515   
469.000000	0.350265   
469.500000	0.269166   
470.000000	0.196833   
470.500000	0.155893   
471.000000	0.112234   
471.500000	0.123484   
472.000000	0.083325   
472.500000	-0.055681  
473.000000	-0.207568  
473.500000	-0.299333  
474.000000	-0.270333  
474.500000	-0.107060  
475.000000	0.134219   
475.500000	0.305893   
476.000000	0.376909   
476.500000	0.297075   
477.000000	0.186174   
477.500000	0.041280   
478.000000	-0.013166  
478.500000	0.130431   
479.000000	0.354772   
479.500000	0.372515   
480.000000	0.263522   
480.500000	0.125106   
481.000000	0.115409   
481.500000	0.107159   
482.000000	0.065280   
482.500000	-0.039946  
483.000000	-0.067643  
483.500000	0.053946   
484.000000	0.280159   
484.500000	0.355606   
485.000000	0.298674   
485.500000	0.266674   
486.000000	0.339636   
486.500000	0.285871   
487.000000	0.232189   
487.500000	0.158075   
488.000000	0.280484   
488.500000	0.460575   
489.000000	0.623022   
489.500000	0.586280   
490.000000	0.430022   
490.500000	0.325098   
491.000000	0.273878   
491.500000	0.260780   
492.000000	0.215340   
492.500000	0.250803   
493.000000	0.255984   
493.500000	0.213348   
494.000000	0.342863   
494.500000	0.499659   
495.000000	0.579780   
495.500000	0.487893   
496.000000	0.370893   
496.500000	0.310757   
497.000000	0.284878   
497.500000	0.283712   
498.000000	0.335303   
498.500000	0.452000   
499.000000	0.586469   
499.500000	0.675765   
500.000000	0.598090   
500.500000	0.434469   
501.000000	0.275780   
501.500000	0.226439   
502.000000	0.381643   
502.500000	0.606901   
503.000000	0.758204   
503.500000	0.800651   
504.000000	0.798181   
504.500000	0.737863   
505.000000	0.638848   
505.500000	0.544924   
506.000000	0.547840   
506.500000	0.698325   
507.000000	0.855575   
507.500000	1.036575   
508.000000	1.040416   
508.500000	0.954378   
509.000000	0.871628   
509.500000	0.894075   
510.000000	0.959492   
510.500000	1.005204   
511.000000	1.056045   
511.500000	1.121371   
512.000000	1.196696   
512.500000	1.336909   
513.000000	1.562787   
513.500000	1.814689   
514.000000	1.758712   
514.500000	1.479439   
515.000000	1.224696   
515.500000	1.276378   
516.000000	1.516621   
516.500000	1.757863   
517.000000	1.815931   
517.500000	1.759136   
518.000000	1.653166   
518.500000	1.747204   
519.000000	1.819787   
519.500000	1.948212   
520.000000	2.001484   
520.500000	2.291212   
521.000000	2.456242   
521.500000	2.589265   
522.000000	2.449075   
522.500000	2.374174   
523.000000	2.400840   
523.500000	2.659500   
524.000000	2.682128   
524.500000	2.538386   
525.000000	2.421818   
525.500000	2.657946   
526.000000	2.858545   
526.500000	3.178946   
527.000000	3.528174   
527.500000	3.831787   
528.000000	3.724121   
528.500000	3.728287   
529.000000	3.989446   
529.500000	4.223500   
530.000000	4.095916   
530.500000	4.355833   
531.000000	5.038121   
531.500000	5.674780   
532.000000	5.831568   
532.500000	5.972568   
533.000000	6.070401   
533.500000	6.174606   
534.000000	5.841015   
534.500000	5.833075   
535.000000	5.978310   
535.500000	6.484613   
536.000000	6.751499   
536.500000	7.122196   
537.000000	7.492242   
537.500000	8.220856   
538.000000	8.665128   
538.500000	8.973409   
539.000000	9.026931   
539.500000	9.266553   
540.000000	9.818212   
540.500000	10.392280  
541.000000	10.792643  
541.500000	11.005090  
542.000000	11.238060  
542.500000	11.345500  
543.000000	11.461401  
543.500000	11.560590  
544.000000	11.879704  
544.500000	11.983136  
545.000000	11.949409  
545.500000	11.998386  
546.000000	12.148606  
546.500000	12.437068  
547.000000	12.721795  
547.500000	12.839643  
548.000000	12.783856  
548.500000	12.903939  
549.000000	13.094689  
549.500000	12.958727  
550.000000	12.583424  
550.500000	12.582825  
551.000000	13.119393  
551.500000	13.412340  
552.000000	13.309045  
552.500000	13.044287  
553.000000	13.184166  
553.500000	13.508522  
554.000000	14.084431  
554.500000	14.283401  
555.000000	14.062053  
555.500000	13.630083  
556.000000	13.913159  
556.500000	14.183477  
557.000000	14.405659  
557.500000	14.380787  
558.000000	14.683295  
558.500000	15.192946  
559.000000	15.674022  
559.500000	16.021765  
560.000000	16.255393  
560.500000	16.758416  
561.000000	17.211522  
561.500000	17.840363  
562.000000	17.826265  
562.500000	17.814196  
563.000000	17.804742  
563.500000	18.317469  
564.000000	19.203765  
564.500000	19.949742  
565.000000	20.343946  
565.500000	20.536590  
566.000000	21.175969  
566.500000	21.755378  
567.000000	22.598363  
567.500000	23.323469  
568.000000	24.616128  
568.500000	25.576515  
569.000000	26.304651  
569.500000	26.775750  
570.000000	27.407363  
570.500000	27.960416  
571.000000	28.445416  
571.500000	28.998659  
572.000000	29.545954  
572.500000	29.707924  
573.000000	29.615265  
573.500000	29.950015  
574.000000	30.984272  
574.500000	32.463666  
575.000000	33.595924  
575.500000	34.339719  
576.000000	34.918878  
576.500000	35.536840  
577.000000	35.752651  
577.500000	35.828280  
578.000000	36.081909  
578.500000	36.908045  
579.000000	37.981446  
579.500000	38.761045  
580.000000	39.682151  
580.500000	40.171765  
581.000000	40.510621  
581.500000	40.556431  
582.000000	41.531727  
582.500000	42.751303  
583.000000	44.237659  
583.500000	45.190598  
584.000000	46.250598  
584.500000	46.909833  
585.000000	47.321075  
585.500000	47.582045  
586.000000	48.093886  
586.500000	49.184909  
587.000000	50.522893  
587.500000	52.421765  
588.000000	54.098871  
588.500000	55.696348  
589.000000	56.355424  
589.500000	57.101598  
590.000000	58.146977  
590.500000	60.076613  
591.000000	61.648439  
591.500000	62.815628  
592.000000	63.695916  
592.500000	64.654598  
593.000000	66.034590  
593.500000	67.880424  
594.000000	70.076303  
594.500000	71.287795  
595.000000	72.197159  
595.500000	73.264969  
596.000000	75.101742  
596.500000	77.620431  
597.000000	80.178037  
597.500000	82.158166  
598.000000	82.456295  
598.500000	82.823098  
599.000000	83.883083  
599.500000	86.388106  
600.000000	88.609469  
600.500000	91.302249  
601.000000	93.939030  
601.500000	96.214234  
602.000000	97.133712  
602.500000	98.139886  
603.000000	99.761492  
603.500000	102.277477 
604.000000	103.506825 
604.500000	104.652446 
605.000000	106.027363 
605.500000	108.792583 
606.000000	111.193310 
606.500000	113.384234 
607.000000	115.674946 
607.500000	118.439090 
608.000000	121.180037 
608.500000	123.329931 
609.000000	125.241750 
609.500000	126.972143 
610.000000	129.209560 
610.500000	132.332113 
611.000000	135.788689 
611.500000	138.397159 
612.000000	140.350295 
612.500000	142.834727 
613.000000	145.850674 
613.500000	148.040553 
614.000000	149.719750 
614.500000	152.695060 
615.000000	157.196818 
615.500000	161.708651 
616.000000	165.290787 
616.500000	167.941083 
617.000000	169.622136 
617.500000	171.264090 
618.000000	173.843484 
618.500000	178.357431 
619.000000	183.656159 
619.500000	188.375371 
620.000000	191.636757 
620.500000	193.963787 
621.000000	197.282712 
621.500000	201.890143 
622.000000	206.485469 
622.500000	209.172992 
623.000000	211.338219 
623.500000	213.768651 
624.000000	217.379848 
624.500000	220.562030 
625.000000	224.561924 
625.500000	229.378439 
626.000000	234.353901 
626.500000	238.925719 
627.000000	243.484424 
627.500000	247.423651 
628.000000	249.870666 
628.500000	253.657931 
629.000000	258.879545 
629.500000	264.763666 
630.000000	268.500181 
630.500000	271.152909 
631.000000	274.714590 
631.500000	280.463848 
632.000000	286.017651 
632.500000	290.533166 
633.000000	294.791484 
633.500000	300.056704 
634.000000	304.510962 
634.500000	306.102734 
635.000000	306.479007 
635.500000	309.336924 
636.000000	314.888242 
636.500000	319.957022 
637.000000	325.468257 
637.500000	330.493499 
638.000000	335.861643 
638.500000	340.076159 
639.000000	343.445439 
639.500000	344.324295 
640.000000	345.142083 
640.500000	347.046674 
641.000000	352.420363 
641.500000	357.693765 
642.000000	360.627962 
642.500000	362.396371 
643.000000	366.414628 
643.500000	371.111583 
644.000000	375.170992 
644.500000	376.340704 
645.000000	376.280469 
645.500000	376.166113 
646.000000	377.125431 
646.500000	379.599772 
647.000000	383.616575 
647.500000	387.862000 
648.000000	392.506492 
648.500000	396.205856 
649.000000	397.298113 
649.500000	396.401121 
650.000000	396.576969 
650.500000	397.388378 
651.000000	399.261333 
651.500000	399.623303 
652.000000	400.419500 
652.500000	399.420083 
653.000000	400.464022 
653.500000	400.379416 
654.000000	400.237643 
654.500000	397.264068 
655.000000	395.988628 
655.500000	396.560818 
656.000000	398.261083 
656.500000	399.043484 
657.000000	399.555606 
657.500000	399.072242 
658.000000	397.014886 
658.500000	394.374469 
659.000000	392.674113 
659.500000	391.129977 
660.000000	389.617136 
660.500000	387.033106 
661.000000	383.814742 
661.500000	381.044515 
662.000000	378.791469 
662.500000	375.626606 
663.000000	370.577045 
663.500000	367.012045 
664.000000	365.661787 
664.500000	364.940545 
665.000000	361.702424 
665.500000	358.165424 
666.000000	354.512136 
666.500000	351.392765 
667.000000	347.838371 
667.500000	344.454151 
668.000000	339.607863 
668.500000	335.367901 
669.000000	330.996030 
669.500000	326.637757 
670.000000	319.619477 
670.500000	313.504393 
671.000000	309.674962 
671.500000	306.737916 
672.000000	302.193803 
672.500000	295.559318 
673.000000	289.296037 
673.500000	283.666113 
674.000000	279.008446 
674.500000	274.861901 
675.000000	271.284098 
675.500000	266.291356 
676.000000	259.033242 
676.500000	250.868113 
677.000000	243.011689 
677.500000	238.332545 
678.000000	235.417643 
678.500000	232.302613 
679.000000	227.296772 
679.500000	221.182083 
680.000000	215.595371 
680.500000	210.022780 
681.000000	204.430204 
681.500000	199.441530 
682.000000	196.712568 
682.500000	192.251090 
683.000000	186.774037 
683.500000	180.425719 
684.000000	176.067810 
684.500000	171.104537 
685.000000	166.535128 
685.500000	161.001840 
686.000000	157.060030 
686.500000	153.141303 
687.000000	149.366757 
687.500000	143.842750 
688.000000	138.075439 
688.500000	132.909840 
689.000000	130.171477 
689.500000	127.528484 
690.000000	124.568348 
690.500000	120.649477 
691.000000	116.713022 
691.500000	112.622333 
692.000000	109.131780 
692.500000	106.345363 
693.000000	103.822704 
693.500000	100.841742 
694.000000	97.650446  
694.500000	94.099272  
695.000000	91.253068  
695.500000	88.609666  
696.000000	86.551386  
696.500000	83.764318  
697.000000	80.674931  
697.500000	77.520212  
698.000000	75.821636  
698.500000	73.744045  
699.000000	70.950765  
699.500000	67.963121  
700.000000	66.043295  
700.500000	64.609121  
701.000000	63.146007  
701.500000	60.783136  
702.000000	58.435992  
702.500000	56.378196  
703.000000	54.928098  
703.500000	54.010090  
704.000000	52.623401  
704.500000	51.092719  
705.000000	49.263909  
705.500000	47.928181  
706.000000	46.595590  
706.500000	45.714159  
707.000000	44.733151  
707.500000	43.363143  
708.000000	41.813757  
708.500000	40.257977  
709.000000	38.866681  
709.500000	37.509992  
710.000000	36.657416  
710.500000	35.920166  
711.000000	35.187484  
711.500000	34.770143  
712.000000	34.734977  
712.500000	34.390083  
713.000000	32.767969  
713.500000	30.654553  
714.000000	29.635643  
714.500000	29.290984  
715.000000	28.984196  
715.500000	27.873348  
716.000000	27.203462  
716.500000	26.690219  
717.000000	26.351446  
717.500000	25.470575  
718.000000	24.711234  
718.500000	24.146000  
719.000000	24.233916  
719.500000	24.362212  
720.000000	23.956598  
720.500000	22.609204  
721.000000	21.143674  
721.500000	20.137045  
722.000000	19.958833  
722.500000	19.837265  
723.000000	19.515606  
723.500000	18.695303  
724.000000	17.839522  
724.500000	17.262992  
725.000000	17.188515  
725.500000	17.220196  
726.000000	16.949151  
726.500000	16.390969  
727.000000	15.951598  
727.500000	15.863424  
728.000000	15.721348  
728.500000	15.230151  
729.000000	14.566977  
729.500000	14.062924  
730.000000	13.503378  
730.500000	13.130712  
731.000000	13.044083  
731.500000	13.408507  
732.000000	13.555628  
732.500000	13.306939  
733.000000	12.768621  
733.500000	12.342977  
734.000000	12.060787  
734.500000	11.992151  
735.000000	11.860984  
735.500000	11.620954  
736.000000	11.574378  
736.500000	11.410053  
737.000000	11.157068  
737.500000	10.653530  
738.000000	10.503007  
738.500000	10.744598  
739.000000	10.864946  
739.500000	10.523431  
740.000000	9.930795   
740.500000	9.623492   
741.000000	9.445977   
741.500000	9.387454   
742.000000	9.063159   
742.500000	8.787833   
743.000000	8.404393   
743.500000	8.061477   
744.000000	7.825863   
744.500000	7.645522   
745.000000	7.650310   
745.500000	7.957272   
746.000000	8.182499   
746.500000	8.183348   
747.000000	7.781424   
747.500000	7.510393   
748.000000	7.385340   
748.500000	7.365250   
749.000000	7.242537   
749.500000	7.203500   
750.000000	7.255409   
750.500000	7.329704   
751.000000	7.131734   
751.500000	6.617515   
752.000000	6.073931   
752.500000	5.940901   
753.000000	5.993969   
753.500000	6.206575   
754.000000	6.161401   
754.500000	6.077537   
755.000000	5.811174   
755.500000	5.849795   
756.000000	5.986401   
756.500000	5.968151   
757.000000	5.672090   
757.500000	5.468446   
758.000000	5.443363   
758.500000	5.492454   
759.000000	5.569446   
759.500000	5.780128   
760.000000	5.862219   
760.500000	5.637265   
761.000000	5.425780   
761.500000	5.618984   
762.000000	5.834613   
762.500000	5.736022   
763.000000	5.367712   
763.500000	5.157757   
764.000000	5.127204   
764.500000	5.049727   
765.000000	4.866409   
765.500000	4.845628   
766.000000	4.895439   
766.500000	4.903757   
767.000000	4.772848   
767.500000	4.563128   
768.000000	4.443477   
768.500000	4.412651   
769.000000	4.417590   
769.500000	4.308810   
770.000000	4.312318   
770.500000	4.314363   
771.000000	4.261772   
771.500000	3.952325   
772.000000	3.767583   
772.500000	3.846719   
773.000000	4.027803   
773.500000	4.118204   
774.000000	4.106159   
774.500000	4.071401   
775.000000	3.881257   
775.500000	3.635083   
776.000000	3.376136   
776.500000	3.159280   
777.000000	3.089068   
777.500000	3.154477   
778.000000	3.367045   
778.500000	3.397378   
779.000000	3.355598   
779.500000	3.222037   
780.000000	3.246719   
780.500000	3.244098   
781.000000	3.218840   
781.500000	3.157568   
782.000000	3.180136   
782.500000	3.276522   
783.000000	3.330636   
783.500000	3.198734   
784.000000	3.079446   
784.500000	3.058992   
785.000000	3.161674   
785.500000	3.227628   
786.000000	3.266522   
786.500000	3.257825   
787.000000	3.185803   
787.500000	3.102696   
788.000000	3.083083   
788.500000	3.223242   
789.000000	3.262128   
789.500000	3.201409   
790.000000	3.056015   
790.500000	3.062621   
791.000000	3.102825   
791.500000	3.057901   
792.000000	2.862598   
792.500000	2.676037   
793.000000	2.696795   
793.500000	2.802924   
794.000000	2.796053   
794.500000	2.632560   
795.000000	2.542886   
795.500000	2.664250   
796.000000	2.753863   
796.500000	2.701954   
797.000000	2.632090   
797.500000	2.747954   
798.000000	2.694098   
798.500000	2.633787   
799.000000	2.515143   
799.500000	2.542363   
800.000000	2.462363   
800.500000	2.409734   
801.000000	2.383348   
801.500000	2.584318   
802.000000	2.681833   
802.500000	2.638242   
803.000000	2.315363   
803.500000	2.108401   
804.000000	2.131265   
804.500000	2.353212   
805.000000	2.342772   
805.500000	2.194257   
806.000000	2.034939   
806.500000	2.044613   
807.000000	2.066416   
807.500000	2.052340   
808.000000	2.044545   
808.500000	2.070090   
809.000000	2.145272   
809.500000	2.233992   
810.000000	2.221143   
810.500000	1.939674   
811.000000	1.527666   
811.500000	1.324424   
812.000000	1.560189   
812.500000	1.848181   
813.000000	1.969310   
813.500000	2.038681   
814.000000	2.120181   
814.500000	2.075939   
815.000000	1.892886   
815.500000	1.835189   
816.000000	1.828560   
816.500000	1.762303   
817.000000	1.509924   
817.500000	1.441416   
818.000000	1.534439   
818.500000	1.714454   
819.000000	1.785787   
819.500000	1.809575   
820.000000	1.890530   
820.500000	2.052537   
821.000000	2.129636   
821.500000	2.134893   
822.000000	2.117045   
822.500000	2.287401   
823.000000	2.515393   
823.500000	2.782742   
824.000000	2.764492   
824.500000	2.706893   
825.000000	2.631962   
825.500000	2.736772   
826.000000	2.579098   
826.500000	2.388189   
827.000000	2.270075   
827.500000	2.424515   
828.000000	2.333416   
828.500000	2.005386   
829.000000	1.628250   
829.500000	1.552856   
830.000000	1.593446   
830.500000	1.661128   
831.000000	1.568484   
831.500000	1.368651   
832.000000	1.075136   
832.500000	0.870303   
833.000000	0.913537   
833.500000	1.152143   
834.000000	1.321969   
834.500000	1.314378   
835.000000	1.181257   
835.500000	1.011946   
836.000000	0.959484   
836.500000	0.967856   
837.000000	1.063742   
837.500000	1.146159   
838.000000	1.256143   
838.500000	1.136454   
839.000000	0.929545   
839.500000	0.651310   
840.000000	0.627098   
840.500000	0.702757   
841.000000	0.872469   
841.500000	0.946727   
842.000000	0.938681   
842.500000	0.781401   
843.000000	0.611212   
843.500000	0.539696   
844.000000	0.574575   
844.500000	0.590295   
845.000000	0.516159   
845.500000	0.379962   
846.000000	0.319946   
846.500000	0.351659   
847.000000	0.333613   
847.500000	0.290507   
848.000000	0.355348   
848.500000	0.514901   
849.000000	0.550219   
849.500000	0.391712   
850.000000	0.135492   
850.500000	0.037742   
851.000000	0.196590   
851.500000	0.397371   
852.000000	0.532886   
852.500000	0.423295   
853.000000	0.246636   
853.500000	0.034621   
854.000000	0.028696   
854.500000	0.056871   
855.000000	0.161765   
855.500000	0.101075   
856.000000	0.026106   
856.500000	-0.018901  
857.000000	0.033757   
857.500000	0.127939   
858.000000	0.216803   
858.500000	0.202598   
859.000000	0.116704   
859.500000	0.031212   
860.000000	0.090454   
860.500000	0.247833   
861.000000	0.325674   
861.500000	0.210348   
862.000000	0.038787   
862.500000	-0.077128  
863.000000	-0.060833  
863.500000	0.130227   
864.000000	0.292833   
864.500000	0.324962   
865.000000	0.154257   
865.500000	0.009340   
866.000000	-0.117901  
866.500000	-0.170878  
867.000000	-0.177303  
867.500000	-0.048166  
868.000000	0.055045   
868.500000	0.018939   
869.000000	-0.135037  
869.500000	-0.232325  
870.000000	-0.144424  
870.500000	0.030075   
871.000000	0.140848   
871.500000	0.084984   
872.000000	0.034492   
872.500000	-0.036969  
873.000000	-0.082234  
873.500000	-0.030795  
874.000000	0.076848   
874.500000	0.094424   
875.000000	-0.060772  
875.500000	-0.197924  
876.000000	-0.239060  
876.500000	-0.216356  
877.000000	-0.207871  
877.500000	-0.112962  
878.000000	0.051098   
878.500000	0.153204   
879.000000	0.139750   
879.500000	0.025568   
880.000000	-0.107507  
880.500000	-0.123287  
881.000000	-0.076234  
881.500000	0.048045   
882.000000	0.133212   
882.500000	0.263325   
883.000000	0.276939   
883.500000	0.190757   
884.000000	-0.003598  
884.500000	-0.093863  
885.000000	-0.058015  
885.500000	0.006234   
886.000000	-0.005477  
886.500000	-0.028454  
887.000000	-0.025787  
887.500000	0.039727   
888.000000	0.075500   
888.500000	-0.004401  
889.000000	-0.119234  
889.500000	-0.180886  
890.000000	-0.092537  
890.500000	-0.008916  
891.000000	0.046962   
891.500000	0.000325   
892.000000	0.018545   
892.500000	0.043977   
893.000000	0.010931   
893.500000	-0.093560  
894.000000	-0.185121  
894.500000	-0.116204  
895.000000	-0.044560  
895.500000	-0.072984  
896.000000	-0.186333  
896.500000	-0.185189  
897.000000	-0.137234  
897.500000	-0.153000  

