PE FL                   SPECTRUM    ASCII       PEDS        1.60        
  -1
SA93C9~1.SP
24/04/12
15:56:19.00
24/04/12
15:56:19.00
Jan

897.500000
1









LS55
405.00
5.00
5.00
SCAN
1
20
100
100
0
400
0
1
0
1
5
ON
450 405 
1 0 0
#HDR
-1
-1
#GR
NM

0.00002384185791015625
0.0
450.000000
0.500000
896
8
355.592909
-0.315363
#DATA
450.000000	0.849000   
450.500000	0.307325   
451.000000	0.048227   
451.500000	0.088643   
452.000000	0.279530   
452.500000	0.277037   
453.000000	0.148128   
453.500000	0.012196   
454.000000	0.029000   
454.500000	-0.065045  
455.000000	-0.166659  
455.500000	-0.315363  
456.000000	-0.226939  
456.500000	-0.133719  
457.000000	0.052893   
457.500000	0.146848   
458.000000	0.356303   
458.500000	0.372196   
459.000000	0.301765   
459.500000	0.070984   
460.000000	0.002477   
460.500000	-0.013416  
461.000000	0.104212   
461.500000	0.233318   
462.000000	0.405174   
462.500000	0.398916   
463.000000	0.248356   
463.500000	0.111492   
464.000000	0.123651   
464.500000	0.057348   
465.000000	-0.060515  
465.500000	-0.120696  
466.000000	0.012871   
466.500000	0.090522   
467.000000	0.066750   
467.500000	0.047499   
468.000000	0.346825   
468.500000	0.577446   
469.000000	0.554265   
469.500000	0.229303   
470.000000	0.088136   
470.500000	-0.034143  
471.000000	-0.079628  
471.500000	-0.242045  
472.000000	-0.149765  
472.500000	-0.088901  
473.000000	-0.063545  
473.500000	-0.175901  
474.000000	-0.193356  
474.500000	-0.044848  
475.000000	0.049121   
475.500000	0.107272   
476.000000	0.040030   
476.500000	0.031098   
477.000000	-0.022696  
477.500000	0.057439   
478.000000	0.149227   
478.500000	0.207969   
479.000000	0.145643   
479.500000	0.013765   
480.000000	-0.042636  
480.500000	-0.004696  
481.000000	0.130719   
481.500000	0.309446   
482.000000	0.308530   
482.500000	0.150181   
483.000000	0.021159   
483.500000	0.051242   
484.000000	0.090734   
484.500000	0.226431   
485.000000	0.337772   
485.500000	0.419159   
486.000000	0.296659   
486.500000	0.206174   
487.000000	0.163712   
487.500000	0.215310   
488.000000	0.107348   
488.500000	0.037492   
489.000000	-0.050492  
489.500000	0.010030   
490.000000	0.135674   
490.500000	0.230803   
491.000000	0.188651   
491.500000	0.089446   
492.000000	0.094098   
492.500000	0.076030   
493.000000	0.100909   
493.500000	0.100280   
494.000000	0.233871   
494.500000	0.148037   
495.000000	-0.039818  
495.500000	-0.193151  
496.000000	-0.022196  
496.500000	0.141409   
497.000000	0.298840   
497.500000	0.391583   
498.000000	0.498287   
498.500000	0.515333   
499.000000	0.418734   
499.500000	0.387795   
500.000000	0.357856   
500.500000	0.413704   
501.000000	0.404340   
501.500000	0.477378   
502.000000	0.498674   
502.500000	0.474901   
503.000000	0.362659   
503.500000	0.302159   
504.000000	0.511212   
504.500000	0.743462   
505.000000	0.841386   
505.500000	0.650045   
506.000000	0.440492   
506.500000	0.303946   
507.000000	0.444962   
507.500000	0.795409   
508.000000	1.050962   
508.500000	1.090401   
509.000000	1.036825   
509.500000	1.113780   
510.000000	1.143053   
510.500000	1.126181   
511.000000	1.066886   
511.500000	1.087863   
512.000000	1.020204   
512.500000	0.975712   
513.000000	1.034848   
513.500000	1.211560   
514.000000	1.462613   
514.500000	1.640136   
515.000000	1.699272   
515.500000	1.605250   
516.000000	1.517303   
516.500000	1.573083   
517.000000	1.681401   
517.500000	1.730909   
518.000000	1.789075   
518.500000	1.802340   
519.000000	1.738704   
519.500000	1.662560   
520.000000	1.837803   
520.500000	2.176219   
521.000000	2.520621   
521.500000	2.556507   
522.000000	2.404560   
522.500000	2.300840   
523.000000	2.338924   
523.500000	2.525340   
524.000000	2.657704   
524.500000	2.821515   
525.000000	2.946886   
525.500000	2.981810   
526.000000	2.841189   
526.500000	2.953060   
527.000000	3.308939   
527.500000	3.703727   
528.000000	3.596946   
528.500000	3.437507   
529.000000	3.385696   
529.500000	3.909007   
530.000000	4.282886   
530.500000	4.750984   
531.000000	4.743356   
531.500000	4.683333   
532.000000	4.481803   
532.500000	4.764545   
533.000000	5.084977   
533.500000	5.327068   
534.000000	5.364477   
534.500000	5.779030   
535.000000	6.362030   
535.500000	6.811234   
536.000000	6.960818   
536.500000	7.231863   
537.000000	7.536007   
537.500000	7.769280   
538.000000	7.816212   
538.500000	8.064537   
539.000000	8.595106   
539.500000	9.173477   
540.000000	9.716818   
540.500000	10.220871  
541.000000	10.768734  
541.500000	11.035242  
542.000000	10.920583  
542.500000	10.757037  
543.000000	10.953765  
543.500000	11.454659  
544.000000	11.895719  
544.500000	12.028719  
545.000000	11.836583  
545.500000	11.692984  
546.000000	11.485507  
546.500000	11.512931  
547.000000	11.545446  
547.500000	11.857825  
548.000000	12.055818  
548.500000	11.934886  
549.000000	11.536196  
549.500000	11.522424  
550.000000	11.847234  
550.500000	12.042000  
551.000000	12.025606  
551.500000	11.985075  
552.000000	12.300689  
552.500000	12.550416  
553.000000	12.774984  
553.500000	12.736628  
554.000000	12.657166  
554.500000	12.365045  
555.000000	12.348780  
555.500000	12.423189  
556.000000	12.702007  
556.500000	13.005446  
557.000000	13.569431  
557.500000	14.198303  
558.000000	14.389590  
558.500000	14.186098  
559.000000	13.830863  
559.500000	13.953030  
560.000000	14.366090  
560.500000	14.726977  
561.000000	14.943166  
561.500000	15.416818  
562.000000	16.407136  
562.500000	17.366325  
563.000000	17.920053  
563.500000	18.104810  
564.000000	18.457613  
564.500000	18.904977  
565.000000	19.358416  
565.500000	19.776522  
566.000000	20.254772  
566.500000	20.593037  
567.000000	20.830901  
567.500000	20.723492  
568.000000	20.744454  
568.500000	21.635772  
569.000000	23.242515  
569.500000	24.380378  
570.000000	24.467242  
570.500000	24.159939  
571.000000	24.475750  
571.500000	25.289613  
572.000000	26.078696  
572.500000	26.721310  
573.000000	27.436651  
573.500000	27.757878  
574.000000	27.735272  
574.500000	27.601515  
575.000000	28.031613  
575.500000	29.386628  
576.000000	30.922689  
576.500000	32.426954  
577.000000	32.964348  
577.500000	33.027636  
578.000000	32.527371  
578.500000	32.786045  
579.000000	33.194727  
579.500000	34.223878  
580.000000	35.343462  
580.500000	36.062909  
581.000000	36.239045  
581.500000	36.208325  
582.000000	37.074674  
582.500000	38.446371  
583.000000	39.840848  
583.500000	40.246939  
584.000000	40.097636  
584.500000	39.649227  
585.000000	39.822742  
585.500000	41.020772  
586.000000	43.075606  
586.500000	45.237492  
587.000000	46.528439  
587.500000	46.684606  
588.000000	46.879545  
588.500000	47.520310  
589.000000	48.969409  
589.500000	50.311689  
590.000000	51.971666  
590.500000	53.353984  
591.000000	54.379825  
591.500000	55.011939  
592.000000	56.215083  
592.500000	57.910068  
593.000000	59.868674  
593.500000	61.663439  
594.000000	62.800590  
594.500000	63.337742  
595.000000	63.775863  
595.500000	65.239878  
596.000000	67.208780  
596.500000	68.410545  
597.000000	68.886189  
597.500000	70.104325  
598.000000	72.185318  
598.500000	74.206810  
599.000000	75.405787  
599.500000	76.393280  
600.000000	77.101189  
600.500000	78.428234  
601.000000	80.201371  
601.500000	82.441409  
602.000000	83.882916  
602.500000	85.523803  
603.000000	86.762901  
603.500000	88.323075  
604.000000	89.238787  
604.500000	91.530234  
605.000000	93.739219  
605.500000	96.208954  
606.000000	97.611295  
606.500000	100.166257 
607.000000	101.893356 
607.500000	104.001181 
608.000000	106.014295 
608.500000	108.956492 
609.000000	111.081893 
609.500000	112.767022 
610.000000	114.444030 
610.500000	117.563303 
611.000000	120.097022 
611.500000	121.246287 
612.000000	121.371545 
612.500000	123.027075 
613.000000	126.126507 
613.500000	129.487174 
614.000000	131.639878 
614.500000	133.553871 
615.000000	136.616651 
615.500000	140.839053 
616.000000	145.267257 
616.500000	148.287772 
617.000000	149.538484 
617.500000	150.776272 
618.000000	153.192583 
618.500000	155.974583 
619.000000	158.629810 
619.500000	161.352037 
620.000000	164.720136 
620.500000	168.619181 
621.000000	172.859348 
621.500000	177.037121 
622.000000	179.788151 
622.500000	182.204212 
623.000000	185.133401 
623.500000	190.036977 
624.000000	193.718583 
624.500000	196.902393 
625.000000	198.644522 
625.500000	201.751613 
626.000000	205.167257 
626.500000	209.865590 
627.000000	213.546000 
627.500000	216.599689 
628.000000	219.523992 
628.500000	223.812401 
629.000000	228.290863 
629.500000	232.414871 
630.000000	236.059363 
630.500000	240.095280 
631.000000	243.779666 
631.500000	246.958500 
632.000000	249.370666 
632.500000	253.182704 
633.000000	257.751590 
633.500000	263.161424 
634.000000	266.829651 
634.500000	269.360969 
635.000000	272.259628 
635.500000	277.084871 
636.000000	283.117204 
636.500000	286.652356 
637.000000	288.040704 
637.500000	288.504992 
638.000000	291.751310 
638.500000	295.511401 
639.000000	300.152242 
639.500000	304.675318 
640.000000	309.885840 
640.500000	314.791757 
641.000000	318.053666 
641.500000	319.284666 
642.000000	319.486795 
642.500000	320.135999 
643.000000	322.152090 
643.500000	324.996969 
644.000000	328.975128 
644.500000	332.532515 
645.000000	335.817628 
645.500000	336.676037 
646.000000	338.740189 
646.500000	341.816909 
647.000000	345.860090 
647.500000	346.521371 
648.000000	344.248750 
648.500000	343.641287 
649.000000	346.907553 
649.500000	351.310825 
650.000000	352.370795 
650.500000	352.677780 
651.000000	352.905750 
651.500000	354.161946 
652.000000	354.593204 
652.500000	355.333765 
653.000000	355.592909 
653.500000	354.036257 
654.000000	349.948613 
654.500000	347.287143 
655.000000	347.177628 
655.500000	349.149356 
656.000000	349.161954 
656.500000	348.486856 
657.000000	347.205439 
657.500000	347.477840 
658.000000	346.217689 
658.500000	345.131136 
659.000000	342.768022 
659.500000	340.175401 
660.000000	337.264166 
660.500000	335.600128 
661.000000	334.645060 
661.500000	333.176030 
662.000000	329.548128 
662.500000	324.718469 
663.000000	320.792287 
663.500000	318.588234 
664.000000	316.967522 
664.500000	313.740833 
665.000000	309.926568 
665.500000	306.049295 
666.000000	303.220825 
666.500000	300.036628 
667.000000	297.045840 
667.500000	293.213606 
668.000000	289.998174 
668.500000	286.214727 
669.000000	282.442075 
669.500000	278.454325 
670.000000	274.141280 
670.500000	269.049636 
671.000000	263.882924 
671.500000	259.386780 
672.000000	253.915795 
672.500000	246.437840 
673.000000	238.045007 
673.500000	232.321454 
674.000000	229.810515 
674.500000	227.468106 
675.000000	223.091196 
675.500000	216.863068 
676.000000	210.732560 
676.500000	205.028704 
677.000000	200.211803 
677.500000	195.471484 
678.000000	191.693606 
678.500000	187.099280 
679.000000	182.052106 
679.500000	176.503340 
680.000000	171.335257 
680.500000	166.282795 
681.000000	161.948386 
681.500000	157.910371 
682.000000	154.303113 
682.500000	150.051606 
683.000000	145.327075 
683.500000	140.217462 
684.000000	135.821727 
684.500000	131.655045 
685.000000	128.201037 
685.500000	124.255530 
686.000000	121.090416 
686.500000	117.649598 
687.000000	114.505409 
687.500000	110.874530 
688.000000	107.635931 
688.500000	104.511659 
689.000000	101.804825 
689.500000	98.825477  
690.000000	95.265590  
690.500000	92.280234  
691.000000	89.645840  
691.500000	87.571159  
692.000000	84.176727  
692.500000	81.077378  
693.000000	78.719075  
693.500000	77.784189  
694.000000	75.821946  
694.500000	72.756606  
695.000000	69.189174  
695.500000	66.365250  
696.000000	64.286257  
696.500000	62.791939  
697.000000	61.642128  
697.500000	60.289363  
698.000000	58.345545  
698.500000	55.428787  
699.000000	53.053810  
699.500000	51.821030  
700.000000	51.135931  
700.500000	50.296492  
701.000000	49.289749  
701.500000	47.982143  
702.000000	46.053742  
702.500000	43.933598  
703.000000	42.102424  
703.500000	40.840272  
704.000000	39.805098  
704.500000	39.135196  
705.000000	38.463462  
705.500000	37.289204  
706.000000	36.080257  
706.500000	35.081446  
707.000000	34.016280  
707.500000	32.640984  
708.000000	31.453643  
708.500000	31.089053  
709.000000	30.674886  
709.500000	29.910000  
710.000000	28.792856  
710.500000	28.007674  
711.000000	27.455181  
711.500000	27.153424  
712.000000	26.887166  
712.500000	26.364522  
713.000000	25.844825  
713.500000	25.069219  
714.000000	24.401530  
714.500000	23.052621  
715.000000	21.844098  
715.500000	21.093484  
716.000000	21.493575  
716.500000	21.760666  
717.000000	21.481795  
717.500000	20.799136  
718.000000	20.058409  
718.500000	19.664416  
719.000000	19.500333  
719.500000	19.552742  
720.000000	19.167030  
720.500000	18.478818  
721.000000	17.554916  
721.500000	16.971287  
722.000000	16.338590  
722.500000	15.650121  
723.000000	15.145825  
723.500000	15.118931  
724.000000	15.149371  
724.500000	14.745939  
725.000000	14.080242  
725.500000	13.791560  
726.000000	13.996742  
726.500000	14.023727  
727.000000	13.621507  
727.500000	12.858401  
728.000000	12.286310  
728.500000	12.085780  
729.000000	12.129386  
729.500000	12.131469  
730.000000	11.971734  
730.500000	11.717772  
731.000000	11.278992  
731.500000	10.575606  
732.000000	10.140363  
732.500000	10.107287  
733.000000	10.308553  
733.500000	10.143954  
734.000000	9.952507   
734.500000	10.034356  
735.000000	10.452568  
735.500000	10.685500  
736.000000	10.413628  
736.500000	9.812568   
737.000000	9.225090   
737.500000	9.000704   
738.000000	8.930553   
738.500000	8.704840   
739.000000	8.350219   
739.500000	8.004159   
740.000000	7.909613   
740.500000	7.997166   
741.000000	8.123606   
741.500000	8.157409   
742.000000	7.806196   
742.500000	7.548030   
743.000000	7.468280   
743.500000	7.669128   
744.000000	7.405189   
744.500000	7.092454   
745.000000	6.947651   
745.500000	7.353750   
746.000000	7.582128   
746.500000	7.388901   
747.000000	6.804166   
747.500000	6.487969   
748.000000	6.462863   
748.500000	6.506136   
749.000000	6.301431   
749.500000	5.951560   
750.000000	5.748106   
750.500000	5.633583   
751.000000	5.748303   
751.500000	5.850772   
752.000000	6.031181   
752.500000	5.775719   
753.000000	5.571636   
753.500000	5.361674   
754.000000	5.599560   
754.500000	5.623590   
755.000000	5.447393   
755.500000	5.026810   
756.000000	5.015007   
756.500000	5.112969   
757.000000	5.195159   
757.500000	4.980045   
758.000000	4.779174   
758.500000	4.602386   
759.000000	4.635022   
759.500000	4.770121   
760.000000	5.027522   
760.500000	5.099931   
761.000000	4.991113   
761.500000	4.701765   
762.000000	4.567795   
762.500000	4.623954   
763.000000	4.753810   
763.500000	4.539598   
764.000000	4.127613   
764.500000	4.033219   
765.000000	4.285015   
765.500000	4.516590   
766.000000	4.398568   
766.500000	4.189590   
767.000000	3.962939   
767.500000	3.879189   
768.000000	3.945984   
768.500000	4.084121   
769.000000	4.147924   
769.500000	4.061219   
770.000000	4.042613   
770.500000	4.047083   
771.000000	3.959492   
771.500000	3.705553   
772.000000	3.482234   
772.500000	3.315143   
773.000000	3.354636   
773.500000	3.394204   
774.000000	3.528560   
774.500000	3.594424   
775.000000	3.730477   
775.500000	3.629310   
776.000000	3.616916   
776.500000	3.495757   
777.000000	3.416977   
777.500000	3.319022   
778.000000	3.393621   
778.500000	3.588719   
779.000000	3.679234   
779.500000	3.514083   
780.000000	3.220227   
780.500000	2.969840   
781.000000	2.993590   
781.500000	3.210083   
782.000000	3.439659   
782.500000	3.351992   
783.000000	3.120431   
783.500000	2.941227   
784.000000	3.007750   
784.500000	3.070909   
785.000000	3.090651   
785.500000	3.078651   
786.000000	3.108219   
786.500000	3.023159   
787.000000	2.948212   
787.500000	2.843893   
788.000000	2.928007   
788.500000	2.947196   
789.000000	2.958393   
789.500000	2.812916   
790.000000	2.805310   
790.500000	2.732484   
791.000000	2.714174   
791.500000	2.613719   
792.000000	2.652484   
792.500000	2.605303   
793.000000	2.548340   
793.500000	2.386659   
794.000000	2.486515   
794.500000	2.588174   
795.000000	2.710272   
795.500000	2.715833   
796.000000	2.704015   
796.500000	2.558575   
797.000000	2.476810   
797.500000	2.482500   
798.000000	2.544628   
798.500000	2.534909   
799.000000	2.417530   
799.500000	2.421742   
800.000000	2.477818   
800.500000	2.485068   
801.000000	2.350242   
801.500000	2.288401   
802.000000	2.253651   
802.500000	2.375840   
803.000000	2.308916   
803.500000	2.283787   
804.000000	2.118780   
804.500000	2.049689   
805.000000	1.953734   
805.500000	2.092121   
806.000000	2.257166   
806.500000	2.449325   
807.000000	2.423030   
807.500000	2.275310   
808.000000	2.037000   
808.500000	1.754106   
809.000000	1.652234   
809.500000	1.766060   
810.000000	2.056651   
810.500000	2.049416   
811.000000	1.736787   
811.500000	1.399143   
812.000000	1.577166   
812.500000	2.014060   
813.000000	2.361181   
813.500000	2.161318   
814.000000	1.755712   
814.500000	1.382037   
815.000000	1.258325   
815.500000	1.132886   
816.000000	1.133621   
816.500000	1.231772   
817.000000	1.673227   
817.500000	1.955931   
818.000000	1.959643   
818.500000	1.636840   
819.000000	1.530613   
819.500000	1.600810   
820.000000	1.624628   
820.500000	1.646742   
821.000000	1.812401   
821.500000	2.195507   
822.000000	2.350007   
822.500000	2.448121   
823.000000	2.324704   
823.500000	2.244901   
824.000000	2.048931   
824.500000	2.200007   
825.000000	2.398484   
825.500000	2.525833   
826.000000	2.211500   
826.500000	1.960787   
827.000000	1.816446   
827.500000	1.959257   
828.000000	1.980280   
828.500000	1.894946   
829.000000	1.775621   
829.500000	1.757477   
830.000000	1.742795   
830.500000	1.574628   
831.000000	1.408515   
831.500000	1.212606   
832.000000	1.131553   
832.500000	1.019848   
833.000000	0.989386   
833.500000	0.980962   
834.000000	1.063159   
834.500000	1.124909   
835.000000	1.126636   
835.500000	1.071560   
836.000000	1.077280   
836.500000	1.051750   
837.000000	0.988909   
837.500000	0.959636   
838.000000	1.038780   
838.500000	1.064000   
839.000000	0.946560   
839.500000	0.802363   
840.000000	0.795022   
840.500000	0.866098   
841.000000	0.937606   
841.500000	0.919121   
842.000000	0.917439   
842.500000	0.874272   
843.000000	0.799287   
843.500000	0.607598   
844.000000	0.463280   
844.500000	0.465651   
845.000000	0.573492   
845.500000	0.573356   
846.000000	0.406401   
846.500000	0.275962   
847.000000	0.309227   
847.500000	0.487568   
848.000000	0.533878   
848.500000	0.437696   
849.000000	0.333946   
849.500000	0.349795   
850.000000	0.315098   
850.500000	0.176181   
851.000000	-0.026318  
851.500000	-0.004083  
852.000000	0.171931   
852.500000	0.354227   
853.000000	0.292007   
853.500000	0.161757   
854.000000	0.113098   
854.500000	0.235863   
855.000000	0.260553   
855.500000	0.111098   
856.000000	0.001515   
856.500000	0.029878   
857.000000	0.130734   
857.500000	0.152795   
858.000000	0.139265   
858.500000	0.167507   
859.000000	0.178500   
859.500000	0.203765   
860.000000	0.164053   
860.500000	0.120303   
861.000000	0.038393   
861.500000	0.023098   
862.000000	0.047727   
862.500000	0.048068   
863.000000	0.037113   
863.500000	0.000795   
864.000000	0.008833   
864.500000	0.042310   
865.000000	0.091863   
865.500000	0.101386   
866.000000	0.076507   
866.500000	0.123325   
867.000000	0.137356   
867.500000	0.154719   
868.000000	0.075825   
868.500000	0.037227   
869.000000	-0.028954  
869.500000	-0.089272  
870.000000	-0.116250  
870.500000	-0.103189  
871.000000	-0.095356  
871.500000	-0.137037  
872.000000	-0.114386  
872.500000	-0.124310  
873.000000	-0.125522  
873.500000	-0.161151  
874.000000	-0.148121  
874.500000	-0.143272  
875.000000	-0.066893  
875.500000	0.119272   
876.000000	0.269151   
876.500000	0.183992   
877.000000	-0.060136  
877.500000	-0.215500  
878.000000	-0.141962  
878.500000	-0.074196  
879.000000	-0.075446  
879.500000	-0.105750  
880.000000	-0.145689  
880.500000	-0.209606  
881.000000	-0.236477  
881.500000	-0.106196  
882.000000	0.068651   
882.500000	0.200590   
883.000000	0.173507   
883.500000	0.134977   
884.000000	0.071825   
884.500000	0.026522   
885.000000	-0.007128  
885.500000	-0.006431  
886.000000	-0.078840  
886.500000	-0.103924  
887.000000	-0.096007  
887.500000	0.034515   
888.000000	0.096863   
888.500000	0.079060   
889.000000	-0.010651  
889.500000	-0.028992  
890.000000	-0.083553  
890.500000	-0.155954  
891.000000	-0.228037  
891.500000	-0.183060  
892.000000	-0.076598  
892.500000	0.070249   
893.000000	0.127757   
893.500000	0.089909   
894.000000	-0.010356  
894.500000	-0.022030  
895.000000	0.053810   
895.500000	0.061128   
896.000000	0.051234   
896.500000	0.034416   
897.000000	0.121060   
897.500000	0.119189   

