PE FL                   SPECTRUM    ASCII       PEDS        1.60        
  -1
SA9B95~1.SP
24/04/12
16:31:58.00
24/04/12
16:31:58.00
Jan

897.500000
1









LS55
405.00
5.00
5.00
SCAN
1
20
100
100
0
400
0
1
0
1
5
ON
450 405 
1 0 0
#HDR
-1
-1
#GR
NM

0.00002384185791015625
0.0
450.000000
0.500000
896
8
279.697878
-0.505568
#DATA
450.000000	0.885999   
450.500000	0.244265   
451.000000	-0.095219  
451.500000	-0.258765  
452.000000	-0.376969  
452.500000	-0.505568  
453.000000	-0.493954  
453.500000	-0.387060  
454.000000	-0.195931  
454.500000	-0.022772  
455.000000	0.080553   
455.500000	0.003083   
456.000000	-0.122659  
456.500000	-0.174780  
457.000000	-0.065431  
457.500000	0.080037   
458.000000	0.242439   
458.500000	0.158825   
459.000000	-0.027946  
459.500000	-0.231689  
460.000000	-0.301287  
460.500000	-0.182954  
461.000000	-0.013992  
461.500000	0.104825   
462.000000	-0.037181  
462.500000	-0.088909  
463.000000	-0.031325  
463.500000	0.220219   
464.000000	0.188257   
464.500000	0.091818   
465.000000	0.020189   
465.500000	0.149848   
466.000000	0.187886   
466.500000	0.075818   
467.000000	-0.147643  
467.500000	-0.191666  
468.000000	-0.030931  
468.500000	0.280916   
469.000000	0.381219   
469.500000	0.271424   
470.000000	0.061545   
470.500000	0.000424   
471.000000	0.076386   
471.500000	0.162825   
472.000000	0.088378   
472.500000	-0.027575  
473.000000	-0.042053  
473.500000	0.012833   
474.000000	0.120977   
474.500000	0.241136   
475.000000	0.388469   
475.500000	0.426121   
476.000000	0.252189   
476.500000	0.062371   
477.000000	-0.004606  
477.500000	0.049696   
478.000000	0.037901   
478.500000	0.044045   
479.000000	0.209515   
479.500000	0.454462   
480.000000	0.497136   
480.500000	0.340371   
481.000000	0.273893   
481.500000	0.340151   
482.000000	0.328977   
482.500000	0.123606   
483.000000	-0.006462  
483.500000	0.098257   
484.000000	0.260825   
484.500000	0.262893   
485.000000	0.192098   
485.500000	0.187863   
486.000000	0.311446   
486.500000	0.260712   
487.000000	0.106537   
487.500000	-0.039106  
488.000000	0.050409   
488.500000	0.053946   
489.000000	0.045424   
489.500000	0.108969   
490.000000	0.400242   
490.500000	0.548128   
491.000000	0.471530   
491.500000	0.308545   
492.000000	0.404522   
492.500000	0.520810   
493.000000	0.486848   
493.500000	0.248803   
494.000000	0.118310   
494.500000	0.047265   
495.000000	-0.045803  
495.500000	-0.157825  
496.000000	-0.096393  
496.500000	0.202386   
497.000000	0.404863   
497.500000	0.455219   
498.000000	0.289325   
498.500000	0.285416   
499.000000	0.371674   
499.500000	0.533310   
500.000000	0.607007   
500.500000	0.606856   
501.000000	0.576196   
501.500000	0.481401   
502.000000	0.572803   
502.500000	0.716484   
503.000000	0.872583   
503.500000	0.792007   
504.000000	0.746409   
504.500000	0.737045   
505.000000	0.774477   
505.500000	0.714249   
506.000000	0.705962   
506.500000	0.812409   
507.000000	0.961765   
507.500000	0.999522   
508.000000	1.021674   
508.500000	1.033166   
509.000000	1.009977   
509.500000	0.831742   
510.000000	0.678689   
510.500000	0.706431   
511.000000	0.908795   
511.500000	1.072598   
512.000000	1.131000   
512.500000	1.259992   
513.000000	1.515560   
513.500000	1.739151   
514.000000	1.789416   
514.500000	1.726780   
515.000000	1.645545   
515.500000	1.665893   
516.000000	1.721106   
516.500000	1.691083   
517.000000	1.622666   
517.500000	1.618530   
518.000000	1.758515   
518.500000	1.912477   
519.000000	2.080325   
519.500000	2.225689   
520.000000	2.331098   
520.500000	2.280818   
521.000000	2.117856   
521.500000	1.964984   
522.000000	1.952643   
522.500000	2.175037   
523.000000	2.419530   
523.500000	2.577507   
524.000000	2.578530   
524.500000	2.693659   
525.000000	2.789136   
525.500000	2.849871   
526.000000	2.900030   
526.500000	3.140401   
527.000000	3.378439   
527.500000	3.543234   
528.000000	3.693030   
528.500000	3.977462   
529.000000	4.267250   
529.500000	4.451499   
530.000000	4.666015   
530.500000	4.807742   
531.000000	4.688242   
531.500000	4.435704   
532.000000	4.618227   
532.500000	5.265212   
533.000000	5.905704   
533.500000	6.259075   
534.000000	6.329583   
534.500000	6.527030   
535.000000	6.663507   
535.500000	6.983037   
536.000000	7.050795   
536.500000	7.396477   
537.000000	7.847181   
537.500000	8.500363   
538.000000	8.591636   
538.500000	8.704643   
539.000000	8.984037   
539.500000	9.596924   
540.000000	9.883553   
540.500000	10.232893  
541.000000	10.686446  
541.500000	11.364545  
542.000000	11.754500  
542.500000	12.091037  
543.000000	12.093719  
543.500000	11.931371  
544.000000	11.778287  
544.500000	11.968090  
545.000000	11.998515  
545.500000	11.712712  
546.000000	11.589007  
546.500000	11.827939  
547.000000	11.977757  
547.500000	11.722272  
548.000000	11.263803  
548.500000	11.088060  
549.000000	11.140378  
549.500000	11.330772  
550.000000	11.526242  
550.500000	11.633060  
551.000000	11.591439  
551.500000	11.507810  
552.000000	11.459234  
552.500000	11.637833  
553.000000	12.011121  
553.500000	12.206151  
554.000000	12.160742  
554.500000	12.284750  
555.000000	12.761318  
555.500000	13.235613  
556.000000	13.178522  
556.500000	12.985295  
557.000000	13.124666  
557.500000	13.505424  
558.000000	13.518022  
558.500000	13.465598  
559.000000	13.806378  
559.500000	14.467583  
560.000000	14.817348  
560.500000	14.669833  
561.000000	14.786780  
561.500000	15.431787  
562.000000	16.319833  
562.500000	16.764469  
563.000000	16.990378  
563.500000	17.442477  
564.000000	18.177348  
564.500000	18.951742  
565.000000	19.248886  
565.500000	19.581234  
566.000000	19.846431  
566.500000	20.650560  
567.000000	21.176651  
567.500000	21.460522  
568.000000	21.446984  
568.500000	21.723954  
569.000000	22.537878  
569.500000	23.585719  
570.000000	24.258075  
570.500000	24.362848  
571.000000	24.264575  
571.500000	24.303363  
572.000000	24.831409  
572.500000	25.767719  
573.000000	26.956909  
573.500000	27.897166  
574.000000	28.192924  
574.500000	27.867363  
575.000000	27.701280  
575.500000	27.867409  
576.000000	28.711098  
576.500000	29.757924  
577.000000	30.961128  
577.500000	32.089696  
578.000000	32.795621  
578.500000	32.692454  
579.000000	32.040909  
579.500000	32.151954  
580.000000	33.004060  
580.500000	34.299234  
581.000000	35.055363  
581.500000	35.778469  
582.000000	36.255590  
582.500000	36.590893  
583.000000	36.744848  
583.500000	37.398356  
584.000000	38.673628  
584.500000	39.949053  
585.000000	40.644727  
585.500000	40.674848  
586.000000	40.977371  
586.500000	41.437856  
587.000000	42.252000  
587.500000	43.399393  
588.000000	44.860151  
588.500000	45.946106  
589.000000	46.818689  
589.500000	47.778045  
590.000000	49.170340  
590.500000	50.020734  
591.000000	50.816280  
591.500000	51.696265  
592.000000	53.072181  
592.500000	53.766825  
593.000000	54.784545  
593.500000	55.805348  
594.000000	57.851522  
594.500000	59.425106  
595.000000	60.806772  
595.500000	61.231378  
596.000000	62.033962  
596.500000	62.796477  
597.000000	64.114893  
597.500000	64.854356  
598.000000	65.951462  
598.500000	67.025681  
599.000000	68.806681  
599.500000	70.337553  
600.000000	72.280909  
600.500000	74.498492  
601.000000	76.524303  
601.500000	77.070962  
602.000000	76.669590  
602.500000	76.559515  
603.000000	77.857871  
603.500000	80.541310  
604.000000	83.156000  
604.500000	85.684325  
605.000000	87.705280  
605.500000	89.253712  
606.000000	90.099651  
606.500000	91.530310  
607.000000	93.359734  
607.500000	95.871356  
608.000000	97.705856  
608.500000	99.463249  
609.000000	101.689212 
609.500000	104.343340 
610.000000	106.373863 
610.500000	107.875318 
611.000000	109.289462 
611.500000	111.148757 
612.000000	113.231113 
612.500000	115.536159 
613.000000	117.920083 
613.500000	120.283734 
614.000000	122.435886 
614.500000	123.498727 
615.000000	124.617515 
615.500000	126.032757 
616.000000	128.502507 
616.500000	131.873734 
617.000000	135.417651 
617.500000	137.966333 
618.000000	139.093681 
618.500000	139.821333 
619.000000	141.434469 
619.500000	145.319825 
620.000000	149.280363 
620.500000	152.917219 
621.000000	155.738530 
621.500000	158.444318 
622.000000	160.182613 
622.500000	161.635575 
623.000000	162.899742 
623.500000	165.711007 
624.000000	168.933181 
624.500000	173.172257 
625.000000	176.831068 
625.500000	179.406189 
626.000000	180.966424 
626.500000	183.316151 
627.000000	186.954454 
627.500000	190.817151 
628.000000	193.899750 
628.500000	196.343856 
629.000000	198.906333 
629.500000	201.535007 
630.000000	204.952621 
630.500000	208.492303 
631.000000	211.620840 
631.500000	214.405848 
632.000000	217.547977 
632.500000	220.451666 
633.000000	222.756643 
633.500000	224.258204 
634.000000	226.750227 
634.500000	229.734606 
635.000000	233.251462 
635.500000	236.200931 
636.000000	239.358992 
636.500000	242.110886 
637.000000	244.583984 
637.500000	245.453590 
638.000000	245.755818 
638.500000	247.727962 
639.000000	250.559515 
639.500000	253.320568 
640.000000	253.946606 
640.500000	255.503037 
641.000000	257.463878 
641.500000	260.522628 
642.000000	263.422287 
642.500000	266.405492 
643.000000	267.881553 
643.500000	268.551386 
644.000000	269.168212 
644.500000	269.437553 
645.000000	270.121000 
645.500000	271.409666 
646.000000	273.485022 
646.500000	274.501856 
647.000000	273.919181 
647.500000	273.074287 
648.000000	273.478848 
648.500000	275.099303 
649.000000	277.512522 
649.500000	279.497363 
650.000000	279.697878 
650.500000	279.155886 
651.000000	278.465818 
651.500000	278.302886 
652.000000	277.609583 
652.500000	275.978765 
653.000000	274.599856 
653.500000	274.677568 
654.000000	275.056704 
654.500000	273.430007 
655.000000	271.771189 
655.500000	270.175098 
656.000000	270.603265 
656.500000	269.204000 
657.000000	267.421621 
657.500000	264.427795 
658.000000	263.350946 
658.500000	263.022083 
659.000000	263.616719 
659.500000	261.764606 
660.000000	258.259636 
660.500000	254.036984 
661.000000	249.960022 
661.500000	245.941128 
662.000000	242.631803 
662.500000	240.010303 
663.000000	237.670719 
663.500000	234.472856 
664.000000	232.208931 
664.500000	229.469401 
665.000000	226.985871 
665.500000	222.418553 
666.000000	217.956537 
666.500000	213.192825 
667.000000	210.215037 
667.500000	207.734090 
668.000000	205.060075 
668.500000	200.727750 
669.000000	195.655386 
669.500000	190.714962 
670.000000	185.639553 
670.500000	182.211962 
671.000000	179.577962 
671.500000	176.498787 
672.000000	171.526606 
672.500000	166.712659 
673.000000	162.798030 
673.500000	159.433106 
674.000000	154.890136 
674.500000	150.506143 
675.000000	146.475166 
675.500000	142.496515 
676.000000	138.712681 
676.500000	135.654174 
677.000000	133.055848 
677.500000	129.785598 
678.000000	125.809348 
678.500000	121.675537 
679.000000	117.338333 
679.500000	113.606871 
680.000000	109.964318 
680.500000	107.280136 
681.000000	104.333621 
681.500000	101.861136 
682.000000	99.242901  
682.500000	95.817886  
683.000000	91.618962  
683.500000	88.092712  
684.000000	86.169318  
684.500000	84.272795  
685.000000	82.388613  
685.500000	80.106946  
686.000000	78.133992  
686.500000	75.847628  
687.000000	73.317681  
687.500000	70.966386  
688.000000	68.695515  
688.500000	66.809234  
689.000000	65.066181  
689.500000	62.961037  
690.000000	60.016325  
690.500000	57.336696  
691.000000	55.809818  
691.500000	55.116939  
692.000000	54.394371  
692.500000	52.895613  
693.000000	50.582189  
693.500000	48.304022  
694.000000	46.943636  
694.500000	46.410878  
695.000000	45.505689  
695.500000	43.932484  
696.000000	42.023901  
696.500000	40.456666  
697.000000	39.199090  
697.500000	37.944462  
698.000000	36.869234  
698.500000	35.824939  
699.000000	34.473143  
699.500000	32.889878  
700.000000	31.503590  
700.500000	31.091848  
701.000000	31.150416  
701.500000	31.192840  
702.000000	30.396712  
702.500000	29.479946  
703.000000	28.338454  
703.500000	27.413431  
704.000000	26.594371  
704.500000	25.638174  
705.000000	24.744257  
705.500000	23.951159  
706.000000	24.001143  
706.500000	23.750954  
707.000000	23.127590  
707.500000	22.046795  
708.000000	21.632469  
708.500000	21.318583  
709.000000	20.888818  
709.500000	20.092901  
710.000000	19.226924  
710.500000	18.659325  
711.000000	18.342446  
711.500000	18.444606  
712.000000	18.485348  
712.500000	18.132537  
713.000000	17.215348  
713.500000	16.313325  
714.000000	15.805196  
714.500000	15.957916  
715.000000	16.280704  
715.500000	16.224598  
716.000000	15.564750  
716.500000	14.708545  
717.000000	13.894356  
717.500000	13.366219  
718.000000	13.178886  
718.500000	12.942522  
719.000000	12.782143  
719.500000	12.495174  
720.000000	12.537886  
720.500000	12.245409  
721.000000	11.827803  
721.500000	11.032287  
722.000000	10.792757  
722.500000	10.885787  
723.000000	11.361734  
723.500000	11.402636  
724.000000	11.186166  
724.500000	10.541636  
725.000000	10.197310  
725.500000	9.804128   
726.000000	9.662659   
726.500000	9.652340   
727.000000	9.840590   
727.500000	9.691083   
728.000000	9.451204   
728.500000	9.343469   
729.000000	9.283143   
729.500000	9.095643   
730.000000	8.585242   
730.500000	8.218727   
731.000000	7.903962   
731.500000	7.781439   
732.000000	7.801749   
732.500000	7.700068   
733.000000	7.377643   
733.500000	6.954280   
734.000000	6.888515   
734.500000	6.991636   
735.000000	7.315007   
735.500000	7.415265   
736.000000	7.430113   
736.500000	7.331871   
737.000000	7.203727   
737.500000	7.051378   
738.000000	6.929628   
738.500000	6.737871   
739.000000	6.562159   
739.500000	6.389696   
740.000000	6.417984   
740.500000	6.519492   
741.000000	6.687219   
741.500000	6.692825   
742.000000	6.702143   
742.500000	6.461856   
743.000000	6.041818   
743.500000	5.710098   
744.000000	5.827045   
744.500000	6.006318   
745.000000	6.032204   
745.500000	5.684121   
746.000000	5.568984   
746.500000	5.502848   
747.000000	5.515962   
747.500000	5.258075   
748.000000	5.194742   
748.500000	5.117931   
749.000000	5.179636   
749.500000	5.273250   
750.000000	5.454068   
750.500000	5.383439   
751.000000	5.116704   
751.500000	4.818954   
752.000000	4.749371   
752.500000	4.784083   
753.000000	4.810856   
753.500000	4.659583   
754.000000	4.408310   
754.500000	4.344590   
755.000000	4.435121   
755.500000	4.485659   
756.000000	4.300439   
756.500000	4.035340   
757.000000	3.736136   
757.500000	3.578068   
758.000000	3.648924   
758.500000	3.843265   
759.000000	4.053143   
759.500000	3.974136   
760.000000	3.924537   
760.500000	3.774121   
761.000000	3.860545   
761.500000	3.899015   
762.000000	4.030969   
762.500000	3.936537   
763.000000	3.879166   
763.500000	3.667356   
764.000000	3.501037   
764.500000	3.388265   
765.000000	3.468075   
765.500000	3.464242   
766.000000	3.444568   
766.500000	3.388280   
767.000000	3.489810   
767.500000	3.571909   
768.000000	3.709083   
768.500000	3.618795   
769.000000	3.530507   
769.500000	3.366886   
770.000000	3.464166   
770.500000	3.500424   
771.000000	3.526750   
771.500000	3.311719   
772.000000	3.179295   
772.500000	3.046583   
773.000000	2.998196   
773.500000	2.916000   
774.000000	3.000621   
774.500000	3.209803   
775.000000	3.320696   
775.500000	3.206969   
776.000000	3.063196   
776.500000	3.086234   
777.000000	3.197772   
777.500000	3.262863   
778.000000	3.135575   
778.500000	2.902181   
779.000000	2.644666   
779.500000	2.592106   
780.000000	2.678303   
780.500000	2.707477   
781.000000	2.729727   
781.500000	2.861515   
782.000000	3.037340   
782.500000	3.065045   
783.000000	3.062037   
783.500000	3.150984   
784.000000	3.211750   
784.500000	2.937325   
785.000000	2.467833   
785.500000	2.283825   
786.000000	2.486333   
786.500000	2.883848   
787.000000	2.985189   
787.500000	2.802893   
788.000000	2.631446   
788.500000	2.690045   
789.000000	2.892113   
789.500000	2.988287   
790.000000	2.964227   
790.500000	2.805515   
791.000000	2.772818   
791.500000	2.751272   
792.000000	2.840045   
792.500000	2.853666   
793.000000	2.763068   
793.500000	2.583303   
794.000000	2.492666   
794.500000	2.624439   
795.000000	2.685878   
795.500000	2.568772   
796.000000	2.317454   
796.500000	2.217189   
797.000000	2.197946   
797.500000	2.197431   
798.000000	2.208045   
798.500000	2.319325   
799.000000	2.532863   
799.500000	2.490257   
800.000000	2.254060   
800.500000	2.010000   
801.000000	2.057219   
801.500000	2.295204   
802.000000	2.371409   
802.500000	2.124575   
803.000000	1.801689   
803.500000	1.588204   
804.000000	1.463810   
804.500000	1.393780   
805.000000	1.379303   
805.500000	1.562924   
806.000000	1.858916   
806.500000	1.986424   
807.000000	1.884265   
807.500000	1.652454   
808.000000	1.361454   
808.500000	1.310893   
809.000000	1.491053   
809.500000	1.770575   
810.000000	1.809121   
810.500000	1.611409   
811.000000	1.398909   
811.500000	1.303454   
812.000000	1.342318   
812.500000	1.448916   
813.000000	1.513409   
813.500000	1.380159   
814.000000	1.187621   
814.500000	1.084022   
815.000000	1.287393   
815.500000	1.589734   
816.000000	1.729363   
816.500000	1.644931   
817.000000	1.590477   
817.500000	1.609204   
818.000000	1.569045   
818.500000	1.423318   
819.000000	1.428704   
819.500000	1.621977   
820.000000	1.716818   
820.500000	1.775272   
821.000000	1.788454   
821.500000	1.914030   
822.000000	1.919098   
822.500000	1.986878   
823.000000	2.030212   
823.500000	2.241583   
824.000000	2.406454   
824.500000	2.601340   
825.000000	2.670030   
825.500000	2.674075   
826.000000	2.581787   
826.500000	2.448189   
827.000000	2.156295   
827.500000	1.797469   
828.000000	1.448613   
828.500000	1.378530   
829.000000	1.573363   
829.500000	1.882234   
830.000000	1.881310   
830.500000	1.600628   
831.000000	1.285606   
831.500000	1.189825   
832.000000	1.241174   
832.500000	1.259500   
833.000000	1.245757   
833.500000	1.252075   
834.000000	1.310992   
834.500000	1.334848   
835.000000	1.322340   
835.500000	1.214863   
836.000000	1.074659   
836.500000	1.016037   
837.000000	1.009136   
837.500000	0.933992   
838.000000	0.812727   
838.500000	0.808492   
839.000000	0.831924   
839.500000	0.870871   
840.000000	0.819242   
840.500000	0.902689   
841.000000	0.960999   
841.500000	0.958727   
842.000000	0.814719   
842.500000	0.792825   
843.000000	0.816469   
843.500000	0.791121   
844.000000	0.669750   
844.500000	0.456537   
845.000000	0.263128   
845.500000	0.134674   
846.000000	0.152378   
846.500000	0.145803   
847.000000	0.156757   
847.500000	0.154280   
848.000000	0.292984   
848.500000	0.329409   
849.000000	0.244946   
849.500000	0.131606   
850.000000	0.238750   
850.500000	0.317946   
851.000000	0.396810   
851.500000	0.346916   
852.000000	0.387931   
852.500000	0.326916   
853.000000	0.224787   
853.500000	0.041696   
854.000000	0.146962   
854.500000	0.257492   
855.000000	0.308734   
855.500000	0.110704   
856.000000	0.100659   
856.500000	0.201196   
857.000000	0.300598   
857.500000	0.075068   
858.000000	-0.082106  
858.500000	0.027924   
859.000000	0.315045   
859.500000	0.359265   
860.000000	0.226863   
860.500000	0.127204   
861.000000	0.151613   
861.500000	0.117083   
862.000000	0.012939   
862.500000	-0.061871  
863.000000	-0.047772  
863.500000	0.000969   
864.000000	0.017477   
864.500000	0.042121   
865.000000	0.066583   
865.500000	0.209333   
866.000000	0.318765   
866.500000	0.321234   
867.000000	0.183681   
867.500000	0.063257   
868.000000	0.032696   
868.500000	0.058666   
869.000000	0.064818   
869.500000	-0.011606  
870.000000	-0.040227  
870.500000	-0.035143  
871.000000	0.014712   
871.500000	-0.071643  
872.000000	-0.171553  
872.500000	-0.210007  
873.000000	-0.019856  
873.500000	0.209893   
874.000000	0.340719   
874.500000	0.258053   
875.000000	0.144818   
875.500000	0.116742   
876.000000	0.172507   
876.500000	0.176348   
877.000000	0.091780   
877.500000	0.005143   
878.000000	0.005189   
878.500000	0.019401   
879.000000	-0.000795  
879.500000	-0.066212  
880.000000	-0.074227  
880.500000	-0.036681  
881.000000	-0.008053  
881.500000	-0.023500  
882.000000	-0.057037  
882.500000	-0.085568  
883.000000	-0.080204  
883.500000	-0.077696  
884.000000	-0.150772  
884.500000	-0.293484  
885.000000	-0.294719  
885.500000	-0.170318  
886.000000	0.055939   
886.500000	0.076848   
887.000000	-0.024856  
887.500000	-0.212507  
888.000000	-0.232757  
888.500000	-0.163583  
889.000000	-0.055446  
889.500000	0.010378   
890.000000	0.018984   
890.500000	-0.072689  
891.000000	-0.209272  
891.500000	-0.253007  
892.000000	-0.174992  
892.500000	-0.039333  
893.000000	0.026522   
893.500000	0.020909   
894.000000	-0.034128  
894.500000	-0.009530  
895.000000	0.021333   
895.500000	-0.003151  
896.000000	-0.149136  
896.500000	-0.174545  
897.000000	-0.088378  
897.500000	-0.073765  

