PE FL                   SPECTRUM    ASCII       PEDS        1.60        
  -1
SA9BC9~1.SP
24/04/12
15:57:44.00
24/04/12
15:57:44.00
Jan

897.500000
1









LS55
405.00
5.00
5.00
SCAN
1
20
100
100
0
400
0
1
0
1
5
ON
450 405 
1 0 0
#HDR
-1
-1
#GR
NM

0.00002384185791015625
0.0
450.000000
0.500000
896
8
350.933727
-0.356212
#DATA
450.000000	0.335000   
450.500000	-0.120393  
451.000000	-0.182689  
451.500000	0.017340   
452.000000	0.000863   
452.500000	-0.171909  
453.000000	-0.325454  
453.500000	-0.238727  
454.000000	-0.228780  
454.500000	-0.230401  
455.000000	-0.147522  
455.500000	0.058265   
456.000000	0.003212   
456.500000	-0.130053  
457.000000	-0.234666  
457.500000	-0.012530  
458.000000	0.159742   
458.500000	0.386007   
459.000000	0.428803   
459.500000	0.462795   
460.000000	0.252174   
460.500000	0.160969   
461.000000	0.157621   
461.500000	0.328234   
462.000000	0.299416   
462.500000	0.094689   
463.000000	-0.108621  
463.500000	-0.112840  
464.000000	0.008363   
464.500000	0.053439   
465.000000	0.063386   
465.500000	0.140825   
466.000000	0.291886   
466.500000	0.335000   
467.000000	0.292204   
467.500000	0.148280   
468.000000	-0.004060  
468.500000	0.036166   
469.000000	0.164734   
469.500000	0.195681   
470.000000	-0.005272  
470.500000	-0.141431  
471.000000	-0.095113  
471.500000	-0.021325  
472.000000	-0.078159  
472.500000	-0.107280  
473.000000	0.000356   
473.500000	0.304318   
474.000000	0.559151   
474.500000	0.534280   
475.000000	0.293772   
475.500000	0.191234   
476.000000	0.291295   
476.500000	0.300545   
477.000000	0.080840   
477.500000	-0.163575  
478.000000	-0.140515  
478.500000	-0.066712  
479.000000	0.047810   
479.500000	0.083303   
480.000000	0.143227   
480.500000	0.111598   
481.000000	0.133810   
481.500000	0.171484   
482.000000	0.203159   
482.500000	0.102992   
483.000000	-0.046340  
483.500000	-0.065378  
484.000000	0.090946   
484.500000	0.167272   
485.000000	0.117371   
485.500000	0.100833   
486.000000	0.285681   
486.500000	0.507030   
487.000000	0.494924   
487.500000	0.269098   
488.000000	0.050772   
488.500000	0.115939   
489.000000	0.311840   
489.500000	0.485128   
490.000000	0.431113   
490.500000	0.189606   
491.000000	-0.089901  
491.500000	-0.273590  
492.000000	-0.073189  
492.500000	0.247946   
493.000000	0.423787   
493.500000	0.248295   
494.000000	0.251446   
494.500000	0.394583   
495.000000	0.566378   
495.500000	0.477053   
496.000000	0.372613   
496.500000	0.277757   
497.000000	0.255310   
497.500000	0.277840   
498.000000	0.486181   
498.500000	0.646772   
499.000000	0.680643   
499.500000	0.552977   
500.000000	0.459515   
500.500000	0.508803   
501.000000	0.584303   
501.500000	0.625439   
502.000000	0.675590   
502.500000	0.756621   
503.000000	0.813462   
503.500000	0.862863   
504.000000	0.840310   
504.500000	0.764159   
505.000000	0.662704   
505.500000	0.609295   
506.000000	0.623295   
506.500000	0.665295   
507.000000	0.622939   
507.500000	0.694984   
508.000000	0.873310   
508.500000	1.092863   
509.000000	1.087310   
509.500000	0.967469   
510.000000	0.826810   
510.500000	0.815136   
511.000000	0.764181   
511.500000	0.785560   
512.000000	0.940159   
512.500000	1.341030   
513.000000	1.669363   
513.500000	1.796750   
514.000000	1.581606   
514.500000	1.355068   
515.000000	1.141772   
515.500000	1.077795   
516.000000	1.212681   
516.500000	1.442075   
517.000000	1.692454   
517.500000	1.838977   
518.000000	2.016196   
518.500000	2.050818   
519.000000	2.049462   
519.500000	1.993280   
520.000000	2.093833   
520.500000	2.263992   
521.000000	2.465280   
521.500000	2.673643   
522.000000	2.673310   
522.500000	2.477681   
523.000000	2.220742   
523.500000	2.237030   
524.000000	2.410227   
524.500000	2.606590   
525.000000	2.724825   
525.500000	2.860659   
526.000000	3.051909   
526.500000	3.063560   
527.000000	3.019386   
527.500000	3.148878   
528.000000	3.561909   
528.500000	3.835977   
529.000000	3.895643   
529.500000	3.919515   
530.000000	4.163212   
530.500000	4.448568   
531.000000	4.651636   
531.500000	4.870037   
532.000000	5.153128   
532.500000	5.252128   
533.000000	5.286242   
533.500000	5.377522   
534.000000	5.657939   
534.500000	5.848757   
535.000000	6.066280   
535.500000	6.410750   
536.000000	6.902530   
536.500000	7.428393   
537.000000	7.821840   
537.500000	8.056712   
538.000000	8.177166   
538.500000	8.464553   
539.000000	8.987537   
539.500000	9.533386   
540.000000	9.690136   
540.500000	9.897621   
541.000000	10.215924  
541.500000	10.653181  
542.000000	11.109636  
542.500000	11.382992  
543.000000	11.634984  
543.500000	11.849121  
544.000000	12.152265  
544.500000	11.900765  
545.000000	11.568750  
545.500000	11.311606  
546.000000	11.725030  
546.500000	11.881939  
547.000000	11.585704  
547.500000	11.179856  
548.000000	11.145060  
548.500000	11.450825  
549.000000	11.626939  
549.500000	11.688287  
550.000000	11.500590  
550.500000	11.334545  
551.000000	11.369000  
551.500000	11.756962  
552.000000	12.032992  
552.500000	11.963863  
553.000000	11.909000  
553.500000	12.087568  
554.000000	12.398560  
554.500000	12.585719  
555.000000	12.824159  
555.500000	13.113674  
556.000000	13.308750  
556.500000	13.203515  
557.000000	13.277113  
557.500000	13.540250  
558.000000	14.149310  
558.500000	14.518787  
559.000000	14.875818  
559.500000	15.178651  
560.000000	15.619098  
560.500000	15.688431  
561.000000	15.640507  
561.500000	15.750090  
562.000000	15.812333  
562.500000	15.894606  
563.000000	16.146878  
563.500000	17.007053  
564.000000	17.657863  
564.500000	18.118106  
565.000000	18.592969  
565.500000	19.159765  
566.000000	19.444106  
566.500000	19.530431  
567.000000	20.027984  
567.500000	20.951734  
568.000000	22.014287  
568.500000	22.798787  
569.000000	23.277022  
569.500000	23.268068  
570.000000	23.027128  
570.500000	23.431742  
571.000000	24.465992  
571.500000	25.766424  
572.000000	26.685977  
572.500000	27.629424  
573.000000	28.742863  
573.500000	29.645545  
574.000000	29.757545  
574.500000	29.776378  
575.000000	29.969037  
575.500000	30.247143  
576.000000	30.205674  
576.500000	30.440416  
577.000000	31.335818  
577.500000	32.401507  
578.000000	32.875704  
578.500000	33.454856  
579.000000	34.553015  
579.500000	35.461022  
580.000000	35.489083  
580.500000	35.139560  
581.000000	35.425977  
581.500000	36.794015  
582.000000	37.880833  
582.500000	38.302545  
583.000000	38.122780  
583.500000	38.753439  
584.000000	39.908325  
584.500000	41.294348  
585.000000	42.034098  
585.500000	42.202265  
586.000000	42.236287  
586.500000	43.258280  
587.000000	45.313825  
587.500000	47.491848  
588.000000	48.440530  
588.500000	48.567962  
589.000000	49.205303  
589.500000	51.008371  
590.000000	52.441053  
590.500000	52.947727  
591.000000	52.786856  
591.500000	53.442696  
592.000000	55.369636  
592.500000	57.570371  
593.000000	59.037446  
593.500000	59.899537  
594.000000	60.488871  
594.500000	61.389424  
595.000000	62.640484  
595.500000	63.953068  
596.000000	64.873340  
596.500000	65.626553  
597.000000	66.694189  
597.500000	68.646462  
598.000000	71.212999  
598.500000	73.483227  
599.000000	75.096128  
599.500000	76.104310  
600.000000	77.345075  
600.500000	79.068174  
601.000000	81.210386  
601.500000	82.960969  
602.000000	83.893871  
602.500000	84.486090  
603.000000	86.032628  
603.500000	88.586833  
604.000000	90.947712  
604.500000	92.411469  
605.000000	93.694113  
605.500000	95.875999  
606.000000	98.042734  
606.500000	99.031553  
607.000000	99.798212  
607.500000	101.338037 
608.000000	104.271757 
608.500000	106.764984 
609.000000	108.969045 
609.500000	110.717901 
610.000000	113.716113 
610.500000	116.067439 
611.000000	117.325727 
611.500000	118.090537 
612.000000	119.748916 
612.500000	122.775969 
613.000000	126.082128 
613.500000	129.737522 
614.000000	133.152803 
614.500000	136.606742 
615.000000	138.896000 
615.500000	140.239696 
616.000000	141.472651 
616.500000	144.294659 
617.000000	148.444000 
617.500000	151.726469 
618.000000	153.643045 
618.500000	156.280386 
619.000000	159.926659 
619.500000	162.751053 
620.000000	164.858083 
620.500000	166.883696 
621.000000	170.346636 
621.500000	174.401037 
622.000000	178.788424 
622.500000	181.872780 
623.000000	183.727378 
623.500000	185.630946 
624.000000	189.108848 
624.500000	193.067469 
625.000000	196.686833 
625.500000	200.356356 
626.000000	204.237500 
626.500000	209.175742 
627.000000	214.403863 
627.500000	218.491696 
628.000000	220.368053 
628.500000	222.516893 
629.000000	226.219878 
629.500000	230.974674 
630.000000	234.788303 
630.500000	238.946818 
631.000000	243.690659 
631.500000	247.642606 
632.000000	250.195742 
632.500000	253.358333 
633.000000	258.139234 
633.500000	262.624613 
634.000000	266.162030 
634.500000	268.063613 
635.000000	270.979825 
635.500000	274.596651 
636.000000	279.304772 
636.500000	283.893613 
637.000000	289.047037 
637.500000	292.454666 
638.000000	294.436022 
638.500000	295.027143 
639.000000	296.383272 
639.500000	299.966318 
640.000000	304.119856 
640.500000	308.588166 
641.000000	312.381742 
641.500000	316.158303 
642.000000	318.860712 
642.500000	321.506439 
643.000000	323.386590 
643.500000	325.838454 
644.000000	328.573272 
644.500000	330.575196 
645.000000	331.754863 
645.500000	332.609750 
646.000000	333.990606 
646.500000	335.411500 
647.000000	338.131204 
647.500000	341.377909 
648.000000	343.789636 
648.500000	343.180409 
649.000000	342.050992 
649.500000	342.587295 
650.000000	345.886469 
650.500000	348.919984 
651.000000	350.933727 
651.500000	350.469757 
652.000000	350.155303 
652.500000	350.279333 
653.000000	349.389083 
653.500000	346.517181 
654.000000	345.118613 
654.500000	346.444924 
655.000000	347.352750 
655.500000	345.330000 
656.000000	343.794893 
656.500000	345.765424 
657.000000	348.581325 
657.500000	348.389515 
658.000000	346.433151 
658.500000	344.785712 
659.000000	342.856356 
659.500000	339.154878 
660.000000	334.107159 
660.500000	331.950704 
661.000000	332.317393 
661.500000	333.021340 
662.000000	330.129530 
662.500000	327.360280 
663.000000	324.537128 
663.500000	321.598015 
664.000000	314.474810 
664.500000	307.801265 
665.000000	304.067083 
665.500000	304.712348 
666.000000	304.643681 
666.500000	302.710409 
667.000000	298.064272 
667.500000	291.927348 
668.000000	285.242424 
668.500000	279.889310 
669.000000	276.332507 
669.500000	273.450962 
670.000000	269.019977 
670.500000	264.308568 
671.000000	259.817242 
671.500000	254.997810 
672.000000	249.003462 
672.500000	242.672446 
673.000000	237.844848 
673.500000	234.467287 
674.000000	231.030825 
674.500000	225.517219 
675.000000	218.930053 
675.500000	212.602522 
676.000000	207.897257 
676.500000	202.896469 
677.000000	197.954469 
677.500000	193.951143 
678.000000	190.320424 
678.500000	185.507757 
679.000000	179.298439 
679.500000	173.640189 
680.000000	168.534136 
680.500000	164.257272 
681.000000	159.746878 
681.500000	155.352795 
682.000000	149.953378 
682.500000	145.272166 
683.000000	140.903886 
683.500000	137.589060 
684.000000	133.843719 
684.500000	130.223356 
685.000000	126.551166 
685.500000	123.601098 
686.000000	119.564643 
686.500000	115.191090 
687.000000	111.296537 
687.500000	108.712492 
688.000000	105.707393 
688.500000	101.936075 
689.000000	98.906545  
689.500000	96.657666  
690.000000	93.897166  
690.500000	90.066901  
691.000000	87.394386  
691.500000	85.793537  
692.000000	84.119249  
692.500000	80.969962  
693.000000	77.737492  
693.500000	75.089439  
694.000000	73.441106  
694.500000	71.360469  
695.000000	69.107219  
695.500000	67.018098  
696.000000	65.841363  
696.500000	64.098916  
697.000000	61.382113  
697.500000	58.014484  
698.000000	56.011439  
698.500000	54.949734  
699.000000	53.854462  
699.500000	52.162636  
700.000000	50.633015  
700.500000	49.386886  
701.000000	47.707393  
701.500000	45.679484  
702.000000	44.292939  
702.500000	43.930166  
703.000000	43.407742  
703.500000	41.874719  
704.000000	40.013053  
704.500000	38.541007  
705.000000	37.791234  
705.500000	37.109795  
706.000000	36.246848  
706.500000	35.206212  
707.000000	33.961303  
707.500000	32.827325  
708.000000	31.837636  
708.500000	31.193280  
709.000000	30.582136  
709.500000	30.005090  
710.000000	29.051053  
710.500000	28.333931  
711.000000	27.867098  
711.500000	27.635734  
712.000000	26.963825  
712.500000	26.255893  
713.000000	25.303871  
713.500000	24.344416  
714.000000	23.283287  
714.500000	22.906121  
715.000000	22.907659  
715.500000	22.922151  
716.000000	22.321916  
716.500000	21.637234  
717.000000	20.882325  
717.500000	20.275666  
718.000000	19.534204  
718.500000	18.978590  
719.000000	18.607712  
719.500000	18.621689  
720.000000	18.489651  
720.500000	17.838575  
721.000000	16.969689  
721.500000	16.278583  
722.000000	16.074287  
722.500000	15.717492  
723.000000	15.595068  
723.500000	15.323803  
724.000000	15.134674  
724.500000	14.635636  
725.000000	14.508348  
725.500000	14.385909  
726.000000	14.095765  
726.500000	13.577143  
727.000000	13.252583  
727.500000	13.223227  
728.000000	12.878924  
728.500000	12.350727  
729.000000	11.841750  
729.500000	11.844575  
730.000000	12.053204  
730.500000	12.175659  
731.000000	11.651371  
731.500000	10.822704  
732.000000	10.314462  
732.500000	10.359818  
733.000000	10.456000  
733.500000	10.416689  
734.000000	10.152992  
734.500000	9.974303   
735.000000	9.851530   
735.500000	9.875962   
736.000000	9.932878   
736.500000	10.030886  
737.000000	9.910560   
737.500000	9.480401   
738.000000	8.871909   
738.500000	8.342598   
739.000000	8.300750   
739.500000	8.341128   
740.000000	8.383651   
740.500000	8.115674   
741.000000	7.874931   
741.500000	7.598659   
742.000000	7.406454   
742.500000	7.285545   
743.000000	7.380643   
743.500000	7.625901   
744.000000	7.651015   
744.500000	7.353818   
745.000000	6.929416   
745.500000	6.873484   
746.000000	7.023863   
746.500000	7.071628   
747.000000	6.781606   
747.500000	6.259977   
748.000000	5.868249   
748.500000	5.876409   
749.000000	6.297151   
749.500000	6.506303   
750.000000	6.400083   
750.500000	6.258712   
751.000000	6.164439   
751.500000	5.922189   
752.000000	5.618189   
752.500000	5.748022   
753.000000	6.226848   
753.500000	6.332530   
754.000000	5.768265   
754.500000	5.272409   
755.000000	5.252265   
755.500000	5.352371   
756.000000	5.242431   
756.500000	5.027530   
757.000000	5.027083   
757.500000	5.078272   
758.000000	4.838931   
758.500000	4.493787   
759.000000	4.306848   
759.500000	4.562386   
760.000000	4.972522   
760.500000	5.002439   
761.000000	4.552174   
761.500000	4.095174   
762.000000	4.141545   
762.500000	4.215833   
763.000000	4.109575   
763.500000	3.831977   
764.000000	4.156189   
764.500000	4.439000   
765.000000	4.556272   
765.500000	4.199803   
766.000000	3.963000   
766.500000	3.758856   
767.000000	3.797416   
767.500000	3.761318   
768.000000	3.995621   
768.500000	4.002151   
769.000000	4.001212   
769.500000	3.768022   
770.000000	3.695113   
770.500000	3.621462   
771.000000	3.794295   
771.500000	3.764704   
772.000000	3.514287   
772.500000	3.309727   
773.000000	3.385121   
773.500000	3.641462   
774.000000	3.603371   
774.500000	3.436901   
775.000000	3.354636   
775.500000	3.393174   
776.000000	3.312053   
776.500000	3.265924   
777.000000	3.323553   
777.500000	3.346537   
778.000000	3.205871   
778.500000	3.054780   
779.000000	3.054318   
779.500000	3.195560   
780.000000	3.313083   
780.500000	3.269712   
781.000000	3.192765   
781.500000	3.210598   
782.000000	3.424280   
782.500000	3.476053   
783.000000	3.216204   
783.500000	2.841128   
784.000000	2.780439   
784.500000	2.940030   
785.000000	2.975045   
785.500000	2.856363   
786.000000	2.851098   
786.500000	3.046606   
787.000000	3.152469   
787.500000	3.063924   
788.000000	2.830553   
788.500000	2.753499   
789.000000	2.850386   
789.500000	3.050234   
790.000000	3.164984   
790.500000	3.108219   
791.000000	2.989825   
791.500000	2.860212   
792.000000	2.874371   
792.500000	2.894954   
793.000000	2.934310   
793.500000	2.794909   
794.000000	2.750219   
794.500000	2.709212   
795.000000	2.675454   
795.500000	2.434954   
796.000000	2.338696   
796.500000	2.248560   
797.000000	2.333409   
797.500000	2.364250   
798.000000	2.544795   
798.500000	2.456878   
799.000000	2.338000   
799.500000	2.223257   
800.000000	2.434037   
800.500000	2.455946   
801.000000	2.366628   
801.500000	2.256553   
802.000000	2.320022   
802.500000	2.395401   
803.000000	2.395916   
803.500000	2.265181   
804.000000	2.066143   
804.500000	1.951977   
805.000000	1.882280   
805.500000	1.906651   
806.000000	1.867159   
806.500000	1.936166   
807.000000	2.067348   
807.500000	2.170863   
808.000000	2.123886   
808.500000	2.044931   
809.000000	1.928045   
809.500000	1.851204   
810.000000	1.914606   
810.500000	2.024068   
811.000000	1.997174   
811.500000	1.742340   
812.000000	1.587878   
812.500000	1.703128   
813.000000	1.922575   
813.500000	1.915530   
814.000000	1.897037   
814.500000	1.894477   
815.000000	1.896356   
815.500000	1.718401   
816.000000	1.524060   
816.500000	1.496492   
817.000000	1.693000   
817.500000	1.948598   
818.000000	1.974522   
818.500000	1.902053   
819.000000	1.826712   
819.500000	1.938310   
820.000000	1.903424   
820.500000	1.821492   
821.000000	1.703045   
821.500000	1.788878   
822.000000	1.998159   
822.500000	2.233765   
823.000000	2.271636   
823.500000	2.196212   
824.000000	2.271651   
824.500000	2.546893   
825.000000	2.705969   
825.500000	2.576242   
826.000000	2.444856   
826.500000	2.272219   
827.000000	2.097545   
827.500000	1.762750   
828.000000	1.749916   
828.500000	1.710446   
829.000000	1.751022   
829.500000	1.579287   
830.000000	1.618098   
830.500000	1.515356   
831.000000	1.497106   
831.500000	1.442500   
832.000000	1.517060   
832.500000	1.512250   
833.000000	1.327590   
833.500000	1.163863   
834.000000	1.082075   
834.500000	1.088106   
835.000000	1.057545   
835.500000	1.092628   
836.000000	1.097901   
836.500000	1.061492   
837.000000	0.986037   
837.500000	0.961924   
838.000000	1.034371   
838.500000	1.128606   
839.000000	1.107992   
839.500000	0.997553   
840.000000	0.889901   
840.500000	0.903689   
841.000000	0.849522   
841.500000	0.678333   
842.000000	0.481515   
842.500000	0.476136   
843.000000	0.591674   
843.500000	0.663340   
844.000000	0.692280   
844.500000	0.676719   
845.000000	0.656575   
845.500000	0.566545   
846.000000	0.545045   
846.500000	0.669257   
847.000000	0.797825   
847.500000	0.722401   
848.000000	0.526893   
848.500000	0.310833   
849.000000	0.233795   
849.500000	0.154037   
850.000000	0.176856   
850.500000	0.117250   
851.000000	0.160553   
851.500000	0.193378   
852.000000	0.307636   
852.500000	0.208181   
853.000000	0.031954   
853.500000	-0.046424  
854.000000	0.123636   
854.500000	0.298719   
855.000000	0.363386   
855.500000	0.267863   
856.000000	0.210734   
856.500000	0.222363   
857.000000	0.251083   
857.500000	0.149871   
858.000000	-0.064992  
858.500000	-0.228901  
859.000000	-0.259000  
859.500000	-0.102106  
860.000000	0.029053   
860.500000	0.093310   
861.000000	0.045015   
861.500000	0.071371   
862.000000	0.133212   
862.500000	0.182878   
863.000000	0.076787   
863.500000	-0.101053  
864.000000	-0.181401  
864.500000	-0.080780  
865.000000	0.020015   
865.500000	0.017946   
866.000000	-0.087053  
866.500000	-0.135696  
867.000000	-0.088871  
867.500000	0.018280   
868.000000	0.151189   
868.500000	0.122325   
869.000000	-0.113295  
869.500000	-0.348462  
870.000000	-0.356212  
870.500000	-0.224189  
871.000000	-0.114840  
871.500000	-0.061924  
872.000000	0.061780   
872.500000	0.202500   
873.000000	0.180113   
873.500000	0.035916   
874.000000	-0.121628  
874.500000	-0.208000  
875.000000	-0.159886  
875.500000	-0.073090  
876.000000	-0.010113  
876.500000	-0.097462  
877.000000	-0.144098  
877.500000	-0.102106  
878.000000	0.041181   
878.500000	0.042886   
879.000000	0.046007   
879.500000	0.057765   
880.000000	0.177606   
880.500000	0.260106   
881.000000	0.270871   
881.500000	0.110560   
882.000000	-0.036462  
882.500000	-0.249901  
883.000000	-0.319871  
883.500000	-0.318090  
884.000000	-0.143659  
884.500000	0.011007   
885.000000	0.124242   
885.500000	0.106166   
886.000000	0.071749   
886.500000	0.006848   
887.000000	-0.028856  
887.500000	-0.036151  
888.000000	-0.105409  
888.500000	-0.168500  
889.000000	-0.185818  
889.500000	-0.128219  
890.000000	-0.042356  
890.500000	0.108628   
891.000000	0.158962   
891.500000	0.134840   
892.000000	0.052651   
892.500000	0.021000   
893.000000	-0.030007  
893.500000	-0.067734  
894.000000	0.015371   
894.500000	0.094659   
895.000000	0.085590   
895.500000	-0.053871  
896.000000	-0.071037  
896.500000	-0.033303  
897.000000	0.041371   
897.500000	0.007500   

