PE FL                   SPECTRUM    ASCII       PEDS        1.60        
  -1
SAMPLE~3.SP
24/04/12
16:03:26.00
24/04/12
16:03:26.00
Jan

897.500000
1









LS55
405.00
5.00
5.00
SCAN
1
20
100
100
0
400
0
1
0
1
5
ON
450 405 
1 0 0
#HDR
-1
-1
#GR
NM

0.00002384185791015625
0.0
450.000000
0.500000
896
8
345.286606
-0.254196
#DATA
450.000000	0.610000   
450.500000	0.193340   
451.000000	-0.024287  
451.500000	-0.106227  
452.000000	-0.113545  
452.500000	-0.123363  
453.000000	-0.044515  
453.500000	0.019015   
454.000000	0.059984   
454.500000	0.022007   
455.000000	0.090265   
455.500000	0.185265   
456.000000	0.238060   
456.500000	0.122022   
457.000000	-0.007143  
457.500000	0.070825   
458.000000	0.174553   
458.500000	0.082712   
459.000000	-0.077787  
459.500000	-0.110901  
460.000000	0.092075   
460.500000	0.220151   
461.000000	0.211393   
461.500000	0.134643   
462.000000	0.146757   
462.500000	0.181340   
463.000000	0.145606   
463.500000	0.175492   
464.000000	0.173128   
464.500000	0.152212   
465.000000	-0.131750  
465.500000	-0.254196  
466.000000	-0.168424  
466.500000	0.202689   
467.000000	0.338674   
467.500000	0.225901   
468.000000	0.039666   
468.500000	0.039318   
469.000000	0.073765   
469.500000	0.038878   
470.000000	-0.028234  
470.500000	0.031810   
471.000000	0.172840   
471.500000	0.271204   
472.000000	0.231378   
472.500000	0.175636   
473.000000	0.015037   
473.500000	-0.026295  
474.000000	-0.060378  
474.500000	0.130704   
475.000000	0.280583   
475.500000	0.388333   
476.000000	0.192500   
476.500000	-0.043113  
477.000000	-0.181704  
477.500000	-0.009136  
478.000000	0.197674   
478.500000	0.270181   
479.000000	0.232530   
479.500000	0.149128   
480.000000	0.057871   
480.500000	-0.061151  
481.000000	-0.058280  
481.500000	0.048757   
482.000000	0.107954   
482.500000	0.225045   
483.000000	0.392492   
483.500000	0.521863   
484.000000	0.369848   
484.500000	0.288295   
485.000000	0.293666   
485.500000	0.399712   
486.000000	0.230545   
486.500000	0.237196   
487.000000	0.312340   
487.500000	0.449469   
488.000000	0.219977   
488.500000	0.017712   
489.000000	-0.099272  
489.500000	0.132128   
490.000000	0.285553   
490.500000	0.267696   
491.000000	0.011030   
491.500000	-0.167181  
492.000000	-0.089469  
492.500000	0.144530   
493.000000	0.235916   
493.500000	0.224068   
494.000000	0.144507   
494.500000	0.147189   
495.000000	0.139560   
495.500000	0.217030   
496.000000	0.294772   
496.500000	0.369628   
497.000000	0.429992   
497.500000	0.379469   
498.000000	0.394598   
498.500000	0.224106   
499.000000	0.180257   
499.500000	0.122333   
500.000000	0.436772   
500.500000	0.600151   
501.000000	0.648106   
501.500000	0.462333   
502.000000	0.516863   
502.500000	0.558212   
503.000000	0.536780   
503.500000	0.423121   
504.000000	0.467946   
504.500000	0.634840   
505.000000	0.741045   
505.500000	0.823060   
506.000000	0.807325   
506.500000	0.804734   
507.000000	0.756651   
507.500000	0.792606   
508.000000	0.751515   
508.500000	0.727924   
509.000000	0.745242   
509.500000	0.850772   
510.000000	0.932909   
510.500000	1.022984   
511.000000	1.127606   
511.500000	1.231121   
512.000000	1.200113   
512.500000	1.063742   
513.000000	1.004666   
513.500000	1.076310   
514.000000	1.222045   
514.500000	1.250931   
515.000000	1.497810   
515.500000	1.768196   
516.000000	2.065060   
516.500000	2.038969   
517.000000	2.168946   
517.500000	2.309075   
518.000000	2.400636   
518.500000	2.268424   
519.000000	2.096280   
519.500000	1.895878   
520.000000	1.737295   
520.500000	1.725151   
521.000000	1.948643   
521.500000	2.188856   
522.000000	2.349939   
522.500000	2.507121   
523.000000	2.723454   
523.500000	2.827136   
524.000000	2.945333   
524.500000	2.879469   
525.000000	2.825840   
525.500000	2.827159   
526.000000	2.895325   
526.500000	2.930719   
527.000000	3.045916   
527.500000	3.312545   
528.000000	3.751348   
528.500000	4.077734   
529.000000	4.023196   
529.500000	3.732515   
530.000000	3.618242   
530.500000	3.918606   
531.000000	4.413696   
531.500000	4.756515   
532.000000	4.922916   
532.500000	5.190378   
533.000000	5.668833   
533.500000	6.210272   
534.000000	6.534575   
534.500000	6.527015   
535.000000	6.578916   
535.500000	7.003969   
536.000000	7.538113   
536.500000	7.759212   
537.000000	7.780893   
537.500000	7.846166   
538.000000	7.999757   
538.500000	8.115962   
539.000000	8.432431   
539.500000	9.058333   
540.000000	9.583128   
540.500000	10.090196  
541.000000	10.616530  
541.500000	11.242742  
542.000000	11.643318  
542.500000	11.811628  
543.000000	11.540606  
543.500000	11.193856  
544.000000	11.029128  
544.500000	11.584924  
545.000000	12.331424  
545.500000	12.449196  
546.000000	11.937090  
546.500000	11.368871  
547.000000	11.328583  
547.500000	11.712303  
548.000000	12.232727  
548.500000	12.253106  
549.000000	12.038340  
549.500000	11.852954  
550.000000	11.964287  
550.500000	11.836007  
551.000000	11.654128  
551.500000	11.681136  
552.000000	12.110477  
552.500000	12.495537  
553.000000	12.548340  
553.500000	12.535696  
554.000000	12.472287  
554.500000	12.492204  
555.000000	12.570659  
555.500000	12.826090  
556.000000	12.996886  
556.500000	13.050128  
557.000000	12.908310  
557.500000	13.030098  
558.000000	13.628075  
558.500000	13.969606  
559.000000	14.003015  
559.500000	13.854643  
560.000000	14.196196  
560.500000	14.848568  
561.000000	15.450000  
561.500000	15.591045  
562.000000	15.739659  
562.500000	15.883560  
563.000000	16.173075  
563.500000	16.781848  
564.000000	17.882871  
564.500000	18.815515  
565.000000	19.314939  
565.500000	19.235537  
566.000000	19.467621  
566.500000	20.050780  
567.000000	20.879651  
567.500000	21.566924  
568.000000	21.995621  
568.500000	21.848075  
569.000000	21.744378  
569.500000	22.353840  
570.000000	23.920500  
570.500000	24.935340  
571.000000	25.286787  
571.500000	25.310787  
572.000000	26.456295  
572.500000	27.761969  
573.000000	28.740674  
573.500000	28.705000  
574.000000	28.541151  
574.500000	28.481280  
575.000000	29.031318  
575.500000	29.869946  
576.000000	30.628545  
576.500000	31.157174  
577.000000	31.804242  
577.500000	32.243325  
578.000000	32.211704  
578.500000	32.012666  
579.000000	32.604848  
579.500000	34.015128  
580.000000	35.213151  
580.500000	35.226560  
581.000000	34.916666  
581.500000	35.154848  
582.000000	36.027227  
582.500000	36.587431  
583.000000	37.343871  
583.500000	38.762704  
584.000000	40.217325  
584.500000	40.661219  
585.000000	40.915053  
585.500000	42.131734  
586.000000	44.096848  
586.500000	45.285113  
587.000000	45.460348  
587.500000	45.839575  
588.000000	46.432893  
588.500000	47.463901  
589.000000	48.698393  
589.500000	50.616166  
590.000000	52.000583  
590.500000	52.637219  
591.000000	52.637492  
591.500000	53.804030  
592.000000	55.672439  
592.500000	57.332977  
593.000000	58.095416  
593.500000	58.373431  
594.000000	59.343143  
594.500000	60.914371  
595.000000	62.969636  
595.500000	64.433257  
596.000000	66.015795  
596.500000	67.295037  
597.000000	68.996409  
597.500000	69.828393  
598.000000	71.255681  
598.500000	72.358992  
599.000000	74.037765  
599.500000	74.951469  
600.000000	76.189712  
600.500000	77.433500  
601.000000	79.462439  
601.500000	81.437924  
602.000000	83.598916  
602.500000	85.223659  
603.000000	86.627401  
603.500000	87.345068  
604.000000	88.685803  
604.500000	90.562356  
605.000000	93.466037  
605.500000	95.462810  
606.000000	97.386810  
606.500000	98.431000  
607.000000	100.365537 
607.500000	102.246250 
608.000000	104.619424 
608.500000	105.846878 
609.000000	107.465121 
609.500000	109.989393 
610.000000	113.369787 
610.500000	116.376977 
611.000000	118.524818 
611.500000	120.656606 
612.000000	122.652128 
612.500000	124.105484 
613.000000	125.762772 
613.500000	128.170356 
614.000000	132.172348 
614.500000	135.265863 
615.000000	138.183893 
615.500000	138.965916 
616.000000	141.322257 
616.500000	143.298522 
617.000000	147.303840 
617.500000	150.467151 
618.000000	154.267651 
618.500000	155.977840 
619.000000	157.935431 
619.500000	159.309674 
620.000000	161.751363 
620.500000	164.019606 
621.000000	167.816946 
621.500000	171.324037 
622.000000	174.841454 
622.500000	178.088939 
623.000000	182.378393 
623.500000	185.559090 
624.000000	188.140598 
624.500000	190.638477 
625.000000	194.059333 
625.500000	197.227462 
626.000000	199.673515 
626.500000	204.157651 
627.000000	209.396515 
627.500000	214.434310 
628.000000	217.014280 
628.500000	221.392530 
629.000000	225.554727 
629.500000	230.080628 
630.000000	232.116810 
630.500000	235.196409 
631.000000	238.861507 
631.500000	243.591893 
632.000000	247.697356 
632.500000	251.363833 
633.000000	254.290401 
633.500000	257.368030 
634.000000	261.616446 
634.500000	265.810719 
635.000000	268.774310 
635.500000	271.198212 
636.000000	275.162113 
636.500000	281.193560 
637.000000	286.550303 
637.500000	289.744287 
638.000000	291.537212 
638.500000	294.604075 
639.000000	298.852143 
639.500000	302.170613 
640.000000	303.193075 
640.500000	304.513628 
641.000000	306.985446 
641.500000	310.147515 
642.000000	313.297621 
642.500000	318.118053 
643.000000	322.461939 
643.500000	324.781969 
644.000000	323.604393 
644.500000	323.165113 
645.000000	325.417401 
645.500000	330.113492 
646.000000	333.033128 
646.500000	333.352250 
647.000000	332.451106 
647.500000	332.879931 
648.000000	335.538598 
648.500000	338.199613 
649.000000	339.690128 
649.500000	339.709719 
650.000000	340.290553 
650.500000	342.496075 
651.000000	344.925030 
651.500000	345.286606 
652.000000	343.803840 
652.500000	342.688825 
653.000000	342.254931 
653.500000	342.535916 
654.000000	343.361348 
654.500000	343.396234 
655.000000	342.891810 
655.500000	341.430090 
656.000000	340.702181 
656.500000	339.288416 
657.000000	338.717219 
657.500000	338.062651 
658.000000	337.929090 
658.500000	335.559643 
659.000000	331.772015 
659.500000	327.820689 
660.000000	325.974636 
660.500000	325.428780 
661.000000	325.734984 
661.500000	324.654022 
662.000000	321.574878 
662.500000	317.163431 
663.000000	312.326628 
663.500000	308.943166 
664.000000	307.060166 
664.500000	306.749333 
665.000000	304.162810 
665.500000	299.035121 
666.000000	293.206893 
666.500000	289.404242 
667.000000	286.516878 
667.500000	282.425030 
668.000000	277.961575 
668.500000	272.249628 
669.000000	266.703530 
669.500000	261.267924 
670.000000	257.694613 
670.500000	254.771545 
671.000000	251.114772 
671.500000	246.569666 
672.000000	241.040037 
672.500000	235.777568 
673.000000	230.748484 
673.500000	226.539106 
674.000000	221.622886 
674.500000	216.091113 
675.000000	210.758750 
675.500000	205.170484 
676.000000	200.102030 
676.500000	194.996878 
677.000000	190.843598 
677.500000	186.458166 
678.000000	182.701333 
678.500000	178.659257 
679.000000	174.412325 
679.500000	168.879401 
680.000000	162.829340 
680.500000	157.625098 
681.000000	154.100219 
681.500000	150.910015 
682.000000	146.370295 
682.500000	141.540931 
683.000000	137.158984 
683.500000	133.245598 
684.000000	128.332803 
684.500000	123.625984 
685.000000	120.580393 
685.500000	118.576689 
686.000000	115.833916 
686.500000	110.913863 
687.000000	106.735181 
687.500000	103.645507 
688.000000	102.001242 
688.500000	98.879378  
689.000000	95.691689  
689.500000	92.630454  
690.000000	90.768954  
690.500000	87.511878  
691.000000	83.614530  
691.500000	80.245136  
692.000000	78.236053  
692.500000	76.337030  
693.000000	74.210924  
693.500000	71.868454  
694.000000	69.861037  
694.500000	67.731606  
695.000000	65.698181  
695.500000	63.767833  
696.000000	62.152393  
696.500000	60.707121  
697.000000	59.630371  
697.500000	57.638537  
698.000000	54.655090  
698.500000	51.450151  
699.000000	49.649113  
699.500000	48.804674  
700.000000	48.110636  
700.500000	46.831674  
701.000000	45.117318  
701.500000	43.296825  
702.000000	41.683121  
702.500000	40.569393  
703.000000	39.285227  
703.500000	38.155863  
704.000000	37.195545  
704.500000	36.992356  
705.000000	36.620515  
705.500000	35.830803  
706.000000	34.234295  
706.500000	33.044242  
707.000000	32.331446  
707.500000	31.990651  
708.000000	31.033219  
708.500000	29.798939  
709.000000	28.831696  
709.500000	28.152727  
710.000000	27.593098  
710.500000	26.614568  
711.000000	25.932272  
711.500000	24.834462  
712.000000	24.027818  
712.500000	23.191212  
713.000000	23.430901  
713.500000	23.676568  
714.000000	23.661598  
714.500000	22.993424  
715.000000	22.293689  
715.500000	21.617393  
716.000000	21.290674  
716.500000	21.059053  
717.000000	20.500886  
717.500000	19.435166  
718.000000	18.629795  
718.500000	18.175446  
719.000000	18.102575  
719.500000	17.816704  
720.000000	17.553583  
720.500000	16.919484  
721.000000	16.133909  
721.500000	15.576378  
722.000000	15.597462  
722.500000	15.745098  
723.000000	15.743666  
723.500000	15.562787  
724.000000	14.910840  
724.500000	14.198250  
725.000000	13.501628  
725.500000	13.205454  
726.000000	12.895196  
726.500000	12.636765  
727.000000	12.331742  
727.500000	12.409681  
728.000000	12.341795  
728.500000	12.116181  
729.000000	11.560492  
729.500000	11.205159  
730.000000	10.866613  
730.500000	10.613606  
731.000000	10.325318  
731.500000	10.416636  
732.000000	10.670507  
732.500000	10.738083  
733.000000	10.397924  
733.500000	9.930492   
734.000000	9.571030   
734.500000	9.116545   
735.000000	8.910742   
735.500000	9.080621   
736.000000	9.502022   
736.500000	9.203742   
737.000000	8.834446   
737.500000	8.592909   
738.000000	8.870954   
738.500000	8.420628   
739.000000	7.830325   
739.500000	7.273909   
740.000000	7.392507   
740.500000	7.576833   
741.000000	7.927840   
741.500000	8.005893   
742.000000	7.779568   
742.500000	7.603901   
743.000000	7.547053   
743.500000	7.404295   
744.000000	6.924886   
744.500000	6.440287   
745.000000	6.320143   
745.500000	6.591121   
746.000000	6.877409   
746.500000	6.864227   
747.000000	6.624287   
747.500000	6.365878   
748.000000	6.428136   
748.500000	6.788287   
749.000000	6.920901   
749.500000	6.615689   
750.000000	5.897772   
750.500000	5.273795   
751.000000	5.015962   
751.500000	5.132083   
752.000000	5.135856   
752.500000	5.295333   
753.000000	5.568068   
753.500000	5.868189   
754.000000	5.602575   
754.500000	5.414575   
755.000000	5.259901   
755.500000	5.482696   
756.000000	5.469318   
756.500000	5.576469   
757.000000	5.730492   
757.500000	5.796075   
758.000000	5.345969   
758.500000	4.734651   
759.000000	4.444340   
759.500000	4.537659   
760.000000	4.807992   
760.500000	4.896196   
761.000000	4.967636   
761.500000	5.039651   
762.000000	4.880325   
762.500000	4.511856   
763.000000	4.441128   
763.500000	4.611757   
764.000000	4.936530   
764.500000	5.042946   
765.000000	4.909204   
765.500000	4.335704   
766.000000	3.831446   
766.500000	3.879159   
767.000000	4.458712   
767.500000	4.810356   
768.000000	4.537636   
768.500000	3.981439   
769.000000	3.583333   
769.500000	3.479568   
770.000000	3.641424   
770.500000	3.753840   
771.000000	3.788780   
771.500000	3.695469   
772.000000	3.739537   
772.500000	3.761060   
773.000000	3.784371   
773.500000	3.679136   
774.000000	3.555681   
774.500000	3.446787   
775.000000	3.335037   
775.500000	3.361712   
776.000000	3.540909   
776.500000	3.650946   
777.000000	3.554189   
777.500000	3.297007   
778.000000	3.211674   
778.500000	3.246575   
779.000000	3.356886   
779.500000	3.353151   
780.000000	3.313234   
780.500000	3.162530   
781.000000	3.057734   
781.500000	3.039386   
782.000000	3.109750   
782.500000	3.183053   
783.000000	3.316681   
783.500000	3.344401   
784.000000	3.315962   
784.500000	3.089757   
785.000000	2.933439   
785.500000	2.844931   
786.000000	2.934924   
786.500000	3.026272   
787.000000	3.142477   
787.500000	3.183901   
788.000000	3.153681   
788.500000	3.053598   
789.000000	2.929318   
789.500000	2.864734   
790.000000	2.875113   
790.500000	2.918590   
791.000000	2.927446   
791.500000	2.829234   
792.000000	2.730454   
792.500000	2.704060   
793.000000	2.770992   
793.500000	2.783742   
794.000000	2.798969   
794.500000	2.835969   
795.000000	2.872037   
795.500000	2.719166   
796.000000	2.444553   
796.500000	2.341053   
797.000000	2.505818   
797.500000	2.689742   
798.000000	2.608446   
798.500000	2.366325   
799.000000	2.118196   
799.500000	2.002500   
800.000000	2.075818   
800.500000	2.234265   
801.000000	2.358613   
801.500000	2.306181   
802.000000	2.175643   
802.500000	2.053621   
803.000000	2.021500   
803.500000	2.087280   
804.000000	2.184537   
804.500000	2.106371   
805.000000	1.902568   
805.500000	1.650075   
806.000000	1.584272   
806.500000	1.609007   
807.000000	1.769113   
807.500000	1.856643   
808.000000	1.901969   
808.500000	1.934734   
809.000000	2.069045   
809.500000	2.190734   
810.000000	1.983825   
810.500000	1.768659   
811.000000	1.512795   
811.500000	1.465833   
812.000000	1.382613   
812.500000	1.480583   
813.000000	1.687833   
813.500000	1.844340   
814.000000	1.770340   
814.500000	1.688045   
815.000000	1.682045   
815.500000	1.608037   
816.000000	1.531378   
816.500000	1.529363   
817.000000	1.561606   
817.500000	1.580886   
818.000000	1.627424   
818.500000	1.805030   
819.000000	1.831363   
819.500000	1.550378   
820.000000	1.264969   
820.500000	1.410636   
821.000000	1.780393   
821.500000	2.078500   
822.000000	2.144984   
822.500000	2.337772   
823.000000	2.509568   
823.500000	2.638712   
824.000000	2.494090   
824.500000	2.552287   
825.000000	2.535409   
825.500000	2.470333   
826.000000	2.096878   
826.500000	2.017439   
827.000000	2.141916   
827.500000	2.347143   
828.000000	2.021659   
828.500000	1.555590   
829.000000	1.214424   
829.500000	1.276393   
830.000000	1.308916   
830.500000	1.229340   
831.000000	1.109000   
831.500000	1.105386   
832.000000	1.108090   
832.500000	1.095212   
833.000000	1.109575   
833.500000	1.174643   
834.000000	1.177909   
834.500000	1.155704   
835.000000	1.158962   
835.500000	1.177189   
836.000000	1.053962   
836.500000	0.869022   
837.000000	0.779083   
837.500000	0.855121   
838.000000	0.966462   
838.500000	0.984969   
839.000000	1.021916   
839.500000	1.056318   
840.000000	1.113674   
840.500000	1.026954   
841.000000	0.932424   
841.500000	0.844901   
842.000000	0.819992   
842.500000	0.770537   
843.000000	0.704113   
843.500000	0.613431   
844.000000	0.590863   
844.500000	0.584689   
845.000000	0.591681   
845.500000	0.571159   
846.000000	0.612893   
846.500000	0.595674   
847.000000	0.567037   
847.500000	0.527234   
848.000000	0.631984   
848.500000	0.715204   
849.000000	0.616553   
849.500000	0.388249   
850.000000	0.216174   
850.500000	0.145318   
851.000000	0.098242   
851.500000	0.114901   
852.000000	0.196878   
852.500000	0.316219   
853.000000	0.394659   
853.500000	0.317659   
854.000000	0.157242   
854.500000	-0.033174  
855.000000	-0.051780  
855.500000	0.016106   
856.000000	0.046484   
856.500000	-0.007772  
857.000000	0.047462   
857.500000	0.144848   
858.000000	0.165810   
858.500000	0.108840   
859.000000	0.067234   
859.500000	0.081196   
860.000000	0.112545   
860.500000	0.056416   
861.000000	-0.031212  
861.500000	-0.185401  
862.000000	-0.237848  
862.500000	-0.132227  
863.000000	0.092787   
863.500000	0.188075   
864.000000	0.073583   
864.500000	-0.049189  
865.000000	-0.048053  
865.500000	0.065863   
866.000000	0.042780   
866.500000	-0.011909  
867.000000	-0.031750  
867.500000	0.080371   
868.000000	0.176992   
868.500000	0.199022   
869.000000	0.112856   
869.500000	-0.025992  
870.000000	-0.098598  
870.500000	-0.067106  
871.000000	-0.002409  
871.500000	0.055560   
872.000000	0.135068   
872.500000	0.225575   
873.000000	0.239030   
873.500000	0.095765   
874.000000	-0.092818  
874.500000	-0.062356  
875.000000	0.088962   
875.500000	0.172674   
876.000000	0.050742   
876.500000	0.001075   
877.000000	0.059863   
877.500000	0.142689   
878.000000	0.105098   
878.500000	0.022174   
879.000000	-0.071606  
879.500000	-0.139651  
880.000000	-0.131068  
880.500000	-0.186659  
881.000000	-0.231780  
881.500000	-0.252833  
882.000000	0.019924   
882.500000	0.175606   
883.000000	0.170060   
883.500000	-0.070128  
884.000000	-0.079356  
884.500000	-0.085924  
885.000000	-0.037674  
885.500000	-0.106878  
886.000000	0.042250   
886.500000	0.103378   
887.000000	0.046537   
887.500000	-0.177166  
888.000000	-0.215477  
888.500000	-0.101333  
889.000000	0.092121   
889.500000	0.158696   
890.000000	0.110007   
890.500000	-0.010257  
891.000000	-0.093439  
891.500000	-0.082007  
892.000000	-0.054833  
892.500000	-0.054340  
893.000000	-0.019431  
893.500000	0.038765   
894.000000	0.029992   
894.500000	-0.037803  
895.000000	-0.092674  
895.500000	-0.062825  
896.000000	-0.007174  
896.500000	0.053015   
897.000000	0.049992   
897.500000	-0.010340  

