PE FL                   SPECTRUM    ASCII       PEDS        1.60        
  -1
SAA385~1.SP
24/04/12
17:24:44.00
24/04/12
17:24:44.00
Jan

897.500000
1









LS55
405.00
5.00
5.00
SCAN
1
20
100
100
0
400
0
1
0
1
5
ON
450 405 
1 0 0
#HDR
-1
-1
#GR
NM

0.00002384185791015625
0.0
450.000000
0.500000
896
8
197.806727
-0.441409
#DATA
450.000000	0.034000   
450.500000	-0.031568  
451.000000	-0.073909  
451.500000	-0.125659  
452.000000	-0.153583  
452.500000	-0.094772  
453.000000	0.052303   
453.500000	0.163924   
454.000000	0.056325   
454.500000	-0.003575  
455.000000	0.047257   
455.500000	0.182007   
456.000000	0.003803   
456.500000	-0.163287  
457.000000	-0.257151  
457.500000	-0.205621  
458.000000	-0.126068  
458.500000	-0.047477  
459.000000	-0.022674  
459.500000	-0.007159  
460.000000	0.054916   
460.500000	0.180219   
461.000000	0.246946   
461.500000	0.271651   
462.000000	0.233446   
462.500000	0.018386   
463.000000	-0.211280  
463.500000	-0.213106  
464.000000	-0.030439  
464.500000	0.121893   
465.000000	0.080090   
465.500000	-0.050560  
466.000000	-0.151280  
466.500000	-0.057795  
467.000000	0.108121   
467.500000	0.193553   
468.000000	0.013181   
468.500000	-0.114787  
469.000000	-0.120409  
469.500000	-0.015257  
470.000000	-0.003265  
470.500000	-0.046507  
471.000000	-0.097075  
471.500000	-0.002234  
472.000000	0.175007   
472.500000	0.261507   
473.000000	0.276681   
473.500000	0.219022   
474.000000	0.101681   
474.500000	0.000590   
475.000000	0.052606   
475.500000	0.212060   
476.000000	0.077371   
476.500000	-0.184840  
477.000000	-0.344075  
477.500000	-0.128515  
478.000000	-0.045280  
478.500000	-0.082545  
479.000000	-0.266568  
479.500000	-0.242386  
480.000000	-0.074242  
480.500000	0.141992   
481.000000	0.193030   
481.500000	0.144583   
482.000000	0.113833   
482.500000	-0.038689  
483.000000	-0.181500  
483.500000	-0.225037  
484.000000	0.026257   
484.500000	0.153712   
485.000000	0.145606   
485.500000	-0.083454  
486.000000	-0.036318  
486.500000	-0.068939  
487.000000	0.060000   
487.500000	0.112401   
488.000000	0.254613   
488.500000	0.283196   
489.000000	0.264666   
489.500000	0.088159   
490.000000	-0.036325  
490.500000	-0.064810  
491.000000	-0.023469  
491.500000	-0.027401  
492.000000	-0.177212  
492.500000	-0.297742  
493.000000	-0.202848  
493.500000	0.016249   
494.000000	0.195386   
494.500000	0.161030   
495.000000	0.106871   
495.500000	0.080106   
496.000000	0.122295   
496.500000	0.236500   
497.000000	0.382128   
497.500000	0.451507   
498.000000	0.298719   
498.500000	0.082833   
499.000000	0.010219   
499.500000	0.192484   
500.000000	0.429045   
500.500000	0.623825   
501.000000	0.693090   
501.500000	0.653909   
502.000000	0.637340   
502.500000	0.524500   
503.000000	0.369515   
503.500000	0.178984   
504.000000	0.243757   
504.500000	0.499272   
505.000000	0.809219   
505.500000	0.862863   
506.000000	0.803318   
506.500000	0.730560   
507.000000	0.777643   
507.500000	0.838621   
508.000000	0.851499   
508.500000	0.797348   
509.000000	0.801280   
509.500000	0.888015   
510.000000	1.101462   
510.500000	1.220219   
511.000000	1.280924   
511.500000	1.273446   
512.000000	1.350363   
512.500000	1.302530   
513.000000	1.206712   
513.500000	1.080886   
514.000000	1.377643   
514.500000	1.663219   
515.000000	1.694000   
515.500000	1.371568   
516.000000	1.466734   
516.500000	1.860765   
517.000000	2.311348   
517.500000	2.199795   
518.000000	2.025787   
518.500000	2.034583   
519.000000	2.365340   
519.500000	2.451757   
520.000000	2.345363   
520.500000	2.211007   
521.000000	2.427249   
521.500000	2.773856   
522.000000	2.857856   
522.500000	2.745242   
523.000000	2.719272   
523.500000	2.919719   
524.000000	3.019931   
524.500000	3.293500   
525.000000	3.541083   
525.500000	3.810234   
526.000000	3.647924   
526.500000	3.779787   
527.000000	4.258886   
527.500000	4.935977   
528.000000	5.006689   
528.500000	5.071742   
529.000000	5.279462   
529.500000	5.691772   
530.000000	5.848477   
530.500000	6.064287   
531.000000	6.420484   
531.500000	6.756280   
532.000000	7.054416   
532.500000	7.259856   
533.000000	7.561219   
533.500000	7.554250   
534.000000	7.480037   
534.500000	7.629424   
535.000000	8.348962   
535.500000	8.935340   
536.000000	9.217590   
536.500000	9.360499   
537.000000	9.741916   
537.500000	10.249893  
538.000000	10.613719  
538.500000	10.911931  
539.000000	11.179515  
539.500000	11.342181  
540.000000	11.505886  
540.500000	12.118560  
541.000000	12.643166  
541.500000	12.972136  
542.000000	12.854628  
542.500000	12.911719  
543.000000	13.091946  
543.500000	13.293750  
544.000000	13.233401  
544.500000	13.118265  
545.000000	12.799560  
545.500000	12.253848  
546.000000	11.732007  
546.500000	11.620568  
547.000000	11.804681  
547.500000	12.129598  
548.000000	12.356037  
548.500000	12.481772  
549.000000	12.444234  
549.500000	12.266795  
550.000000	12.017356  
550.500000	11.770856  
551.000000	11.627356  
551.500000	11.747477  
552.000000	12.030931  
552.500000	12.164234  
553.000000	12.108734  
553.500000	12.193886  
554.000000	12.688143  
554.500000	13.393810  
555.000000	13.651424  
555.500000	13.553234  
556.000000	13.555598  
556.500000	13.970113  
557.000000	14.329015  
557.500000	14.780007  
558.000000	15.003545  
558.500000	15.255553  
559.000000	15.338181  
559.500000	15.832780  
560.000000	16.407787  
560.500000	16.999742  
561.000000	17.627507  
561.500000	18.528356  
562.000000	19.154962  
562.500000	19.105083  
563.000000	19.002431  
563.500000	19.194083  
564.000000	19.786196  
564.500000	20.106310  
565.000000	20.254946  
565.500000	20.312946  
566.000000	20.575348  
566.500000	20.799818  
567.000000	21.457053  
567.500000	22.412454  
568.000000	23.295727  
568.500000	23.978659  
569.000000	24.287159  
569.500000	24.337659  
570.000000	24.189333  
570.500000	24.464515  
571.000000	25.200863  
571.500000	26.243371  
572.000000	26.733446  
572.500000	26.992227  
573.000000	27.274356  
573.500000	27.728113  
574.000000	28.068098  
574.500000	28.199454  
575.000000	28.197037  
575.500000	28.503045  
576.000000	29.231280  
576.500000	30.029318  
577.000000	30.835356  
577.500000	31.662719  
578.000000	32.446196  
578.500000	32.869696  
579.000000	33.064477  
579.500000	33.592795  
580.000000	34.906772  
580.500000	36.159469  
581.000000	36.532060  
581.500000	36.189856  
582.000000	36.464386  
582.500000	37.749090  
583.000000	39.090113  
583.500000	39.872909  
584.000000	40.438848  
584.500000	41.354325  
585.000000	42.176969  
585.500000	43.074893  
586.000000	43.697924  
586.500000	44.970833  
587.000000	46.057712  
587.500000	47.124568  
588.000000	47.628810  
588.500000	48.759098  
589.000000	49.444636  
589.500000	49.870022  
590.000000	49.523424  
590.500000	49.893257  
591.000000	50.999333  
591.500000	52.688219  
592.000000	54.306916  
592.500000	55.778272  
593.000000	56.439727  
593.500000	56.332734  
594.000000	56.503439  
594.500000	56.987204  
595.000000	58.222333  
595.500000	59.841681  
596.000000	61.706181  
596.500000	62.741515  
597.000000	63.430621  
597.500000	64.471840  
598.000000	65.808621  
598.500000	66.886537  
599.000000	67.328810  
599.500000	68.345393  
600.000000	69.910795  
600.500000	71.253939  
601.000000	71.663409  
601.500000	72.021409  
602.000000	73.668992  
602.500000	75.852189  
603.000000	77.861386  
603.500000	78.849250  
604.000000	80.154484  
604.500000	81.638712  
605.000000	83.696090  
605.500000	84.740409  
606.000000	85.939393  
606.500000	86.930196  
607.000000	88.862780  
607.500000	90.469037  
608.000000	92.152121  
608.500000	93.687295  
609.000000	95.639606  
609.500000	97.644878  
610.000000	99.783431  
610.500000	101.877356 
611.000000	102.940022 
611.500000	103.801303 
612.000000	105.315128 
612.500000	107.491931 
613.000000	109.035606 
613.500000	110.033250 
614.000000	111.996166 
614.500000	114.984575 
615.000000	117.921371 
615.500000	120.074431 
616.000000	121.381931 
616.500000	122.289507 
617.000000	122.975560 
617.500000	124.484015 
618.000000	127.024106 
618.500000	130.968984 
619.000000	134.117787 
619.500000	135.457348 
620.000000	135.233189 
620.500000	135.607568 
621.000000	138.015022 
621.500000	141.195946 
622.000000	144.125931 
622.500000	144.067545 
623.000000	143.809901 
623.500000	144.632568 
624.000000	148.474037 
624.500000	151.818409 
625.000000	154.414469 
625.500000	156.005924 
626.000000	157.284886 
626.500000	158.126984 
627.000000	159.021166 
627.500000	160.777787 
628.000000	161.805750 
628.500000	164.107045 
629.000000	167.343780 
629.500000	171.020583 
630.000000	172.846303 
630.500000	174.545719 
631.000000	176.054257 
631.500000	177.280469 
632.000000	176.925325 
632.500000	178.089219 
633.000000	180.088037 
633.500000	182.633916 
634.000000	183.136303 
634.500000	185.246621 
635.000000	188.107628 
635.500000	191.284507 
636.000000	190.859803 
636.500000	189.578848 
637.000000	189.004386 
637.500000	190.410742 
638.000000	192.458295 
638.500000	194.336643 
639.000000	194.986810 
639.500000	194.522060 
640.000000	194.166560 
640.500000	194.135848 
641.000000	194.270272 
641.500000	195.247765 
642.000000	196.843106 
642.500000	197.806727 
643.000000	197.443780 
643.500000	196.970136 
644.000000	197.452007 
644.500000	197.443545 
645.000000	196.442636 
645.500000	194.246560 
646.000000	192.049113 
646.500000	191.290265 
647.000000	192.128174 
647.500000	192.944916 
648.000000	191.757015 
648.500000	190.268446 
649.000000	189.112393 
649.500000	188.885954 
650.000000	187.294575 
650.500000	185.609287 
651.000000	182.904848 
651.500000	180.238825 
652.000000	178.009303 
652.500000	178.185166 
653.000000	178.647484 
653.500000	178.115583 
654.000000	175.560462 
654.500000	172.772651 
655.000000	169.385265 
655.500000	165.596636 
656.000000	162.341416 
656.500000	161.357083 
657.000000	160.826666 
657.500000	159.031340 
658.000000	155.710401 
658.500000	152.856901 
659.000000	150.096462 
659.500000	146.645015 
660.000000	141.809166 
660.500000	138.134545 
661.000000	136.114310 
661.500000	134.884909 
662.000000	132.532469 
662.500000	128.872825 
663.000000	124.538075 
663.500000	120.741530 
664.000000	117.887742 
664.500000	115.682931 
665.000000	113.685840 
665.500000	111.005530 
666.000000	107.387825 
666.500000	104.231181 
667.000000	101.915386 
667.500000	99.766227  
668.000000	96.049500  
668.500000	91.726575  
669.000000	87.970704  
669.500000	86.132901  
670.000000	84.365234  
670.500000	82.645719  
671.000000	80.232696  
671.500000	77.642840  
672.000000	74.837234  
672.500000	72.433431  
673.000000	70.439446  
673.500000	68.735962  
674.000000	67.127022  
674.500000	65.575696  
675.000000	64.087750  
675.500000	62.476075  
676.000000	59.917113  
676.500000	57.093348  
677.000000	54.526083  
677.500000	53.100939  
678.000000	52.214030  
678.500000	51.533439  
679.000000	49.760810  
679.500000	47.546560  
680.000000	45.554143  
680.500000	44.500196  
681.000000	43.834719  
681.500000	42.723068  
682.000000	41.217196  
682.500000	40.391780  
683.000000	39.855166  
683.500000	38.841310  
684.000000	36.971143  
684.500000	35.162053  
685.000000	33.815393  
685.500000	33.300492  
686.000000	32.322333  
686.500000	31.607757  
687.000000	30.599166  
687.500000	29.664522  
688.000000	28.337696  
688.500000	27.326181  
689.000000	26.546136  
689.500000	26.125984  
690.000000	25.369583  
690.500000	24.823742  
691.000000	24.740378  
691.500000	24.643015  
692.000000	23.666606  
692.500000	22.123333  
693.000000	21.036507  
693.500000	21.023340  
694.000000	20.894075  
694.500000	20.082689  
695.000000	19.205272  
695.500000	18.838598  
696.000000	18.889454  
696.500000	18.638742  
697.000000	17.961568  
697.500000	17.120689  
698.000000	16.537969  
698.500000	16.178121  
699.000000	16.140772  
699.500000	15.915416  
700.000000	15.371098  
700.500000	14.662750  
701.000000	14.082719  
701.500000	13.723121  
702.000000	13.384068  
702.500000	12.852712  
703.000000	12.545939  
703.500000	12.741916  
704.000000	12.803250  
704.500000	12.377878  
705.000000	11.690356  
705.500000	11.288750  
706.000000	11.145204  
706.500000	10.769356  
707.000000	10.265848  
707.500000	10.134643  
708.000000	10.408969  
708.500000	10.449787  
709.000000	10.058704  
709.500000	9.534750   
710.000000	9.376977   
710.500000	9.430712   
711.000000	9.566719   
711.500000	9.366598   
712.000000	8.876303   
712.500000	8.429840   
713.000000	8.500893   
713.500000	8.777045   
714.000000	8.709606   
714.500000	8.214575   
715.000000	7.935166   
715.500000	7.950030   
716.000000	7.911219   
716.500000	7.843825   
717.000000	7.923386   
717.500000	8.015037   
718.000000	7.863515   
718.500000	7.592931   
719.000000	7.325568   
719.500000	7.230196   
720.000000	6.908204   
720.500000	6.621090   
721.000000	6.541128   
721.500000	6.722939   
722.000000	6.773878   
722.500000	6.727621   
723.000000	6.482090   
723.500000	6.222492   
724.000000	5.975143   
724.500000	5.723303   
725.000000	5.552196   
725.500000	5.536825   
726.000000	5.769931   
726.500000	5.890060   
727.000000	5.748083   
727.500000	5.420901   
728.000000	5.465946   
728.500000	5.816189   
729.000000	6.164863   
729.500000	6.155143   
730.000000	5.713939   
730.500000	5.346386   
731.000000	5.299946   
731.500000	5.642356   
732.000000	5.711477   
732.500000	5.439386   
733.000000	4.802234   
733.500000	4.260977   
734.000000	4.111272   
734.500000	4.400916   
735.000000	4.890196   
735.500000	5.110962   
736.000000	5.047772   
736.500000	4.793712   
737.000000	4.619045   
737.500000	4.543333   
738.000000	4.585742   
738.500000	4.536409   
739.000000	4.372750   
739.500000	4.277924   
740.000000	4.353825   
740.500000	4.338530   
741.000000	4.218166   
741.500000	4.153992   
742.000000	4.264719   
742.500000	4.298295   
743.000000	4.182393   
743.500000	4.227818   
744.000000	4.395424   
744.500000	4.556924   
745.000000	4.442189   
745.500000	4.343045   
746.000000	4.054818   
746.500000	3.987568   
747.000000	3.989401   
747.500000	4.241560   
748.000000	4.132621   
748.500000	3.926272   
749.000000	3.702522   
749.500000	3.684810   
750.000000	3.648795   
750.500000	3.717151   
751.000000	3.817719   
751.500000	3.820560   
752.000000	3.747666   
752.500000	3.659977   
753.000000	3.648500   
753.500000	3.529825   
754.000000	3.414356   
754.500000	3.406462   
755.000000	3.553712   
755.500000	3.693530   
756.000000	3.720772   
756.500000	3.511053   
757.000000	3.249583   
757.500000	3.179098   
758.000000	3.295712   
758.500000	3.391530   
759.000000	3.363469   
759.500000	3.273121   
760.000000	3.305757   
760.500000	3.368371   
761.000000	3.396280   
761.500000	3.303750   
762.000000	3.239053   
762.500000	3.293787   
763.000000	3.483500   
763.500000	3.608037   
764.000000	3.610727   
764.500000	3.642780   
765.000000	3.622196   
765.500000	3.459840   
766.000000	3.094575   
766.500000	2.877871   
767.000000	2.926212   
767.500000	3.122583   
768.000000	3.251598   
768.500000	3.224492   
769.000000	3.118886   
769.500000	3.032787   
770.000000	3.145530   
770.500000	3.183977   
771.000000	3.078515   
771.500000	2.856628   
772.000000	2.872613   
772.500000	2.969401   
773.000000	3.098606   
773.500000	3.068750   
774.000000	3.081030   
774.500000	3.017962   
775.000000	3.027340   
775.500000	2.992962   
776.000000	3.053833   
776.500000	3.036174   
777.000000	3.062166   
777.500000	3.022666   
778.000000	2.964621   
778.500000	2.871098   
779.000000	2.861053   
779.500000	2.918477   
780.000000	2.925727   
780.500000	2.707507   
781.000000	2.520575   
781.500000	2.549022   
782.000000	2.578000   
782.500000	2.513280   
783.000000	2.572325   
783.500000	2.829651   
784.000000	2.970901   
784.500000	2.964310   
785.000000	2.756886   
785.500000	2.744931   
786.000000	2.640257   
786.500000	2.669462   
787.000000	2.644916   
787.500000	2.685446   
788.000000	2.653037   
788.500000	2.821136   
789.000000	2.861174   
789.500000	2.771863   
790.000000	2.661484   
790.500000	2.606643   
791.000000	2.546045   
791.500000	2.399151   
792.000000	2.355689   
792.500000	2.428628   
793.000000	2.458590   
793.500000	2.400674   
794.000000	2.501545   
794.500000	2.586083   
795.000000	2.526303   
795.500000	2.251553   
796.000000	2.119462   
796.500000	2.196681   
797.000000	2.315348   
797.500000	2.075621   
798.000000	1.858545   
798.500000	1.871424   
799.000000	2.275780   
799.500000	2.487575   
800.000000	2.282151   
800.500000	1.797772   
801.000000	1.516113   
801.500000	1.564363   
802.000000	1.852136   
802.500000	2.064931   
803.000000	1.996090   
803.500000	1.805787   
804.000000	1.660295   
804.500000	1.742174   
805.000000	1.921378   
805.500000	2.065325   
806.000000	2.069515   
806.500000	1.920250   
807.000000	1.828515   
807.500000	1.775303   
808.000000	1.760446   
808.500000	1.607795   
809.000000	1.528106   
809.500000	1.464840   
810.000000	1.544583   
810.500000	1.500651   
811.000000	1.465825   
811.500000	1.411772   
812.000000	1.597113   
812.500000	1.775704   
813.000000	1.843287   
813.500000	1.552098   
814.000000	1.374333   
814.500000	1.344159   
815.000000	1.456431   
815.500000	1.380257   
816.000000	1.281204   
816.500000	1.412674   
817.000000	1.654257   
817.500000	1.692575   
818.000000	1.441409   
818.500000	1.235916   
819.000000	1.246242   
819.500000	1.362431   
820.000000	1.568681   
820.500000	1.699378   
821.000000	1.873628   
821.500000	1.897674   
822.000000	2.116916   
822.500000	2.267962   
823.000000	2.343681   
823.500000	2.163212   
824.000000	2.070333   
824.500000	1.960446   
825.000000	1.952969   
825.500000	2.051848   
826.000000	2.318106   
826.500000	2.307340   
827.000000	2.051575   
827.500000	1.702659   
828.000000	1.658719   
828.500000	1.594196   
829.000000	1.529931   
829.500000	1.436613   
830.000000	1.491234   
830.500000	1.456204   
831.000000	1.335742   
831.500000	1.225765   
832.000000	1.224106   
832.500000	1.255128   
833.000000	1.213651   
833.500000	1.170022   
834.000000	1.143181   
834.500000	1.151318   
835.000000	1.151083   
835.500000	1.113416   
836.000000	1.066439   
836.500000	0.984045   
837.000000	0.930250   
837.500000	0.884446   
838.000000	0.873401   
838.500000	0.857969   
839.000000	0.860856   
839.500000	0.831234   
840.000000	0.813893   
840.500000	0.853909   
841.000000	0.949681   
841.500000	1.073363   
842.000000	1.097477   
842.500000	0.949825   
843.000000	0.697674   
843.500000	0.532871   
844.000000	0.478939   
844.500000	0.452969   
845.000000	0.301909   
845.500000	0.200212   
846.000000	0.142469   
846.500000	0.147856   
847.000000	0.048871   
847.500000	-0.040371  
848.000000	-0.128939  
848.500000	-0.030075  
849.000000	0.125613   
849.500000	0.170621   
850.000000	0.162318   
850.500000	0.173469   
851.000000	0.252712   
851.500000	0.173257   
852.000000	0.037431   
852.500000	-0.022545  
853.000000	0.122984   
853.500000	0.223325   
854.000000	0.216553   
854.500000	0.046999   
855.000000	-0.149159  
855.500000	-0.219704  
856.000000	-0.108333  
856.500000	0.068537   
857.000000	0.152931   
857.500000	0.148401   
858.000000	0.126090   
858.500000	0.075348   
859.000000	0.028439   
859.500000	-0.026856  
860.000000	-0.019984  
860.500000	-0.061719  
861.000000	-0.005053  
861.500000	0.036780   
862.000000	0.196621   
862.500000	0.217257   
863.000000	0.133393   
863.500000	-0.045537  
864.000000	-0.137363  
864.500000	-0.159666  
865.000000	-0.192772  
865.500000	-0.221803  
866.000000	-0.149962  
866.500000	0.014318   
867.000000	0.153878   
867.500000	0.133886   
868.000000	0.004151   
868.500000	-0.138242  
869.000000	-0.190659  
869.500000	-0.160712  
870.000000	-0.041212  
870.500000	0.037325   
871.000000	0.058848   
871.500000	-0.093977  
872.000000	-0.309606  
872.500000	-0.441409  
873.000000	-0.334848  
873.500000	-0.115719  
874.000000	0.026780   
874.500000	0.070954   
875.000000	0.089045   
875.500000	0.172416   
876.000000	0.127810   
876.500000	-0.025212  
877.000000	-0.252977  
877.500000	-0.248409  
878.000000	-0.121030  
878.500000	0.037386   
879.000000	0.056068   
879.500000	0.036901   
880.000000	-0.008242  
880.500000	0.002030   
881.000000	-0.013833  
881.500000	-0.058386  
882.000000	-0.174924  
882.500000	-0.275060  
883.000000	-0.241946  
883.500000	-0.112416  
884.000000	0.031848   
884.500000	0.118719   
885.000000	0.167045   
885.500000	0.076500   
886.000000	-0.048257  
886.500000	-0.114128  
887.000000	-0.081515  
887.500000	-0.080674  
888.000000	-0.101507  
888.500000	-0.098189  
889.000000	-0.030628  
889.500000	0.003712   
890.000000	0.003598   
890.500000	-0.048015  
891.000000	-0.027787  
891.500000	-0.014712  
892.000000	-0.003704  
892.500000	-0.115022  
893.000000	-0.250348  
893.500000	-0.381348  
894.000000	-0.403704  
894.500000	-0.326772  
895.000000	-0.197984  
895.500000	-0.029106  
896.000000	0.062643   
896.500000	0.105651   
897.000000	0.012780   
897.500000	-0.058810  

