PE FL                   SPECTRUM    ASCII       PEDS        1.60        
  -1
SAABAD~1.SP
24/04/12
17:03:20.00
24/04/12
17:03:20.00
Jan

897.500000
1









LS55
405.00
5.00
5.00
SCAN
1
20
100
100
0
400
0
1
0
1
5
ON
450 405 
1 0 0
#HDR
-1
-1
#GR
NM

0.00002384185791015625
0.0
450.000000
0.500000
896
8
221.774090
-0.542000
#DATA
450.000000	-0.542000  
450.500000	-0.266477  
451.000000	-0.010446  
451.500000	0.040780   
452.000000	-0.031696  
452.500000	-0.245280  
453.000000	-0.241227  
453.500000	-0.074795  
454.000000	0.197969   
454.500000	0.211378   
455.000000	0.052318   
455.500000	-0.149181  
456.000000	-0.144871  
456.500000	-0.043681  
457.000000	-0.012598  
457.500000	0.005227   
458.000000	-0.003015  
458.500000	-0.017287  
459.000000	-0.076848  
459.500000	-0.138378  
460.000000	-0.110053  
460.500000	-0.029742  
461.000000	0.030280   
461.500000	0.060075   
462.000000	0.109075   
462.500000	0.192083   
463.000000	0.177863   
463.500000	0.147606   
464.000000	0.039909   
464.500000	0.011886   
465.000000	0.025916   
465.500000	0.176750   
466.000000	0.173537   
466.500000	0.024560   
467.000000	-0.149515  
467.500000	-0.093234  
468.000000	0.080007   
468.500000	0.185000   
469.000000	0.131378   
469.500000	-0.000560  
470.000000	-0.046522  
470.500000	0.013363   
471.000000	0.136560   
471.500000	0.109439   
472.000000	0.080568   
472.500000	0.048227   
473.000000	0.050856   
473.500000	-0.124606  
474.000000	-0.127931  
474.500000	-0.131575  
475.000000	-0.040204  
475.500000	0.019333   
476.000000	0.214878   
476.500000	0.263068   
477.000000	0.212787   
477.500000	0.234393   
478.000000	0.389946   
478.500000	0.513219   
479.000000	0.385765   
479.500000	0.225522   
480.000000	-0.027007  
480.500000	-0.118204  
481.000000	-0.061325  
481.500000	0.158803   
482.000000	0.176651   
482.500000	0.075803   
483.000000	0.006181   
483.500000	0.026924   
484.000000	0.045272   
484.500000	-0.033719  
485.000000	-0.129590  
485.500000	-0.193795  
486.000000	-0.078174  
486.500000	0.102348   
487.000000	0.234946   
487.500000	0.103560   
488.000000	-0.108545  
488.500000	-0.120712  
489.000000	0.127962   
489.500000	0.397560   
490.000000	0.359924   
490.500000	0.164265   
491.000000	0.055530   
491.500000	0.227053   
492.000000	0.362848   
492.500000	0.391553   
493.000000	0.283310   
493.500000	0.182530   
494.000000	0.130439   
494.500000	-0.077242  
495.000000	-0.244583  
495.500000	-0.281901  
496.000000	-0.046863  
496.500000	0.066227   
497.000000	0.149787   
497.500000	0.231325   
498.000000	0.478265   
498.500000	0.661719   
499.000000	0.539393   
499.500000	0.244356   
500.000000	0.084037   
500.500000	0.177848   
501.000000	0.295090   
501.500000	0.321265   
502.000000	0.264734   
502.500000	0.305363   
503.000000	0.273159   
503.500000	0.168431   
504.000000	0.162424   
504.500000	0.277060   
505.000000	0.376825   
505.500000	0.514962   
506.000000	0.723462   
506.500000	0.968287   
507.000000	1.055242   
507.500000	1.025477   
508.000000	1.092189   
508.500000	1.089409   
509.000000	0.975416   
509.500000	0.837878   
510.000000	1.011333   
510.500000	1.237984   
511.000000	1.368886   
511.500000	1.251992   
512.000000	1.162522   
512.500000	1.153977   
513.000000	1.262272   
513.500000	1.444954   
514.000000	1.482106   
514.500000	1.494810   
515.000000	1.606053   
515.500000	2.005674   
516.000000	2.279878   
516.500000	2.152946   
517.000000	1.886348   
517.500000	1.855916   
518.000000	2.173568   
518.500000	2.452545   
519.000000	2.610280   
519.500000	2.588545   
520.000000	2.588780   
520.500000	2.442113   
521.000000	2.207893   
521.500000	1.984348   
522.000000	2.036909   
522.500000	2.399212   
523.000000	2.764507   
523.500000	2.901484   
524.000000	2.915484   
524.500000	2.928560   
525.000000	2.920886   
525.500000	2.906053   
526.000000	3.046189   
526.500000	3.320166   
527.000000	3.673143   
527.500000	3.923916   
528.000000	4.203765   
528.500000	4.314068   
529.000000	4.428537   
529.500000	4.523204   
530.000000	4.825810   
530.500000	5.178825   
531.000000	5.490939   
531.500000	5.632348   
532.000000	5.605363   
532.500000	5.663007   
533.000000	5.873734   
533.500000	6.409643   
534.000000	6.835015   
534.500000	7.335742   
535.000000	7.792856   
535.500000	8.332401   
536.000000	8.557318   
536.500000	8.739181   
537.000000	8.949477   
537.500000	9.368795   
538.000000	9.724007   
538.500000	10.233196  
539.000000	10.845121  
539.500000	11.244469  
540.000000	11.036742  
540.500000	10.711386  
541.000000	10.863530  
541.500000	11.667840  
542.000000	12.325333  
542.500000	12.399765  
543.000000	12.098151  
543.500000	12.168280  
544.000000	12.331977  
544.500000	12.397765  
545.000000	12.034090  
545.500000	11.838893  
546.000000	11.668227  
546.500000	11.658568  
547.000000	11.663257  
547.500000	11.890681  
548.000000	11.781909  
548.500000	11.594045  
549.000000	11.548590  
549.500000	11.953113  
550.000000	12.154575  
550.500000	11.866598  
551.000000	11.486060  
551.500000	11.741613  
552.000000	12.275106  
552.500000	12.536780  
553.000000	12.389234  
553.500000	12.046750  
554.000000	11.915795  
554.500000	12.075386  
555.000000	12.569250  
555.500000	13.109643  
556.000000	13.447454  
556.500000	13.577803  
557.000000	13.781303  
557.500000	13.908575  
558.000000	14.159659  
558.500000	14.542901  
559.000000	15.048015  
559.500000	15.149583  
560.000000	15.189310  
560.500000	15.776477  
561.000000	16.722795  
561.500000	17.550507  
562.000000	17.588530  
562.500000	17.684803  
563.000000	17.599636  
563.500000	17.961666  
564.000000	18.311000  
564.500000	19.084484  
565.000000	19.539583  
565.500000	19.885712  
566.000000	20.275340  
566.500000	20.906242  
567.000000	21.485181  
567.500000	21.865333  
568.000000	22.190886  
568.500000	22.227424  
569.000000	22.379204  
569.500000	22.927030  
570.000000	23.601310  
570.500000	24.175939  
571.000000	24.876643  
571.500000	25.845545  
572.000000	26.148174  
572.500000	26.436984  
573.000000	26.703825  
573.500000	27.355636  
574.000000	27.177075  
574.500000	26.885075  
575.000000	27.489378  
575.500000	28.630174  
576.000000	29.524939  
576.500000	29.249295  
577.000000	29.161590  
577.500000	29.288265  
578.000000	30.237287  
578.500000	31.000454  
579.000000	31.645825  
579.500000	32.197098  
580.000000	32.457765  
580.500000	33.410143  
581.000000	34.220227  
581.500000	35.041386  
582.000000	35.255424  
582.500000	35.623606  
583.000000	36.315969  
583.500000	37.021189  
584.000000	37.704454  
584.500000	38.495795  
585.000000	39.941212  
585.500000	41.346757  
586.000000	43.286227  
586.500000	45.000083  
587.000000	46.096598  
587.500000	46.206166  
588.000000	45.856166  
588.500000	45.984863  
589.000000	47.453257  
589.500000	49.559280  
590.000000	51.068613  
590.500000	51.605757  
591.000000	51.746643  
591.500000	51.852227  
592.000000	52.296227  
592.500000	53.420674  
593.000000	54.868106  
593.500000	55.771810  
594.000000	55.961962  
594.500000	56.599439  
595.000000	58.087712  
595.500000	59.724219  
596.000000	61.187954  
596.500000	61.752530  
597.000000	61.745007  
597.500000	62.202636  
598.000000	64.181772  
598.500000	66.465439  
599.000000	67.526234  
599.500000	67.474356  
600.000000	68.083219  
600.500000	69.730719  
601.000000	71.710810  
601.500000	73.217189  
602.000000	74.216666  
602.500000	75.078545  
603.000000	76.822242  
603.500000	78.629212  
604.000000	80.300121  
604.500000	81.581590  
605.000000	83.048022  
605.500000	84.576969  
606.000000	86.503871  
606.500000	88.991469  
607.000000	91.530924  
607.500000	93.068795  
608.000000	93.620022  
608.500000	94.885393  
609.000000	96.961598  
609.500000	98.895386  
610.000000	99.854469  
610.500000	100.906507 
611.000000	102.061098 
611.500000	103.016310 
612.000000	104.130030 
612.500000	106.566060 
613.000000	109.847227 
613.500000	112.523833 
614.000000	114.385696 
614.500000	116.016871 
615.000000	117.617393 
615.500000	118.808295 
616.000000	120.370522 
616.500000	123.195931 
617.000000	126.287704 
617.500000	128.368295 
618.000000	129.368393 
618.500000	131.158431 
619.000000	133.898871 
619.500000	136.428560 
620.000000	137.597409 
620.500000	139.297280 
621.000000	142.046712 
621.500000	145.232106 
622.000000	146.968984 
622.500000	148.066265 
623.000000	149.857712 
623.500000	152.796106 
624.000000	155.899553 
624.500000	158.549310 
625.000000	160.451893 
625.500000	162.243886 
626.000000	164.390659 
626.500000	166.510628 
627.000000	168.010893 
627.500000	169.114537 
628.000000	170.892810 
628.500000	173.178151 
629.000000	175.310954 
629.500000	176.615598 
630.000000	177.476863 
630.500000	178.972659 
631.000000	182.678886 
631.500000	187.500159 
632.000000	191.597954 
632.500000	192.993878 
633.000000	193.792431 
633.500000	194.542401 
634.000000	197.064265 
634.500000	198.920984 
635.000000	200.878734 
635.500000	201.662780 
636.000000	203.516053 
636.500000	204.726530 
637.000000	205.908840 
637.500000	206.647234 
638.000000	207.640916 
638.500000	209.518212 
639.000000	211.374166 
639.500000	213.043295 
640.000000	213.943674 
640.500000	214.495272 
641.000000	215.872166 
641.500000	217.741992 
642.000000	218.959537 
642.500000	218.450075 
643.000000	218.465136 
643.500000	219.246219 
644.000000	220.971984 
644.500000	221.774090 
645.000000	221.628545 
645.500000	221.554719 
646.000000	221.599363 
646.500000	221.047651 
647.000000	220.181689 
647.500000	219.735454 
648.000000	220.232613 
648.500000	219.684507 
649.000000	219.682068 
649.500000	219.532454 
650.000000	219.252621 
650.500000	217.488431 
651.000000	216.147795 
651.500000	215.532795 
652.000000	214.846734 
652.500000	213.004363 
653.000000	210.976969 
653.500000	210.145439 
654.000000	209.662780 
654.500000	208.546234 
655.000000	206.874636 
655.500000	203.855340 
656.000000	200.230007 
656.500000	196.872196 
657.000000	194.978416 
657.500000	193.581530 
658.000000	191.505151 
658.500000	188.561371 
659.000000	186.119113 
659.500000	184.698090 
660.000000	183.376818 
660.500000	181.144522 
661.000000	178.028863 
661.500000	174.399166 
662.000000	170.643878 
662.500000	166.588113 
663.000000	163.221393 
663.500000	161.054265 
664.000000	158.884378 
664.500000	156.875431 
665.000000	154.302568 
665.500000	151.860310 
666.000000	147.976022 
666.500000	143.935977 
667.000000	139.303189 
667.500000	135.758022 
668.000000	132.039121 
668.500000	128.870954 
669.000000	125.653492 
669.500000	122.142257 
670.000000	118.574545 
670.500000	115.616000 
671.000000	113.755053 
671.500000	112.017401 
672.000000	109.579772 
672.500000	106.376143 
673.000000	103.611863 
673.500000	100.975522 
674.000000	98.413045  
674.500000	95.535068  
675.000000	92.683984  
675.500000	88.988909  
676.000000	84.991863  
676.500000	81.509075  
677.000000	79.404681  
677.500000	77.792719  
678.000000	76.026272  
678.500000	73.913568  
679.000000	71.388439  
679.500000	69.004583  
680.000000	66.493083  
680.500000	63.799696  
681.000000	61.241583  
681.500000	59.399772  
682.000000	58.151060  
682.500000	57.310856  
683.000000	55.944651  
683.500000	54.416696  
684.000000	52.671749  
684.500000	50.962863  
685.000000	49.232212  
685.500000	47.757037  
686.000000	46.159219  
686.500000	44.284416  
687.000000	42.641325  
687.500000	41.579848  
688.000000	41.564371  
688.500000	40.735272  
689.000000	39.478681  
689.500000	37.764045  
690.000000	36.774174  
690.500000	35.577015  
691.000000	34.523545  
691.500000	33.167303  
692.000000	32.283431  
692.500000	31.190068  
693.000000	30.250545  
693.500000	29.224310  
694.000000	28.465416  
694.500000	27.977227  
695.000000	27.706007  
695.500000	27.096356  
696.000000	26.030984  
696.500000	24.794946  
697.000000	24.037189  
697.500000	23.794265  
698.000000	23.426083  
698.500000	22.561651  
699.000000	21.459750  
699.500000	20.722924  
700.000000	20.393780  
700.500000	20.019310  
701.000000	19.433159  
701.500000	19.045621  
702.000000	18.495340  
702.500000	17.708704  
703.000000	17.066696  
703.500000	17.092022  
704.000000	17.006984  
704.500000	16.560219  
705.000000	15.910234  
705.500000	15.814037  
706.000000	15.461507  
706.500000	14.929333  
707.000000	14.485606  
707.500000	14.660651  
708.000000	14.395053  
708.500000	13.946795  
709.000000	13.497696  
709.500000	13.408924  
710.000000	12.931727  
710.500000	12.349787  
711.000000	11.867750  
711.500000	11.927022  
712.000000	11.789189  
712.500000	11.674750  
713.000000	11.537939  
713.500000	11.602333  
714.000000	11.305242  
714.500000	10.835106  
715.000000	10.324439  
715.500000	10.152409  
716.000000	10.219651  
716.500000	10.339575  
717.000000	10.220606  
717.500000	9.815295   
718.000000	9.378727   
718.500000	9.183689   
719.000000	9.157757   
719.500000	9.146772   
720.000000	8.964386   
720.500000	8.664356   
721.000000	8.311621   
721.500000	8.097803   
722.000000	8.076454   
722.500000	8.028113   
723.000000	7.887999   
723.500000	7.645121   
724.000000	7.575484   
724.500000	7.586272   
725.000000	7.574954   
725.500000	7.387424   
726.000000	7.231287   
726.500000	7.113856   
727.000000	6.992992   
727.500000	6.732378   
728.000000	6.629409   
728.500000	6.570939   
729.000000	6.498363   
729.500000	6.205446   
730.000000	6.095924   
730.500000	6.242484   
731.000000	6.487272   
731.500000	6.426000   
732.000000	6.263613   
732.500000	6.243522   
733.000000	6.184204   
733.500000	5.927363   
734.000000	5.692803   
734.500000	5.697931   
735.000000	5.804121   
735.500000	5.645931   
736.000000	5.544007   
736.500000	5.613681   
737.000000	5.627348   
737.500000	5.326568   
738.000000	4.997765   
738.500000	5.044348   
739.000000	5.356568   
739.500000	5.566492   
740.000000	5.238204   
740.500000	4.903734   
741.000000	4.664393   
741.500000	4.840984   
742.000000	4.851628   
742.500000	4.755628   
743.000000	4.630757   
743.500000	4.876462   
744.000000	5.138719   
744.500000	4.994590   
745.000000	4.619295   
745.500000	4.446916   
746.000000	4.500984   
746.500000	4.646560   
747.000000	4.733151   
747.500000	4.798689   
748.000000	4.402295   
748.500000	4.017340   
749.000000	3.687696   
749.500000	3.821674   
750.000000	3.820651   
750.500000	3.913227   
751.000000	3.891356   
751.500000	3.893136   
752.000000	3.838393   
752.500000	3.746037   
753.000000	3.657643   
753.500000	3.639068   
754.000000	3.752159   
754.500000	4.041446   
755.000000	4.247303   
755.500000	4.123901   
756.000000	3.695651   
756.500000	3.310409   
757.000000	3.247795   
757.500000	3.403196   
758.000000	3.523075   
758.500000	3.689204   
759.000000	4.006151   
759.500000	4.185265   
760.000000	4.078212   
760.500000	3.684537   
761.000000	3.474909   
761.500000	3.498780   
762.000000	3.613553   
762.500000	3.703856   
763.000000	3.871878   
763.500000	3.995007   
764.000000	3.878749   
764.500000	3.484371   
765.000000	3.200507   
765.500000	3.172818   
766.000000	3.258825   
766.500000	3.339818   
767.000000	3.385969   
767.500000	3.250863   
768.000000	3.189840   
768.500000	3.190795   
769.000000	3.324310   
769.500000	3.281250   
770.000000	3.155492   
770.500000	3.094833   
771.000000	3.183386   
771.500000	3.167318   
772.000000	3.059780   
772.500000	2.980454   
773.000000	2.996356   
773.500000	2.997651   
774.000000	3.020250   
774.500000	3.019871   
775.000000	3.047090   
775.500000	2.988015   
776.000000	2.997174   
776.500000	3.033295   
777.000000	3.102250   
777.500000	3.092583   
778.000000	3.067969   
778.500000	3.099234   
779.000000	3.156446   
779.500000	3.152083   
780.000000	3.041825   
780.500000	2.964090   
781.000000	3.024446   
781.500000	3.146704   
782.000000	3.015621   
782.500000	2.764833   
783.000000	2.590265   
783.500000	2.688454   
784.000000	2.900053   
784.500000	2.894696   
785.000000	2.732492   
785.500000	2.535727   
786.000000	2.521613   
786.500000	2.604689   
787.000000	2.730780   
787.500000	2.711439   
788.000000	2.765590   
788.500000	2.819681   
789.000000	2.866174   
789.500000	2.859916   
790.000000	2.730765   
790.500000	2.583613   
791.000000	2.544348   
791.500000	2.579878   
792.000000	2.618272   
792.500000	2.611530   
793.000000	2.466719   
793.500000	2.336325   
794.000000	2.260068   
794.500000	2.119719   
795.000000	2.055939   
795.500000	2.015378   
796.000000	2.168931   
796.500000	2.286613   
797.000000	2.271280   
797.500000	2.114037   
798.000000	2.131318   
798.500000	2.125416   
799.000000	2.048007   
799.500000	1.974204   
800.000000	2.044750   
800.500000	2.211598   
801.000000	2.347106   
801.500000	2.346272   
802.000000	2.225984   
802.500000	2.048212   
803.000000	2.016916   
803.500000	2.130712   
804.000000	2.014969   
804.500000	1.716772   
805.000000	1.499643   
805.500000	1.629643   
806.000000	1.831651   
806.500000	1.794568   
807.000000	1.701924   
807.500000	1.749128   
808.000000	1.964227   
808.500000	1.994113   
809.000000	1.981424   
809.500000	1.942969   
810.000000	2.009810   
810.500000	1.907250   
811.000000	1.784537   
811.500000	1.676969   
812.000000	1.670977   
812.500000	1.703409   
813.000000	1.843462   
813.500000	1.864681   
814.000000	1.840507   
814.500000	1.826272   
815.000000	1.920954   
815.500000	1.856613   
816.000000	1.574234   
816.500000	1.281075   
817.000000	1.221106   
817.500000	1.424530   
818.000000	1.741098   
818.500000	1.941575   
819.000000	1.881780   
819.500000	1.773765   
820.000000	1.883992   
820.500000	2.074598   
821.000000	2.197015   
821.500000	2.126734   
822.000000	2.075613   
822.500000	2.126090   
823.000000	2.260977   
823.500000	2.436583   
824.000000	2.590871   
824.500000	2.817568   
825.000000	2.793068   
825.500000	2.621007   
826.000000	2.383446   
826.500000	2.228825   
827.000000	1.973166   
827.500000	1.601500   
828.000000	1.414992   
828.500000	1.496560   
829.000000	1.690795   
829.500000	1.600219   
830.000000	1.386537   
830.500000	1.175431   
831.000000	1.194409   
831.500000	1.360522   
832.000000	1.435871   
832.500000	1.322818   
833.000000	1.184416   
833.500000	1.126219   
834.000000	1.119780   
834.500000	1.083340   
835.000000	1.078075   
835.500000	1.070742   
836.000000	1.087189   
836.500000	1.067416   
837.000000	1.043325   
837.500000	0.996757   
838.000000	0.995893   
838.500000	0.991598   
839.000000	0.972401   
839.500000	0.848272   
840.000000	0.737765   
840.500000	0.715977   
841.000000	0.823128   
841.500000	0.864325   
842.000000	0.771037   
842.500000	0.511674   
843.000000	0.362507   
843.500000	0.335242   
844.000000	0.365780   
844.500000	0.274803   
845.000000	0.200007   
845.500000	0.233265   
846.000000	0.318545   
846.500000	0.301378   
847.000000	0.249848   
847.500000	0.263265   
848.000000	0.235734   
848.500000	0.260825   
849.000000	0.264568   
849.500000	0.298159   
850.000000	0.215098   
850.500000	0.168439   
851.000000	0.162287   
851.500000	0.137553   
852.000000	0.064416   
852.500000	-0.055780  
853.000000	-0.062643  
853.500000	-0.010189  
854.000000	0.164977   
854.500000	0.202060   
855.000000	0.211121   
855.500000	0.163833   
856.000000	0.141765   
856.500000	0.123878   
857.000000	0.142462   
857.500000	0.242780   
858.000000	0.155166   
858.500000	-0.040469  
859.000000	-0.246659  
859.500000	-0.190515  
860.000000	-0.154098  
860.500000	-0.069954  
861.000000	-0.089424  
861.500000	-0.095643  
862.000000	-0.169969  
862.500000	-0.115810  
863.000000	0.031257   
863.500000	0.169734   
864.000000	0.137598   
864.500000	0.028136   
865.000000	-0.049424  
865.500000	-0.078022  
866.000000	-0.121575  
866.500000	-0.214962  
867.000000	-0.247022  
867.500000	-0.250931  
868.000000	-0.100560  
868.500000	0.055810   
869.000000	0.148954   
869.500000	0.062590   
870.000000	0.044712   
870.500000	0.060424   
871.000000	0.085106   
871.500000	0.026742   
872.000000	-0.015363  
872.500000	-0.065537  
873.000000	-0.086219  
873.500000	-0.024113  
874.000000	0.137439   
874.500000	0.158204   
875.000000	0.049598   
875.500000	-0.117446  
876.000000	-0.120469  
876.500000	-0.137598  
877.000000	-0.136386  
877.500000	-0.157409  
878.000000	-0.038363  
878.500000	0.073590   
879.000000	0.136757   
879.500000	0.099818   
880.000000	0.027871   
880.500000	-0.000583  
881.000000	0.007037   
881.500000	0.063265   
882.000000	0.049916   
882.500000	-0.006598  
883.000000	-0.067719  
883.500000	-0.034613  
884.000000	0.010621   
884.500000	-0.010106  
885.000000	-0.049939  
885.500000	-0.050916  
886.000000	0.032060   
886.500000	0.041136   
887.000000	-0.004371  
887.500000	-0.100560  
888.000000	-0.149431  
888.500000	-0.212272  
889.000000	-0.227363  
889.500000	-0.207174  
890.000000	-0.157515  
890.500000	-0.096916  
891.000000	0.033537   
891.500000	0.177060   
892.000000	0.177901   
892.500000	0.066143   
893.000000	0.047704   
893.500000	0.124310   
894.000000	0.164954   
894.500000	0.118734   
895.000000	0.081893   
895.500000	0.099446   
896.000000	0.079901   
896.500000	-0.046598  
897.000000	-0.172984  
897.500000	-0.148492  

