PE FL                   SPECTRUM    ASCII       PEDS        1.60        
  -1
SAAB99~1.SP
24/04/12
16:46:14.00
24/04/12
16:46:14.00
Jan

897.500000
1









LS55
405.00
5.00
5.00
SCAN
1
20
100
100
0
400
0
1
0
1
5
ON
450 405 
1 0 0
#HDR
-1
-1
#GR
NM

0.00002384185791015625
0.0
450.000000
0.500000
896
8
244.580060
-1.078000
#DATA
450.000000	-1.078000  
450.500000	-0.163242  
451.000000	0.219833   
451.500000	0.204719   
452.000000	0.178227   
452.500000	0.187515   
453.000000	0.164409   
453.500000	0.226742   
454.000000	0.297613   
454.500000	0.309181   
455.000000	0.168454   
455.500000	-0.020666  
456.000000	-0.281204  
456.500000	-0.419159  
457.000000	-0.416568  
457.500000	-0.256666  
458.000000	-0.178113  
458.500000	-0.003659  
459.000000	0.189106   
459.500000	0.322166   
460.000000	0.192848   
460.500000	0.108681   
461.000000	0.105000   
461.500000	0.148840   
462.000000	-0.047325  
462.500000	-0.296689  
463.000000	-0.367136  
463.500000	-0.296795  
464.000000	-0.280757  
464.500000	-0.245833  
465.000000	-0.193893  
465.500000	-0.068924  
466.000000	-0.082484  
466.500000	-0.047090  
467.000000	-0.061924  
467.500000	-0.003090  
468.000000	-0.022522  
468.500000	0.056333   
469.000000	0.118053   
469.500000	0.134106   
470.000000	0.076469   
470.500000	0.032939   
471.000000	-0.002045  
471.500000	0.009674   
472.000000	0.129151   
472.500000	0.280128   
473.000000	0.250522   
473.500000	0.133045   
474.000000	-0.003143  
474.500000	0.122750   
475.000000	0.177621   
475.500000	0.048537   
476.000000	-0.121159  
476.500000	-0.091977  
477.000000	0.036083   
477.500000	0.101628   
478.000000	0.055886   
478.500000	-0.106500  
479.000000	-0.211681  
479.500000	-0.274242  
480.000000	0.021871   
480.500000	0.209227   
481.000000	0.183810   
481.500000	-0.066037  
482.000000	0.045765   
482.500000	0.259075   
483.000000	0.479113   
483.500000	0.364727   
484.000000	0.243666   
484.500000	0.230356   
485.000000	0.346909   
485.500000	0.414037   
486.000000	0.369750   
486.500000	0.182196   
487.000000	-0.014522  
487.500000	-0.109621  
488.000000	0.031234   
488.500000	0.122083   
489.000000	0.126416   
489.500000	-0.040242  
490.000000	-0.093643  
490.500000	-0.005613  
491.000000	0.183280   
491.500000	0.363424   
492.000000	0.388545   
492.500000	0.421954   
493.000000	0.383318   
493.500000	0.422280   
494.000000	0.349227   
494.500000	0.335636   
495.000000	0.280068   
495.500000	0.272356   
496.000000	0.312643   
496.500000	0.340159   
497.000000	0.299136   
497.500000	0.131575   
498.000000	0.066537   
498.500000	0.099818   
499.000000	0.209613   
499.500000	0.266462   
500.000000	0.346227   
500.500000	0.443356   
501.000000	0.416962   
501.500000	0.361287   
502.000000	0.311878   
502.500000	0.449780   
503.000000	0.564659   
503.500000	0.657242   
504.000000	0.572143   
504.500000	0.595151   
505.000000	0.612727   
505.500000	0.731053   
506.000000	0.724939   
506.500000	0.746651   
507.000000	0.796499   
507.500000	0.884704   
508.000000	0.884174   
508.500000	0.829643   
509.000000	0.877734   
509.500000	0.964939   
510.000000	1.132340   
510.500000	1.082659   
511.000000	0.922659   
511.500000	0.781007   
512.000000	0.959272   
512.500000	1.192946   
513.000000	1.422795   
513.500000	1.516318   
514.000000	1.529651   
514.500000	1.503053   
515.000000	1.458121   
515.500000	1.428106   
516.000000	1.441560   
516.500000	1.475287   
517.000000	1.658537   
517.500000	1.779575   
518.000000	1.869477   
518.500000	1.980106   
519.000000	2.117386   
519.500000	1.941916   
520.000000	1.838909   
520.500000	2.011606   
521.000000	2.395757   
521.500000	2.667325   
522.000000	2.709272   
522.500000	2.748704   
523.000000	2.762469   
523.500000	2.767090   
524.000000	2.711340   
524.500000	2.711840   
525.000000	2.683772   
525.500000	2.810727   
526.000000	2.995098   
526.500000	3.253590   
527.000000	3.399113   
527.500000	3.484174   
528.000000	3.506840   
528.500000	3.723659   
529.000000	4.009280   
529.500000	4.269681   
530.000000	4.412727   
530.500000	4.740325   
531.000000	5.220666   
531.500000	5.671121   
532.000000	5.883015   
532.500000	5.793045   
533.000000	5.873810   
533.500000	6.295712   
534.000000	6.832257   
534.500000	7.113303   
535.000000	7.244772   
535.500000	7.440136   
536.000000	7.700848   
536.500000	7.974946   
537.000000	8.145234   
537.500000	8.282583   
538.000000	8.365946   
538.500000	8.915219   
539.000000	9.684909   
539.500000	10.253333  
540.000000	10.316318  
540.500000	10.200946  
541.000000	10.341462  
541.500000	10.842803  
542.000000	11.386166  
542.500000	11.913742  
543.000000	12.019818  
543.500000	11.948780  
544.000000	11.528537  
544.500000	11.522227  
545.000000	11.722969  
545.500000	12.253856  
546.000000	12.135659  
546.500000	12.019189  
547.000000	11.822962  
547.500000	11.933287  
548.000000	11.743719  
548.500000	11.642575  
549.000000	11.523265  
549.500000	11.558977  
550.000000	11.467174  
550.500000	11.713151  
551.000000	12.042000  
551.500000	12.227825  
552.000000	11.954371  
552.500000	11.781416  
553.000000	11.956484  
553.500000	12.279628  
554.000000	12.393128  
554.500000	12.280416  
555.000000	12.120545  
555.500000	11.961227  
556.000000	11.828492  
556.500000	12.170469  
557.000000	12.792325  
557.500000	13.473507  
558.000000	13.822719  
558.500000	13.995984  
559.000000	14.066356  
559.500000	14.374075  
560.000000	14.772106  
560.500000	15.323848  
561.000000	15.735439  
561.500000	16.046287  
562.000000	16.200090  
562.500000	16.468030  
563.000000	17.022696  
563.500000	17.988227  
564.000000	18.875492  
564.500000	19.141606  
565.000000	19.076280  
565.500000	19.147325  
566.000000	19.674575  
566.500000	20.114340  
567.000000	20.413643  
567.500000	20.608272  
568.000000	21.056840  
568.500000	21.620492  
569.000000	22.234984  
569.500000	22.823469  
570.000000	23.619227  
570.500000	24.471151  
571.000000	25.120121  
571.500000	25.223409  
572.000000	25.054227  
572.500000	25.173803  
573.000000	25.827045  
573.500000	26.847590  
574.000000	27.346030  
574.500000	27.697840  
575.000000	28.026954  
575.500000	28.843378  
576.000000	29.524984  
576.500000	29.511568  
577.000000	29.081250  
577.500000	29.339053  
578.000000	30.306393  
578.500000	31.153568  
579.000000	31.675174  
579.500000	32.130378  
580.000000	32.783060  
580.500000	33.531522  
581.000000	34.264878  
581.500000	35.176090  
582.000000	35.998068  
582.500000	36.601037  
583.000000	37.115060  
583.500000	37.592992  
584.000000	37.972060  
584.500000	38.416734  
585.000000	39.164636  
585.500000	40.115393  
586.000000	41.406196  
586.500000	42.172583  
587.000000	42.723136  
587.500000	43.042280  
588.000000	43.686325  
588.500000	44.162848  
589.000000	45.747628  
589.500000	47.904083  
590.000000	49.952727  
590.500000	50.370787  
591.000000	50.374750  
591.500000	50.627757  
592.000000	51.448454  
592.500000	52.442856  
593.000000	53.951356  
593.500000	55.456931  
594.000000	56.320257  
594.500000	57.040386  
595.000000	58.415613  
595.500000	60.064848  
596.000000	61.281053  
596.500000	61.864007  
597.000000	61.994772  
597.500000	61.845772  
598.000000	62.322363  
598.500000	63.531386  
599.000000	65.221303  
599.500000	67.508431  
600.000000	70.446128  
600.500000	72.707606  
601.000000	73.057659  
601.500000	72.240712  
602.000000	72.691984  
602.500000	75.148272  
603.000000	78.255166  
603.500000	80.658136  
604.000000	81.831765  
604.500000	81.951583  
605.000000	82.115734  
605.500000	83.242348  
606.000000	84.072954  
606.500000	85.428325  
607.000000	87.628204  
607.500000	91.399037  
608.000000	93.937022  
608.500000	95.221454  
609.000000	95.930916  
609.500000	98.286393  
610.000000	100.431772 
610.500000	102.781280 
611.000000	104.392810 
611.500000	106.125515 
612.000000	107.288068 
612.500000	108.630674 
613.000000	109.645901 
613.500000	111.366181 
614.000000	113.909318 
614.500000	115.820037 
615.000000	116.989371 
615.500000	117.962750 
616.000000	120.820151 
616.500000	123.179060 
617.000000	124.919901 
617.500000	126.676492 
618.000000	130.220780 
618.500000	134.524462 
619.000000	138.561212 
619.500000	141.134590 
620.000000	142.444340 
620.500000	143.710810 
621.000000	146.096212 
621.500000	148.830295 
622.000000	150.239969 
622.500000	150.458386 
623.000000	152.276893 
623.500000	156.331174 
624.000000	160.891030 
624.500000	164.045560 
625.000000	164.577098 
625.500000	164.421000 
626.000000	165.159439 
626.500000	168.563560 
627.000000	172.946931 
627.500000	176.975378 
628.000000	178.122939 
628.500000	178.973075 
629.000000	180.936863 
629.500000	184.945825 
630.000000	188.937424 
630.500000	191.666901 
631.000000	193.738674 
631.500000	196.128681 
632.000000	199.527651 
632.500000	202.453977 
633.000000	205.327954 
633.500000	206.239515 
634.000000	206.777272 
634.500000	207.694719 
635.000000	210.376825 
635.500000	213.769431 
636.000000	216.288750 
636.500000	218.479984 
637.000000	220.244613 
637.500000	222.391689 
638.000000	224.439946 
638.500000	226.134962 
639.000000	226.695810 
639.500000	226.347909 
640.000000	227.768848 
640.500000	229.862234 
641.000000	232.837356 
641.500000	234.535621 
642.000000	237.011348 
642.500000	238.587613 
643.000000	239.359742 
643.500000	238.524833 
644.000000	238.344787 
644.500000	238.905227 
645.000000	240.089401 
645.500000	241.065401 
646.000000	242.202924 
646.500000	243.060015 
647.000000	243.513250 
647.500000	243.382977 
648.000000	243.845568 
648.500000	244.580060 
649.000000	243.865590 
649.500000	242.960871 
650.000000	242.335196 
650.500000	241.905022 
651.000000	239.803295 
651.500000	238.998750 
652.000000	240.584234 
652.500000	242.339075 
653.000000	241.478810 
653.500000	240.017325 
654.000000	239.769196 
654.500000	238.844575 
655.000000	236.216212 
655.500000	233.688750 
656.000000	232.654083 
656.500000	230.536431 
657.000000	227.283431 
657.500000	225.001962 
658.000000	224.688022 
658.500000	224.061984 
659.000000	221.865507 
659.500000	219.163242 
660.000000	216.671121 
660.500000	214.404348 
661.000000	212.156060 
661.500000	209.756333 
662.000000	206.698946 
662.500000	202.151174 
663.000000	197.343386 
663.500000	193.428871 
664.000000	191.382204 
664.500000	189.455075 
665.000000	187.480537 
665.500000	184.344196 
666.000000	180.621446 
666.500000	176.813356 
667.000000	173.819386 
667.500000	171.378000 
668.000000	168.613689 
668.500000	165.663689 
669.000000	162.743007 
669.500000	159.901886 
670.000000	154.705545 
670.500000	148.866787 
671.000000	143.183545 
671.500000	140.080295 
672.000000	136.826469 
672.500000	132.976356 
673.000000	127.858977 
673.500000	124.905598 
674.000000	123.402242 
674.500000	121.401931 
675.000000	117.463181 
675.500000	113.282992 
676.000000	110.023053 
676.500000	106.976757 
677.000000	103.498318 
677.500000	100.636840 
678.000000	98.312159  
678.500000	95.911121  
679.000000	92.759636  
679.500000	89.929924  
680.000000	87.163007  
680.500000	85.209053  
681.000000	83.001386  
681.500000	80.806083  
682.000000	77.872674  
682.500000	75.734181  
683.000000	74.027280  
683.500000	72.076863  
684.000000	69.232174  
684.500000	66.411780  
685.000000	64.339318  
685.500000	62.391340  
686.000000	60.167727  
686.500000	58.488704  
687.000000	57.027575  
687.500000	55.612227  
688.000000	53.602469  
688.500000	52.168340  
689.000000	51.332666  
689.500000	50.632628  
690.000000	48.987787  
690.500000	46.887530  
691.000000	44.976742  
691.500000	43.200818  
692.000000	41.602712  
692.500000	40.108537  
693.000000	38.727712  
693.500000	37.610583  
694.000000	36.462106  
694.500000	35.456371  
695.000000	34.438878  
695.500000	33.673696  
696.000000	32.868992  
696.500000	31.723871  
697.000000	30.503143  
697.500000	30.011295  
698.000000	30.105848  
698.500000	29.724189  
699.000000	28.557772  
699.500000	27.330803  
700.000000	26.315325  
700.500000	25.803901  
701.000000	25.165196  
701.500000	24.386310  
702.000000	23.292856  
702.500000	22.424537  
703.000000	21.873303  
703.500000	21.564863  
704.000000	21.475727  
704.500000	20.896409  
705.000000	20.098219  
705.500000	19.128212  
706.000000	18.890977  
706.500000	18.396833  
707.000000	17.761098  
707.500000	16.859007  
708.000000	16.554325  
708.500000	16.345189  
709.000000	16.225272  
709.500000	16.127765  
710.000000	15.939598  
710.500000	15.426098  
711.000000	14.704356  
711.500000	14.340931  
712.000000	14.393628  
712.500000	14.648818  
713.000000	14.586931  
713.500000	14.185189  
714.000000	13.688060  
714.500000	13.028681  
715.000000	12.390000  
715.500000	12.029416  
716.000000	12.124803  
716.500000	12.009333  
717.000000	11.586643  
717.500000	11.205181  
718.000000	11.168143  
718.500000	11.138393  
719.000000	10.767969  
719.500000	10.416803  
720.000000	10.272492  
720.500000	10.305196  
721.000000	10.400810  
721.500000	10.455303  
722.000000	10.081416  
722.500000	9.430053   
723.000000	8.915431   
723.500000	8.733537   
724.000000	8.488257   
724.500000	8.019545   
725.000000	7.718954   
725.500000	7.904030   
726.000000	8.093015   
726.500000	8.119568   
727.000000	8.049780   
727.500000	8.011553   
728.000000	7.885113   
728.500000	7.781681   
729.000000	7.662143   
729.500000	7.521583   
730.000000	7.273015   
730.500000	7.015659   
731.000000	6.975007   
731.500000	7.033015   
732.000000	7.108742   
732.500000	6.856401   
733.000000	6.602939   
733.500000	6.658727   
734.000000	7.026068   
734.500000	7.071962   
735.000000	6.617272   
735.500000	6.058227   
736.000000	5.866757   
736.500000	5.985878   
737.000000	6.270378   
737.500000	6.459022   
738.000000	6.388257   
738.500000	6.062159   
739.000000	5.775674   
739.500000	5.651757   
740.000000	5.845053   
740.500000	6.033257   
741.000000	6.104181   
741.500000	5.805325   
742.000000	5.442280   
742.500000	5.043886   
743.000000	5.094045   
743.500000	5.278333   
744.000000	5.418015   
744.500000	5.191560   
745.000000	5.038954   
745.500000	5.117840   
746.000000	5.274424   
746.500000	5.253969   
747.000000	5.040984   
747.500000	4.721681   
748.000000	4.598280   
748.500000	4.697939   
749.000000	4.808954   
749.500000	4.528871   
750.000000	4.348416   
750.500000	4.342613   
751.000000	4.369727   
751.500000	3.994287   
752.000000	3.685909   
752.500000	3.732734   
753.000000	3.983166   
753.500000	4.043295   
754.000000	3.931037   
754.500000	3.848037   
755.000000	3.926833   
755.500000	4.136204   
756.000000	4.151765   
756.500000	3.987636   
757.000000	3.732348   
757.500000	3.633287   
758.000000	3.682295   
758.500000	3.789810   
759.000000	3.769287   
759.500000	3.627227   
760.000000	3.410068   
760.500000	3.278719   
761.000000	3.293462   
761.500000	3.469666   
762.000000	3.653734   
762.500000	3.738704   
763.000000	3.561227   
763.500000	3.347742   
764.000000	3.174856   
764.500000	3.144424   
765.000000	3.272500   
765.500000	3.465856   
766.000000	3.602272   
766.500000	3.540568   
767.000000	3.462704   
767.500000	3.495098   
768.000000	3.643424   
768.500000	3.776060   
769.000000	3.698977   
769.500000	3.507606   
770.000000	3.282992   
770.500000	3.325424   
771.000000	3.398803   
771.500000	3.407030   
772.000000	3.312825   
772.500000	3.305136   
773.000000	3.283787   
773.500000	3.196295   
774.000000	3.048431   
774.500000	3.021507   
775.000000	3.064886   
775.500000	3.065242   
776.000000	3.080704   
776.500000	2.968083   
777.000000	2.892113   
777.500000	2.854613   
778.000000	2.922159   
778.500000	2.904878   
779.000000	2.950530   
779.500000	3.078621   
780.000000	3.275666   
780.500000	3.254492   
781.000000	2.996166   
781.500000	2.806545   
782.000000	2.813666   
782.500000	2.933174   
783.000000	3.055318   
783.500000	3.073757   
784.000000	3.037318   
784.500000	3.008128   
785.000000	2.977295   
785.500000	2.901871   
786.000000	2.796189   
786.500000	2.645234   
787.000000	2.436590   
787.500000	2.282901   
788.000000	2.322719   
788.500000	2.565840   
789.000000	2.767621   
789.500000	2.854575   
790.000000	2.836053   
790.500000	2.817924   
791.000000	2.663045   
791.500000	2.556727   
792.000000	2.541500   
792.500000	2.632181   
793.000000	2.593416   
793.500000	2.502636   
794.000000	2.502840   
794.500000	2.697492   
795.000000	2.766159   
795.500000	2.669121   
796.000000	2.404113   
796.500000	2.393712   
797.000000	2.415446   
797.500000	2.485939   
798.000000	2.359204   
798.500000	2.295128   
799.000000	2.160575   
799.500000	2.050553   
800.000000	1.958159   
800.500000	1.990090   
801.000000	2.047780   
801.500000	2.063166   
802.000000	2.175840   
802.500000	2.363772   
803.000000	2.472090   
803.500000	2.339083   
804.000000	2.170651   
804.500000	1.919401   
805.000000	1.784931   
805.500000	1.788446   
806.000000	2.085143   
806.500000	2.162704   
807.000000	2.052954   
807.500000	1.864583   
808.000000	1.945848   
808.500000	1.944310   
809.000000	1.799954   
809.500000	1.626212   
810.000000	1.539371   
810.500000	1.476568   
811.000000	1.358848   
811.500000	1.401969   
812.000000	1.447439   
812.500000	1.700204   
813.000000	1.855606   
813.500000	2.000681   
814.000000	1.717113   
814.500000	1.430393   
815.000000	1.323378   
815.500000	1.570863   
816.000000	1.767537   
816.500000	1.745143   
817.000000	1.713030   
817.500000	1.755590   
818.000000	1.846075   
818.500000	1.705545   
819.000000	1.592371   
819.500000	1.526643   
820.000000	1.634575   
820.500000	1.620742   
821.000000	1.668439   
821.500000	1.701159   
822.000000	1.944545   
822.500000	2.108696   
823.000000	2.349893   
823.500000	2.355439   
824.000000	2.432159   
824.500000	2.327734   
825.000000	2.266265   
825.500000	2.052522   
826.000000	1.886083   
826.500000	1.716757   
827.000000	1.765151   
827.500000	1.907227   
828.000000	2.069803   
828.500000	2.018689   
829.000000	1.891681   
829.500000	1.758962   
830.000000	1.792954   
830.500000	1.739583   
831.000000	1.644439   
831.500000	1.438696   
832.000000	1.330886   
832.500000	1.154166   
833.000000	1.073681   
833.500000	1.079575   
834.000000	1.191545   
834.500000	1.145696   
835.000000	0.951856   
835.500000	0.782674   
836.000000	0.796666   
836.500000	0.892189   
837.000000	0.915727   
837.500000	0.894560   
838.000000	0.827310   
838.500000	0.901674   
839.000000	0.977992   
839.500000	1.009325   
840.000000	0.874545   
840.500000	0.795431   
841.000000	0.734780   
841.500000	0.787174   
842.000000	0.704128   
842.500000	0.630765   
843.000000	0.513166   
843.500000	0.487507   
844.000000	0.368128   
844.500000	0.247022   
845.000000	0.131992   
845.500000	0.255416   
846.000000	0.322537   
846.500000	0.263507   
847.000000	0.097704   
847.500000	0.160424   
848.000000	0.315022   
848.500000	0.487916   
849.000000	0.426022   
849.500000	0.420492   
850.000000	0.375204   
850.500000	0.374151   
851.000000	0.321204   
851.500000	0.299553   
852.000000	0.322825   
852.500000	0.366946   
853.000000	0.353810   
853.500000	0.194045   
854.000000	0.058446   
854.500000	-0.013037  
855.000000	0.001234   
855.500000	-0.031795  
856.000000	-0.030787  
856.500000	0.044310   
857.000000	0.104795   
857.500000	0.059810   
858.000000	-0.028750  
858.500000	-0.048727  
859.000000	0.008537   
859.500000	0.015098   
860.000000	-0.028439  
860.500000	-0.081037  
861.000000	-0.043159  
861.500000	0.021909   
862.000000	0.045787   
862.500000	0.136583   
863.000000	0.257590   
863.500000	0.277727   
864.000000	0.108613   
864.500000	-0.053462  
865.000000	-0.080825  
865.500000	0.010492   
866.000000	-0.020393  
866.500000	-0.025545  
867.000000	0.045151   
867.500000	0.179893   
868.000000	0.168484   
868.500000	0.122765   
869.000000	0.074893   
869.500000	0.115356   
870.000000	0.036750   
870.500000	-0.119250  
871.000000	-0.169424  
871.500000	-0.067439  
872.000000	0.066803   
872.500000	0.080492   
873.000000	0.028098   
873.500000	-0.007689  
874.000000	0.026674   
874.500000	0.091643   
875.000000	0.035492   
875.500000	-0.131893  
876.000000	-0.257507  
876.500000	-0.193098  
877.000000	-0.164303  
877.500000	-0.214962  
878.000000	-0.192409  
878.500000	-0.041424  
879.000000	0.045477   
879.500000	-0.020113  
880.000000	-0.048530  
880.500000	-0.020560  
881.000000	0.035674   
881.500000	0.058083   
882.000000	0.162393   
882.500000	0.137280   
883.000000	0.038439   
883.500000	-0.047530  
884.000000	-0.006681  
884.500000	-0.001772  
885.000000	-0.014750  
885.500000	-0.058651  
886.000000	-0.031007  
886.500000	-0.128310  
887.000000	-0.225090  
887.500000	-0.273393  
888.000000	-0.119401  
888.500000	-0.041333  
889.000000	-0.001333  
889.500000	-0.031022  
890.000000	-0.046856  
890.500000	-0.100166  
891.000000	-0.153053  
891.500000	-0.106545  
892.000000	0.000356   
892.500000	0.141689   
893.000000	0.185689   
893.500000	0.165946   
894.000000	0.088477   
894.500000	-0.019272  
895.000000	-0.098030  
895.500000	-0.121689  
896.000000	-0.052280  
896.500000	0.022121   
897.000000	0.040621   
897.500000	-0.014098  

