PE FL                   SPECTRUM    ASCII       PEDS        1.60        
  -1
SA9BB9~1.SP
24/04/12
15:54:53.00
24/04/12
15:54:53.00
Jan

897.500000
1









LS55
405.00
5.00
5.00
SCAN
1
20
100
100
0
400
0
1
0
1
5
ON
450 405 
1 0 0
#HDR
-1
-1
#GR
NM

0.00002384185791015625
0.0
450.000000
0.500000
896
8
360.577719
-0.386931
#DATA
450.000000	0.669999   
450.500000	0.226863   
451.000000	0.038742   
451.500000	0.102303   
452.000000	0.211416   
452.500000	0.327962   
453.000000	0.388439   
453.500000	0.331113   
454.000000	0.155840   
454.500000	0.044484   
455.000000	0.003719   
455.500000	0.033893   
456.000000	0.082340   
456.500000	0.285856   
457.000000	0.429568   
457.500000	0.478613   
458.000000	0.286909   
458.500000	0.183393   
459.000000	0.071022   
459.500000	0.095037   
460.000000	0.100795   
460.500000	0.197795   
461.000000	0.132757   
461.500000	0.049356   
462.000000	-0.042583  
462.500000	-0.049946  
463.000000	-0.058712  
463.500000	-0.043363  
464.000000	0.012189   
464.500000	-0.154871  
465.000000	-0.306590  
465.500000	-0.320545  
466.000000	0.015356   
466.500000	0.295583   
467.000000	0.445810   
467.500000	0.307083   
468.000000	0.195022   
468.500000	0.165234   
469.000000	0.191568   
469.500000	0.143295   
470.000000	0.106272   
470.500000	0.186924   
471.000000	0.277037   
471.500000	0.199507   
472.000000	0.175242   
472.500000	0.144621   
473.000000	0.044022   
473.500000	-0.207727  
474.000000	-0.176477  
474.500000	-0.023333  
475.000000	0.140954   
475.500000	0.084439   
476.000000	0.105666   
476.500000	0.163522   
477.000000	0.250318   
477.500000	0.189613   
478.000000	0.148257   
478.500000	0.263553   
479.000000	0.408848   
479.500000	0.396583   
480.000000	0.242719   
480.500000	0.083484   
481.000000	-0.034507  
481.500000	-0.109689  
482.000000	-0.087909  
482.500000	0.043454   
483.000000	0.134181   
483.500000	0.104098   
484.000000	0.005159   
484.500000	-0.003795  
485.000000	0.168871   
485.500000	0.409022   
486.000000	0.552037   
486.500000	0.415530   
487.000000	0.167310   
487.500000	0.010598   
488.000000	0.095159   
488.500000	0.337954   
489.000000	0.565272   
489.500000	0.570606   
490.000000	0.370257   
490.500000	0.210462   
491.000000	0.132356   
491.500000	0.134242   
492.000000	0.096045   
492.500000	0.162287   
493.000000	0.332696   
493.500000	0.419151   
494.000000	0.345477   
494.500000	0.204924   
495.000000	0.087560   
495.500000	-0.016477  
496.000000	-0.082030  
496.500000	-0.033969  
497.000000	0.149333   
497.500000	0.297469   
498.000000	0.347772   
498.500000	0.341916   
499.000000	0.346818   
499.500000	0.371757   
500.000000	0.521545   
500.500000	0.636636   
501.000000	0.621151   
501.500000	0.409780   
502.000000	0.293590   
502.500000	0.392962   
503.000000	0.521393   
503.500000	0.497386   
504.000000	0.420128   
504.500000	0.466060   
505.000000	0.609106   
505.500000	0.733075   
506.000000	0.804530   
506.500000	0.799757   
507.000000	0.780568   
507.500000	0.762727   
508.000000	0.904636   
508.500000	1.009651   
509.000000	1.109803   
509.500000	1.107446   
510.000000	1.210068   
510.500000	1.232666   
511.000000	1.167931   
511.500000	1.005545   
512.000000	0.932045   
512.500000	0.998386   
513.000000	1.104113   
513.500000	1.190553   
514.000000	1.185272   
514.500000	1.136212   
515.000000	1.163136   
515.500000	1.255984   
516.000000	1.526060   
516.500000	1.719128   
517.000000	1.848840   
517.500000	1.757363   
518.000000	1.899090   
518.500000	2.034795   
519.000000	2.154545   
519.500000	2.080318   
520.000000	2.086666   
520.500000	2.129689   
521.000000	2.162181   
521.500000	2.175310   
522.000000	2.167886   
522.500000	2.205181   
523.000000	2.355765   
523.500000	2.578954   
524.000000	2.629886   
524.500000	2.609704   
525.000000	2.716553   
525.500000	2.988992   
526.000000	3.083530   
526.500000	3.092128   
527.000000	3.145643   
527.500000	3.252030   
528.000000	3.309613   
528.500000	3.437886   
529.000000	3.654060   
529.500000	3.913583   
530.000000	4.175856   
530.500000	4.375113   
531.000000	4.622886   
531.500000	4.812818   
532.000000	4.898015   
532.500000	4.924113   
533.000000	5.105401   
533.500000	5.569651   
534.000000	6.172287   
534.500000	6.577515   
535.000000	6.724287   
535.500000	6.958030   
536.000000	7.353303   
536.500000	7.666106   
537.000000	7.624734   
537.500000	7.535681   
538.000000	7.579136   
538.500000	8.146507   
539.000000	8.789765   
539.500000	9.508651   
540.000000	9.705227   
540.500000	9.955984   
541.000000	10.193689  
541.500000	10.851643  
542.000000	11.043189  
542.500000	11.401121  
543.000000	11.603984  
543.500000	11.975196  
544.000000	11.838484  
544.500000	11.728818  
545.000000	11.475795  
545.500000	11.544090  
546.000000	11.656636  
546.500000	11.997060  
547.000000	12.048098  
547.500000	11.897886  
548.000000	11.789727  
548.500000	11.974196  
549.000000	12.137098  
549.500000	12.292303  
550.000000	12.380840  
550.500000	12.434371  
551.000000	12.158848  
551.500000	11.993409  
552.000000	12.199363  
552.500000	12.510257  
553.000000	12.445500  
553.500000	12.395416  
554.000000	12.523924  
554.500000	12.676159  
555.000000	12.689651  
555.500000	12.794325  
556.000000	12.955022  
556.500000	13.371401  
557.000000	13.970401  
557.500000	14.740537  
558.000000	14.777545  
558.500000	14.521439  
559.000000	14.435787  
559.500000	14.781242  
560.000000	15.065825  
560.500000	15.237007  
561.000000	15.452295  
561.500000	15.681431  
562.000000	16.048303  
562.500000	16.624522  
563.000000	17.328787  
563.500000	17.848537  
564.000000	18.046984  
564.500000	18.283613  
565.000000	18.578530  
565.500000	19.118000  
566.000000	19.706234  
566.500000	20.426212  
567.000000	21.225037  
567.500000	22.120651  
568.000000	22.805780  
568.500000	23.078068  
569.000000	23.282477  
569.500000	23.639848  
570.000000	24.402234  
570.500000	25.107946  
571.000000	25.722356  
571.500000	25.879318  
572.000000	25.788333  
572.500000	26.078098  
573.000000	27.407871  
573.500000	29.211734  
574.000000	30.381083  
574.500000	30.790530  
575.000000	31.038583  
575.500000	31.471446  
576.000000	31.939810  
576.500000	32.653196  
577.000000	33.698727  
577.500000	34.337772  
578.000000	34.063931  
578.500000	33.590719  
579.000000	33.642878  
579.500000	34.476462  
580.000000	35.268174  
580.500000	36.108348  
581.000000	36.523143  
581.500000	37.088507  
582.000000	37.681719  
582.500000	38.755734  
583.000000	39.903606  
583.500000	40.967893  
584.000000	41.609053  
584.500000	42.001962  
585.000000	42.459621  
585.500000	43.273575  
586.000000	44.259136  
586.500000	45.061121  
587.000000	45.737409  
587.500000	46.425265  
588.000000	47.069000  
588.500000	48.221446  
589.000000	49.827303  
589.500000	51.530734  
590.000000	52.477833  
590.500000	52.900075  
591.000000	53.468696  
591.500000	54.776590  
592.000000	56.592674  
592.500000	57.749999  
593.000000	58.586643  
593.500000	59.674265  
594.000000	62.086856  
594.500000	63.857037  
595.000000	65.212856  
595.500000	66.383212  
596.000000	68.135613  
596.500000	69.732068  
597.000000	70.626734  
597.500000	71.220227  
598.000000	71.298651  
598.500000	71.867969  
599.000000	73.164613  
599.500000	75.922045  
600.000000	77.995750  
600.500000	79.591575  
601.000000	81.044590  
601.500000	83.372651  
602.000000	85.293765  
602.500000	86.290863  
603.000000	86.876704  
603.500000	88.448666  
604.000000	91.077886  
604.500000	92.429909  
605.000000	93.516045  
605.500000	94.790356  
606.000000	98.097765  
606.500000	100.743431 
607.000000	102.827356 
607.500000	103.962901 
608.000000	105.990515 
608.500000	107.305287 
609.000000	108.563356 
609.500000	110.984439 
610.000000	114.394401 
610.500000	117.768871 
611.000000	120.017568 
611.500000	122.043143 
612.000000	123.867833 
612.500000	125.747416 
613.000000	127.627803 
613.500000	130.742196 
614.000000	134.925704 
614.500000	139.249515 
615.000000	141.643128 
615.500000	142.353446 
616.000000	143.915143 
616.500000	147.085560 
617.000000	150.279954 
617.500000	151.846772 
618.000000	153.589250 
618.500000	156.212257 
619.000000	160.148992 
619.500000	163.733659 
620.000000	167.024416 
620.500000	168.714878 
621.000000	171.103090 
621.500000	175.409628 
622.000000	181.644151 
622.500000	185.743204 
623.000000	188.046772 
623.500000	189.481984 
624.000000	193.346924 
624.500000	197.180537 
625.000000	201.256590 
625.500000	204.140636 
626.000000	207.256333 
626.500000	210.840477 
627.000000	216.305174 
627.500000	222.168340 
628.000000	226.245325 
628.500000	228.294818 
629.000000	230.301303 
629.500000	234.615696 
630.000000	239.607007 
630.500000	244.163363 
631.000000	246.804318 
631.500000	249.195212 
632.000000	251.974053 
632.500000	257.782227 
633.000000	263.525712 
633.500000	268.392772 
634.000000	269.860931 
634.500000	272.367780 
635.000000	275.654840 
635.500000	280.224537 
636.000000	282.437939 
636.500000	286.546045 
637.000000	292.042583 
637.500000	298.134719 
638.000000	300.085750 
638.500000	302.238750 
639.000000	305.656795 
639.500000	310.285734 
640.000000	311.973560 
640.500000	313.947878 
641.000000	316.682674 
641.500000	320.901280 
642.000000	325.251659 
642.500000	329.451045 
643.000000	332.551151 
643.500000	334.189568 
644.000000	336.543515 
644.500000	339.453583 
645.000000	341.856469 
645.500000	342.029204 
646.000000	342.922969 
646.500000	343.427386 
647.000000	344.293780 
647.500000	343.750681 
648.000000	345.235136 
648.500000	348.429318 
649.000000	352.613393 
649.500000	354.116704 
650.000000	355.183234 
650.500000	356.086325 
651.000000	358.221553 
651.500000	358.680227 
652.000000	359.086825 
652.500000	359.385946 
653.000000	360.577719 
653.500000	360.055053 
654.000000	359.725750 
654.500000	358.612454 
655.000000	358.041393 
655.500000	355.939227 
656.000000	353.053416 
656.500000	349.860628 
657.000000	348.681083 
657.500000	349.336749 
658.000000	349.898174 
658.500000	348.530999 
659.000000	345.584765 
659.500000	343.666818 
660.000000	342.363143 
660.500000	340.263560 
661.000000	335.944962 
661.500000	333.005818 
662.000000	333.090310 
662.500000	333.850250 
663.000000	331.580537 
663.500000	326.436401 
664.000000	321.755204 
664.500000	320.125977 
665.000000	319.000787 
665.500000	316.132303 
666.000000	310.592606 
666.500000	305.620015 
667.000000	301.507909 
667.500000	298.190742 
668.000000	293.422590 
668.500000	289.238212 
669.000000	285.278954 
669.500000	280.749075 
670.000000	274.467871 
670.500000	267.516886 
671.000000	262.053780 
671.500000	258.354000 
672.000000	254.745022 
672.500000	249.989242 
673.000000	244.895121 
673.500000	240.862833 
674.000000	237.242219 
674.500000	232.668174 
675.000000	227.234439 
675.500000	221.466106 
676.000000	214.623121 
676.500000	207.865575 
677.000000	202.744075 
677.500000	199.696174 
678.000000	195.949227 
678.500000	189.909765 
679.000000	183.627393 
679.500000	178.593325 
680.000000	174.881219 
680.500000	169.985128 
681.000000	165.158439 
681.500000	160.367492 
682.000000	155.938121 
682.500000	151.564878 
683.000000	147.310757 
683.500000	143.441810 
684.000000	138.998007 
684.500000	134.881621 
685.000000	130.061545 
685.500000	126.257484 
686.000000	123.107666 
686.500000	121.024439 
687.000000	117.902416 
687.500000	113.005924 
688.000000	107.737196 
688.500000	103.991378 
689.000000	102.097946 
689.500000	100.336174 
690.000000	97.859151  
690.500000	95.130590  
691.000000	92.290689  
691.500000	89.623083  
692.000000	86.007098  
692.500000	83.061515  
693.000000	79.947719  
693.500000	77.642575  
694.000000	75.059416  
694.500000	73.824053  
695.000000	72.206606  
695.500000	70.138454  
696.000000	67.479893  
696.500000	64.408128  
697.000000	61.567507  
697.500000	59.017818  
698.000000	57.375340  
698.500000	56.478462  
699.000000	56.114704  
699.500000	55.514212  
700.000000	54.264204  
700.500000	52.427515  
701.000000	50.022568  
701.500000	47.554416  
702.000000	45.784136  
702.500000	44.665962  
703.000000	43.891409  
703.500000	42.289568  
704.000000	40.583863  
704.500000	39.308356  
705.000000	38.993469  
705.500000	38.786666  
706.000000	38.173590  
706.500000	36.615083  
707.000000	34.593113  
707.500000	32.822810  
708.000000	31.914037  
708.500000	31.712507  
709.000000	31.656348  
709.500000	30.988325  
710.000000	29.891045  
710.500000	28.987363  
711.000000	28.383765  
711.500000	28.060371  
712.000000	27.677250  
712.500000	27.551022  
713.000000	26.608795  
713.500000	25.228742  
714.000000	23.819598  
714.500000	23.379871  
715.000000	23.145795  
715.500000	22.817128  
716.000000	21.974492  
716.500000	21.515598  
717.000000	21.180848  
717.500000	20.983575  
718.000000	20.659636  
718.500000	20.001151  
719.000000	18.999136  
719.500000	18.244984  
720.000000	17.887863  
720.500000	18.260340  
721.000000	18.324977  
721.500000	18.088007  
722.000000	17.097386  
722.500000	16.290045  
723.000000	15.598537  
723.500000	15.640560  
724.000000	15.614090  
724.500000	15.646083  
725.000000	15.432196  
725.500000	14.963825  
726.000000	14.334886  
726.500000	13.707272  
727.000000	13.352727  
727.500000	13.346553  
728.000000	13.500265  
728.500000	13.651530  
729.000000	13.476242  
729.500000	12.986734  
730.000000	12.288931  
730.500000	11.640818  
731.000000	11.055962  
731.500000	10.736287  
732.000000	10.598946  
732.500000	10.701643  
733.000000	10.921522  
733.500000	11.009136  
734.000000	10.473803  
734.500000	9.648151   
735.000000	9.147954   
735.500000	9.405848   
736.000000	9.696015   
736.500000	9.436969   
737.000000	8.799106   
737.500000	8.521946   
738.000000	8.581507   
738.500000	8.669416   
739.000000	8.559833   
739.500000	8.418181   
740.000000	8.413363   
740.500000	8.036522   
741.000000	7.518856   
741.500000	7.190583   
742.000000	7.504204   
742.500000	7.574477   
743.000000	7.307075   
743.500000	6.781015   
744.000000	6.785689   
744.500000	7.091924   
745.000000	7.295424   
745.500000	7.112265   
746.000000	6.885772   
746.500000	6.845818   
747.000000	6.935060   
747.500000	6.841712   
748.000000	6.786780   
748.500000	6.756265   
749.000000	6.835386   
749.500000	6.464181   
750.000000	5.999530   
750.500000	5.848696   
751.000000	6.233750   
751.500000	6.612659   
752.000000	6.658545   
752.500000	6.294348   
753.000000	5.839696   
753.500000	5.581212   
754.000000	5.483810   
754.500000	5.349825   
755.000000	5.076386   
755.500000	4.767113   
756.000000	4.951371   
756.500000	5.190492   
757.000000	5.307045   
757.500000	5.134507   
758.000000	5.139265   
758.500000	5.036159   
759.000000	4.969159   
759.500000	4.696575   
760.000000	4.584977   
760.500000	4.338590   
761.000000	4.101068   
761.500000	3.972575   
762.000000	3.975378   
762.500000	4.211681   
763.000000	4.603257   
763.500000	4.931280   
764.000000	4.896462   
764.500000	4.530575   
765.000000	4.155734   
765.500000	4.055962   
766.000000	4.232628   
766.500000	4.333575   
767.000000	4.325409   
767.500000	3.981833   
768.000000	3.652613   
768.500000	3.368780   
769.000000	3.288007   
769.500000	3.458401   
770.000000	3.714439   
770.500000	3.782318   
771.000000	3.685409   
771.500000	3.636734   
772.000000	3.704651   
772.500000	3.732954   
773.000000	3.594477   
773.500000	3.417348   
774.000000	3.303977   
774.500000	3.309962   
775.000000	3.356371   
775.500000	3.346250   
776.000000	3.152303   
776.500000	3.075045   
777.000000	3.221166   
777.500000	3.550166   
778.000000	3.722840   
778.500000	3.704659   
779.000000	3.557257   
779.500000	3.342537   
780.000000	3.148537   
780.500000	3.071787   
781.000000	3.149257   
781.500000	3.227780   
782.000000	3.350545   
782.500000	3.248030   
783.000000	3.048757   
783.500000	2.849719   
784.000000	2.940825   
784.500000	3.063318   
785.000000	3.101863   
785.500000	3.085962   
786.000000	3.113151   
786.500000	3.148863   
787.000000	3.093159   
787.500000	3.110068   
788.000000	3.021856   
788.500000	3.115265   
789.000000	3.214030   
789.500000	3.320931   
790.000000	3.179462   
790.500000	2.982901   
791.000000	2.795030   
791.500000	2.659916   
792.000000	2.612984   
792.500000	2.654295   
793.000000	2.782340   
793.500000	2.703522   
794.000000	2.604257   
794.500000	2.464234   
795.000000	2.522098   
795.500000	2.638318   
796.000000	2.864886   
796.500000	2.741477   
797.000000	2.411674   
797.500000	2.077969   
798.000000	2.145439   
798.500000	2.437469   
799.000000	2.641287   
799.500000	2.554348   
800.000000	2.453674   
800.500000	2.461984   
801.000000	2.488439   
801.500000	2.356530   
802.000000	2.128151   
802.500000	2.020742   
803.000000	2.067492   
803.500000	2.225212   
804.000000	2.509643   
804.500000	2.668651   
805.000000	2.553416   
805.500000	2.234765   
806.000000	2.061598   
806.500000	2.108840   
807.000000	2.142689   
807.500000	2.115030   
808.000000	2.193151   
808.500000	2.423204   
809.000000	2.353174   
809.500000	2.070613   
810.000000	1.716022   
810.500000	1.821810   
811.000000	1.965818   
811.500000	1.998795   
812.000000	1.810545   
812.500000	1.664734   
813.000000	1.532750   
813.500000	1.472386   
814.000000	1.568439   
814.500000	1.870348   
815.000000	2.145416   
815.500000	2.171265   
816.000000	1.845242   
816.500000	1.479962   
817.000000	1.215386   
817.500000	1.122818   
818.000000	1.054507   
818.500000	1.232454   
819.000000	1.478704   
819.500000	1.672295   
820.000000	1.572795   
820.500000	1.573712   
821.000000	1.718833   
821.500000	2.076522   
822.000000	2.223984   
822.500000	2.294121   
823.000000	2.131424   
823.500000	2.255666   
824.000000	2.368227   
824.500000	2.488287   
825.000000	2.409409   
825.500000	2.464030   
826.000000	2.369098   
826.500000	2.290106   
827.000000	2.049015   
827.500000	2.023143   
828.000000	2.030333   
828.500000	2.158060   
829.000000	2.170568   
829.500000	2.106424   
830.000000	1.810515   
830.500000	1.598037   
831.000000	1.500522   
831.500000	1.451363   
832.000000	1.325386   
832.500000	1.130310   
833.000000	1.070803   
833.500000	1.151659   
834.000000	1.348871   
834.500000	1.268833   
835.000000	1.054257   
835.500000	0.838818   
836.000000	0.847431   
836.500000	0.891636   
837.000000	0.956545   
837.500000	0.939234   
838.000000	0.855060   
838.500000	0.695643   
839.000000	0.589681   
839.500000	0.658878   
840.000000	0.755530   
840.500000	0.779704   
841.000000	0.851545   
841.500000	0.943053   
842.000000	0.937416   
842.500000	0.765553   
843.000000	0.654462   
843.500000	0.618136   
844.000000	0.600674   
844.500000	0.473174   
845.000000	0.416348   
845.500000	0.433166   
846.000000	0.515628   
846.500000	0.407083   
847.000000	0.310219   
847.500000	0.277401   
848.000000	0.461143   
848.500000	0.557712   
849.000000	0.526287   
849.500000	0.417689   
850.000000	0.278030   
850.500000	0.070628   
851.000000	-0.112818  
851.500000	-0.073530  
852.000000	0.118962   
852.500000	0.369272   
853.000000	0.510045   
853.500000	0.508878   
854.000000	0.329015   
854.500000	0.089553   
855.000000	0.034954   
855.500000	0.104530   
856.000000	0.227265   
856.500000	0.226621   
857.000000	0.228643   
857.500000	0.249946   
858.000000	0.330704   
858.500000	0.243916   
859.000000	0.070772   
859.500000	-0.138431  
860.000000	-0.101681  
860.500000	-0.058856  
861.000000	0.029901   
861.500000	0.079424   
862.000000	0.197242   
862.500000	0.204568   
863.000000	0.160181   
863.500000	0.023553   
864.000000	0.026696   
864.500000	0.098712   
865.000000	0.147643   
865.500000	0.081659   
866.000000	0.005666   
866.500000	-0.016227  
867.000000	0.033348   
867.500000	0.006250   
868.000000	-0.040340  
868.500000	-0.079174  
869.000000	-0.074356  
869.500000	-0.058303  
870.000000	-0.030378  
870.500000	0.023181   
871.000000	0.078371   
871.500000	0.078537   
872.000000	0.030825   
872.500000	0.062825   
873.000000	0.138643   
873.500000	0.218848   
874.000000	0.172977   
874.500000	0.083590   
875.000000	0.000242   
875.500000	0.012401   
876.000000	0.106189   
876.500000	0.210128   
877.000000	0.198628   
877.500000	0.093946   
878.000000	0.037015   
878.500000	0.001037   
879.000000	0.004446   
879.500000	0.010871   
880.000000	0.071462   
880.500000	0.075318   
881.000000	0.094507   
881.500000	0.139340   
882.000000	0.205992   
882.500000	0.133348   
883.000000	0.015871   
883.500000	-0.050060  
884.000000	-0.028750  
884.500000	-0.027621  
885.000000	-0.039280  
885.500000	-0.029962  
886.000000	-0.023325  
886.500000	0.009515   
887.000000	0.073734   
887.500000	0.115939   
888.000000	-0.000030  
888.500000	-0.182204  
889.000000	-0.320909  
889.500000	-0.272022  
890.000000	-0.204280  
890.500000	-0.074931  
891.000000	0.062704   
891.500000	0.183310   
892.000000	0.122462   
892.500000	-0.002954  
893.000000	-0.049409  
893.500000	-0.003795  
894.000000	-0.068409  
894.500000	-0.282810  
895.000000	-0.386931  
895.500000	-0.329060  
896.000000	-0.196992  
896.500000	-0.146401  
897.000000	-0.082280  
897.500000	0.012272   

