PE FL                   SPECTRUM    ASCII       PEDS        1.60        
  -1
SA9389~1.SP
24/04/12
15:44:54.00
24/04/12
15:44:54.00
Jan

897.500000
1









LS55
405.00
5.00
5.00
SCAN
1
20
100
100
0
400
0
1
0
1
5
ON
450 405 
1 0 0
#HDR
-1
-1
#GR
NM

0.00002384185791015625
0.0
450.000000
0.500000
896
8
373.581000
-0.365234
#DATA
450.000000	0.303000   
450.500000	0.290363   
451.000000	0.298560   
451.500000	0.251333   
452.000000	0.055075   
452.500000	-0.029621  
453.000000	-0.002613  
453.500000	0.218000   
454.000000	0.179015   
454.500000	0.043386   
455.000000	-0.020901  
455.500000	0.199462   
456.000000	0.400818   
456.500000	0.471659   
457.000000	0.376583   
457.500000	0.298136   
458.000000	0.283984   
458.500000	0.283969   
459.000000	0.227886   
459.500000	0.118250   
460.000000	0.044507   
460.500000	0.122363   
461.000000	0.200772   
461.500000	0.167113   
462.000000	-0.167416  
462.500000	-0.365234  
463.000000	-0.315151  
463.500000	0.099810   
464.000000	0.316878   
464.500000	0.382007   
465.000000	0.143863   
465.500000	0.066856   
466.000000	0.054939   
466.500000	0.331621   
467.000000	0.539727   
467.500000	0.525780   
468.000000	0.228356   
468.500000	0.057189   
469.000000	0.121704   
469.500000	0.290696   
470.000000	0.256318   
470.500000	0.080075   
471.000000	0.062181   
471.500000	0.248969   
472.000000	0.432219   
472.500000	0.504356   
473.000000	0.493121   
473.500000	0.430007   
474.000000	0.382310   
474.500000	0.258189   
475.000000	0.225378   
475.500000	0.141643   
476.000000	0.118159   
476.500000	0.089037   
477.000000	0.203090   
477.500000	0.238848   
478.000000	0.288553   
478.500000	0.355575   
479.000000	0.485742   
479.500000	0.480659   
480.000000	0.244090   
480.500000	0.018159   
481.000000	-0.123386  
481.500000	-0.061651  
482.000000	0.097621   
482.500000	0.348272   
483.000000	0.489977   
483.500000	0.455439   
484.000000	0.361030   
484.500000	0.396772   
485.000000	0.466878   
485.500000	0.378946   
486.000000	0.240151   
486.500000	0.165901   
487.000000	0.160522   
487.500000	0.022856   
488.000000	-0.157780  
488.500000	-0.121166  
489.000000	0.067856   
489.500000	0.188128   
490.000000	0.277424   
490.500000	0.401250   
491.000000	0.520712   
491.500000	0.494530   
492.000000	0.419424   
492.500000	0.274810   
493.000000	0.090696   
493.500000	-0.095568  
494.000000	-0.176969  
494.500000	0.065015   
495.000000	0.321651   
495.500000	0.410356   
496.000000	0.219833   
496.500000	0.232318   
497.000000	0.379613   
497.500000	0.469727   
498.000000	0.310265   
498.500000	0.161598   
499.000000	0.247340   
499.500000	0.328666   
500.000000	0.446772   
500.500000	0.475424   
501.000000	0.488348   
501.500000	0.421553   
502.000000	0.434136   
502.500000	0.600121   
503.000000	0.781469   
503.500000	0.827068   
504.000000	0.737037   
504.500000	0.680416   
505.000000	0.705174   
505.500000	0.781333   
506.000000	0.763416   
506.500000	0.731568   
507.000000	0.794962   
507.500000	0.900053   
508.000000	0.951295   
508.500000	0.855257   
509.000000	0.779749   
509.500000	0.875848   
510.000000	1.001242   
510.500000	1.097227   
511.000000	1.143439   
511.500000	1.292136   
512.000000	1.378871   
512.500000	1.331583   
513.000000	1.108795   
513.500000	0.937606   
514.000000	0.945356   
514.500000	1.130356   
515.000000	1.328954   
515.500000	1.352712   
516.000000	1.433106   
516.500000	1.594590   
517.000000	1.769030   
517.500000	1.681272   
518.000000	1.514818   
518.500000	1.697712   
519.000000	2.217143   
519.500000	2.664371   
520.000000	2.733295   
520.500000	2.593159   
521.000000	2.520454   
521.500000	2.504378   
522.000000	2.362022   
522.500000	2.244636   
523.000000	2.406356   
523.500000	2.673772   
524.000000	2.883439   
524.500000	2.811484   
525.000000	2.699484   
525.500000	2.585378   
526.000000	2.829795   
526.500000	3.147553   
527.000000	3.367681   
527.500000	3.191681   
528.000000	3.250924   
528.500000	3.608234   
529.000000	4.083825   
529.500000	4.145643   
530.000000	4.153068   
530.500000	4.414348   
531.000000	4.796037   
531.500000	4.854098   
532.000000	4.880015   
532.500000	5.306424   
533.000000	5.742818   
533.500000	5.823257   
534.000000	5.696053   
534.500000	6.005886   
535.000000	6.549409   
535.500000	6.975734   
536.000000	7.163227   
536.500000	7.349189   
537.000000	7.456772   
537.500000	7.518871   
538.000000	7.723999   
538.500000	7.999037   
539.000000	8.478318   
539.500000	9.155946   
540.000000	10.059068  
540.500000	10.861765  
541.000000	11.101424  
541.500000	10.773946  
542.000000	10.530583  
542.500000	10.771257  
543.000000	11.229977  
543.500000	11.518939  
544.000000	11.604303  
544.500000	11.850492  
545.000000	12.093462  
545.500000	12.275333  
546.000000	12.174113  
546.500000	11.857295  
547.000000	11.441742  
547.500000	11.389712  
548.000000	11.670575  
548.500000	11.840053  
549.000000	11.819651  
549.500000	11.834204  
550.000000	12.093939  
550.500000	12.012000  
551.000000	11.807431  
551.500000	11.643250  
552.000000	11.947348  
552.500000	12.407651  
553.000000	12.988719  
553.500000	13.255840  
554.000000	13.182568  
554.500000	12.780416  
555.000000	12.661386  
555.500000	12.866560  
556.000000	13.135681  
556.500000	13.368378  
557.000000	13.566643  
557.500000	13.830659  
558.000000	13.926106  
558.500000	14.144606  
559.000000	14.329643  
559.500000	14.685128  
560.000000	15.154878  
560.500000	15.774416  
561.000000	16.391204  
561.500000	16.913984  
562.000000	17.236303  
562.500000	17.401931  
563.000000	17.602901  
563.500000	17.982734  
564.000000	18.545727  
564.500000	19.060174  
565.000000	19.448522  
565.500000	19.683015  
566.000000	20.065234  
566.500000	20.471333  
567.000000	21.174340  
567.500000	21.866030  
568.000000	22.962909  
568.500000	23.945068  
569.000000	24.273780  
569.500000	24.025401  
570.000000	24.048628  
570.500000	24.763492  
571.000000	25.405151  
571.500000	25.981863  
572.000000	26.654787  
572.500000	27.838545  
573.000000	28.624568  
573.500000	29.100568  
574.000000	29.472098  
574.500000	30.020992  
575.000000	30.966219  
575.500000	31.702454  
576.000000	32.400068  
576.500000	33.334143  
577.000000	34.559234  
577.500000	35.013151  
578.000000	34.403166  
578.500000	33.884295  
579.000000	34.495462  
579.500000	35.896545  
580.000000	36.372522  
580.500000	36.456515  
581.000000	36.633643  
581.500000	37.478916  
582.000000	38.297242  
582.500000	39.102287  
583.000000	39.879757  
583.500000	40.559015  
584.000000	41.046545  
584.500000	41.475037  
585.000000	42.180303  
585.500000	43.049545  
586.000000	43.906015  
586.500000	45.154469  
587.000000	46.947159  
587.500000	48.776037  
588.000000	50.069840  
588.500000	50.580166  
589.000000	51.046954  
589.500000	52.138454  
590.000000	53.477734  
590.500000	54.829787  
591.000000	55.965636  
591.500000	56.781507  
592.000000	57.428803  
592.500000	58.315628  
593.000000	59.957000  
593.500000	62.085272  
594.000000	63.704848  
594.500000	64.752507  
595.000000	65.894499  
595.500000	67.236053  
596.000000	69.082583  
596.500000	71.112151  
597.000000	72.610295  
597.500000	73.593075  
598.000000	74.179689  
598.500000	75.355037  
599.000000	76.856030  
599.500000	78.435818  
600.000000	79.837272  
600.500000	80.752931  
601.000000	81.202484  
601.500000	82.316174  
602.000000	85.122393  
602.500000	87.990803  
603.000000	90.022196  
603.500000	91.401053  
604.000000	93.841128  
604.500000	96.186325  
605.000000	97.952136  
605.500000	98.822409  
606.000000	99.959530  
606.500000	101.491401 
607.000000	104.044287 
607.500000	107.054833 
608.000000	109.169765 
608.500000	110.781484 
609.000000	112.491416 
609.500000	115.394219 
610.000000	118.045674 
610.500000	120.918621 
611.000000	123.515386 
611.500000	125.874151 
612.000000	127.225590 
612.500000	129.029901 
613.000000	131.552393 
613.500000	134.785636 
614.000000	138.162780 
614.500000	141.832727 
615.000000	145.116295 
615.500000	147.247212 
616.000000	148.573045 
616.500000	150.900371 
617.000000	154.450984 
617.500000	158.381742 
618.000000	161.026356 
618.500000	163.060643 
619.000000	165.153045 
619.500000	167.986666 
620.000000	170.620560 
620.500000	173.521219 
621.000000	176.807969 
621.500000	180.479909 
622.000000	183.766045 
622.500000	187.437818 
623.000000	191.391007 
623.500000	195.498015 
624.000000	199.621196 
624.500000	203.869007 
625.000000	206.774946 
625.500000	208.961386 
626.000000	212.164189 
626.500000	217.124689 
627.000000	221.545545 
627.500000	224.430825 
628.000000	228.159636 
628.500000	233.104204 
629.000000	237.376787 
629.500000	240.319416 
630.000000	244.478060 
630.500000	250.537583 
631.000000	256.549333 
631.500000	260.521613 
632.000000	262.925401 
632.500000	265.971250 
633.000000	269.189530 
633.500000	271.673825 
634.000000	273.958840 
634.500000	277.682886 
635.000000	282.535977 
635.500000	287.744931 
636.000000	291.555954 
636.500000	296.085386 
637.000000	300.396196 
637.500000	303.817803 
638.000000	305.445750 
638.500000	307.732689 
639.000000	311.373780 
639.500000	315.436583 
640.000000	319.170454 
640.500000	321.217265 
641.000000	324.620553 
641.500000	327.818318 
642.000000	331.928924 
642.500000	333.454568 
643.000000	335.502340 
643.500000	337.932590 
644.000000	342.014621 
644.500000	343.754250 
645.000000	345.215583 
645.500000	348.453772 
646.000000	354.010954 
646.500000	356.888068 
647.000000	356.500363 
647.500000	356.731674 
648.000000	359.444348 
648.500000	363.245196 
649.000000	364.139106 
649.500000	364.848772 
650.000000	366.641310 
650.500000	370.571886 
651.000000	372.794015 
651.500000	373.581000 
652.000000	372.469931 
652.500000	370.713378 
653.000000	369.721151 
653.500000	370.184583 
654.000000	371.346719 
654.500000	370.885893 
655.000000	369.535075 
655.500000	369.933325 
656.000000	371.236348 
656.500000	370.694113 
657.000000	367.846303 
657.500000	365.960833 
658.000000	364.402196 
658.500000	363.130310 
659.000000	361.615189 
659.500000	361.586803 
660.000000	361.274878 
660.500000	360.400787 
661.000000	358.242787 
661.500000	354.895371 
662.000000	350.962818 
662.500000	347.168007 
663.000000	344.788780 
663.500000	342.034015 
664.000000	339.255151 
664.500000	335.370606 
665.000000	331.591560 
665.500000	327.197037 
666.000000	323.891128 
666.500000	320.520386 
667.000000	316.772303 
667.500000	311.875242 
668.000000	306.922090 
668.500000	302.568977 
669.000000	300.099136 
669.500000	297.229734 
670.000000	292.296000 
670.500000	284.651901 
671.000000	278.885212 
671.500000	275.571469 
672.000000	272.413750 
672.500000	267.067227 
673.000000	260.844537 
673.500000	254.781734 
674.000000	248.440484 
674.500000	241.955916 
675.000000	236.581727 
675.500000	232.200212 
676.000000	228.148371 
676.500000	223.965818 
677.000000	219.902090 
677.500000	214.720643 
678.000000	209.068454 
678.500000	202.674416 
679.000000	197.458416 
679.500000	192.987530 
680.000000	188.779272 
680.500000	183.565712 
681.000000	177.787863 
681.500000	172.773143 
682.000000	168.523840 
682.500000	164.685325 
683.000000	160.359916 
683.500000	155.878590 
684.000000	150.261863 
684.500000	145.813765 
685.000000	141.430136 
685.500000	137.430090 
686.000000	132.265969 
686.500000	127.862386 
687.000000	124.264318 
687.500000	121.580378 
688.000000	118.441780 
688.500000	115.440719 
689.000000	112.148727 
689.500000	108.769909 
690.000000	105.352083 
690.500000	101.773212 
691.000000	98.163750  
691.500000	94.534446  
692.000000	91.727803  
692.500000	89.244856  
693.000000	87.321106  
693.500000	84.984477  
694.000000	82.620681  
694.500000	79.335575  
695.000000	76.144393  
695.500000	72.908492  
696.000000	70.581969  
696.500000	68.634484  
697.000000	67.225022  
697.500000	65.799477  
698.000000	64.310174  
698.500000	62.405371  
699.000000	60.152068  
699.500000	57.632621  
700.000000	55.521598  
700.500000	53.968363  
701.000000	52.795704  
701.500000	51.572757  
702.000000	50.173416  
702.500000	48.788772  
703.000000	47.699136  
703.500000	46.777280  
704.000000	45.695507  
704.500000	43.968181  
705.000000	42.195689  
705.500000	40.938121  
706.000000	40.500454  
706.500000	40.028166  
707.000000	39.068977  
707.500000	37.099962  
708.000000	35.185530  
708.500000	34.087863  
709.000000	33.960757  
709.500000	33.442795  
710.000000	32.266401  
710.500000	31.054121  
711.000000	30.633651  
711.500000	30.442787  
712.000000	29.890454  
712.500000	28.907227  
713.000000	28.239356  
713.500000	27.660007  
714.000000	27.245893  
714.500000	26.374712  
715.000000	25.458295  
715.500000	24.291810  
716.000000	23.778522  
716.500000	23.294181  
717.000000	22.623015  
717.500000	21.481371  
718.000000	20.516772  
718.500000	20.000689  
719.000000	19.870053  
719.500000	19.779560  
720.000000	19.368166  
720.500000	18.873325  
721.000000	18.372893  
721.500000	17.978750  
722.000000	17.693121  
722.500000	17.362484  
723.000000	17.234409  
723.500000	17.257484  
724.000000	17.136007  
724.500000	16.680742  
725.000000	15.846689  
725.500000	15.114818  
726.000000	14.838939  
726.500000	14.896272  
727.000000	14.563325  
727.500000	14.192128  
728.000000	13.864371  
728.500000	13.617484  
729.000000	13.138689  
729.500000	12.674772  
730.000000	12.442674  
730.500000	12.310431  
731.000000	12.068537  
731.500000	11.711886  
732.000000	11.552492  
732.500000	11.537500  
733.000000	11.645280  
733.500000	11.324681  
734.000000	10.705719  
734.500000	10.001613  
735.000000	9.857257   
735.500000	9.939424   
736.000000	9.853030   
736.500000	9.643318   
737.000000	9.669545   
737.500000	10.013030  
738.000000	9.938916   
738.500000	9.614674   
739.000000	9.021598   
739.500000	9.020166   
740.000000	9.218363   
740.500000	9.557651   
741.000000	9.599712   
741.500000	9.380500   
742.000000	8.776575   
742.500000	8.138704   
743.000000	7.831106   
743.500000	7.733295   
744.000000	7.762606   
744.500000	7.650886   
745.000000	7.467325   
745.500000	7.269303   
746.000000	7.005196   
746.500000	6.785340   
747.000000	6.540924   
747.500000	6.502401   
748.000000	6.510212   
748.500000	6.587431   
749.000000	6.624303   
749.500000	6.840060   
750.000000	6.902242   
750.500000	6.840446   
751.000000	6.428522   
751.500000	6.064356   
752.000000	5.810840   
752.500000	5.840507   
753.000000	6.058098   
753.500000	6.153325   
754.000000	6.024356   
754.500000	5.990787   
755.000000	6.177901   
755.500000	6.333795   
756.000000	6.232265   
756.500000	5.807681   
757.000000	5.419598   
757.500000	5.300174   
758.000000	5.293030   
758.500000	5.270871   
759.000000	5.210886   
759.500000	5.186583   
760.000000	5.087121   
760.500000	5.001310   
761.000000	5.062871   
761.500000	5.193318   
762.000000	5.129803   
762.500000	4.800037   
763.000000	4.666340   
763.500000	4.589621   
764.000000	4.657174   
764.500000	4.518651   
765.000000	4.721545   
765.500000	4.761386   
766.000000	4.787446   
766.500000	4.488348   
767.000000	4.320833   
767.500000	4.117659   
768.000000	3.934878   
768.500000	3.875939   
769.000000	3.927833   
769.500000	3.953234   
770.000000	3.822378   
770.500000	3.679136   
771.000000	3.484189   
771.500000	3.315401   
772.000000	3.258106   
772.500000	3.335931   
773.000000	3.482780   
773.500000	3.519659   
774.000000	3.459696   
774.500000	3.333401   
775.000000	3.334507   
775.500000	3.478689   
776.000000	3.526537   
776.500000	3.470234   
777.000000	3.403659   
777.500000	3.439219   
778.000000	3.362537   
778.500000	3.350015   
779.000000	3.374295   
779.500000	3.512954   
780.000000	3.381037   
780.500000	3.182568   
781.000000	2.925454   
781.500000	2.861803   
782.000000	2.777424   
782.500000	2.956424   
783.000000	3.090628   
783.500000	3.215045   
784.000000	3.111060   
784.500000	3.074439   
785.000000	3.009856   
785.500000	3.003848   
786.000000	2.994636   
786.500000	3.023227   
787.000000	3.027825   
787.500000	2.874121   
788.000000	2.731318   
788.500000	2.564901   
789.000000	2.630818   
789.500000	2.822053   
790.000000	3.136143   
790.500000	3.168060   
791.000000	3.007939   
791.500000	2.820053   
792.000000	2.822431   
792.500000	2.903674   
793.000000	2.942015   
793.500000	2.806984   
794.000000	2.683363   
794.500000	2.620416   
795.000000	2.656356   
795.500000	2.684750   
796.000000	2.753348   
796.500000	2.774378   
797.000000	2.737098   
797.500000	2.660515   
798.000000	2.728136   
798.500000	2.812613   
799.000000	2.627477   
799.500000	2.292628   
800.000000	2.151060   
800.500000	2.350257   
801.000000	2.653378   
801.500000	2.641643   
802.000000	2.389643   
802.500000	2.161909   
803.000000	2.227227   
803.500000	2.410560   
804.000000	2.462795   
804.500000	2.262568   
805.000000	2.104287   
805.500000	2.070075   
806.000000	2.066280   
806.500000	2.057007   
807.000000	1.931340   
807.500000	1.841651   
808.000000	1.802295   
808.500000	1.963333   
809.000000	2.061484   
809.500000	1.942893   
810.000000	1.688424   
810.500000	1.612151   
811.000000	1.842962   
811.500000	2.068939   
812.000000	2.157106   
812.500000	2.017348   
813.000000	1.911621   
813.500000	1.781386   
814.000000	1.697803   
814.500000	1.580643   
815.000000	1.492348   
815.500000	1.545219   
816.000000	1.643598   
816.500000	1.725022   
817.000000	1.662356   
817.500000	1.563818   
818.000000	1.444545   
818.500000	1.415022   
819.000000	1.428962   
819.500000	1.464340   
820.000000	1.636909   
820.500000	1.856507   
821.000000	2.119727   
821.500000	2.184878   
822.000000	2.233204   
822.500000	2.413393   
823.000000	2.606500   
823.500000	2.584280   
824.000000	2.384795   
824.500000	2.381075   
825.000000	2.545825   
825.500000	2.733416   
826.000000	2.607227   
826.500000	2.428689   
827.000000	2.232613   
827.500000	2.191098   
828.000000	2.176053   
828.500000	2.148257   
829.000000	2.073424   
829.500000	2.100068   
830.000000	2.183310   
830.500000	2.112136   
831.000000	1.816166   
831.500000	1.492318   
832.000000	1.511462   
832.500000	1.584522   
833.000000	1.488674   
833.500000	1.154878   
834.000000	0.964810   
834.500000	0.977469   
835.000000	1.081477   
835.500000	1.129916   
836.000000	1.113590   
836.500000	1.102651   
837.000000	1.093007   
837.500000	1.097174   
838.000000	1.085977   
838.500000	1.107750   
839.000000	1.027378   
839.500000	0.880901   
840.000000	0.778545   
840.500000	0.868636   
841.000000	0.960174   
841.500000	0.928143   
842.000000	0.849121   
842.500000	0.815113   
843.000000	0.789560   
843.500000	0.703674   
844.000000	0.671545   
844.500000	0.663249   
845.000000	0.648810   
845.500000	0.501250   
846.000000	0.487015   
846.500000	0.454272   
847.000000	0.466348   
847.500000	0.311719   
848.000000	0.298174   
848.500000	0.288484   
849.000000	0.352015   
849.500000	0.203196   
850.000000	0.122916   
850.500000	0.151136   
851.000000	0.268325   
851.500000	0.253848   
852.000000	0.104931   
852.500000	0.058969   
853.000000	0.196909   
853.500000	0.390287   
854.000000	0.439454   
854.500000	0.483636   
855.000000	0.485674   
855.500000	0.382500   
856.000000	0.085810   
856.500000	-0.104583  
857.000000	-0.086106  
857.500000	0.149651   
858.000000	0.292045   
858.500000	0.280204   
859.000000	0.161500   
859.500000	0.110674   
860.000000	0.171234   
860.500000	0.239174   
861.000000	0.152727   
861.500000	0.010386   
862.000000	-0.133219  
862.500000	-0.213606  
863.000000	-0.252083  
863.500000	-0.159386  
864.000000	-0.024075  
864.500000	0.088931   
865.000000	0.113840   
865.500000	0.081931   
866.000000	0.048931   
866.500000	-0.024507  
867.000000	-0.037507  
867.500000	0.010507   
868.000000	0.082219   
868.500000	0.093325   
869.000000	0.004280   
869.500000	-0.058022  
870.000000	-0.092371  
870.500000	0.008462   
871.000000	0.075537   
871.500000	0.142500   
872.000000	0.182772   
872.500000	0.250007   
873.000000	0.280075   
873.500000	0.235742   
874.000000	0.129469   
874.500000	0.109000   
875.000000	0.175075   
875.500000	0.196810   
876.000000	0.190128   
876.500000	0.157257   
877.000000	0.185439   
877.500000	0.164795   
878.000000	0.056909   
878.500000	-0.162424  
879.000000	-0.256666  
879.500000	-0.258007  
880.000000	-0.119500  
880.500000	-0.053500  
881.000000	-0.027356  
881.500000	-0.024439  
882.000000	-0.097416  
882.500000	-0.214287  
883.000000	-0.242984  
883.500000	-0.104371  
884.000000	0.039492   
884.500000	0.011340   
885.000000	-0.100000  
885.500000	-0.175537  
886.000000	-0.145363  
886.500000	-0.097037  
887.000000	-0.029348  
887.500000	-0.032818  
888.000000	-0.058590  
888.500000	-0.047424  
889.000000	-0.006113  
889.500000	0.042371   
890.000000	-0.091886  
890.500000	-0.125469  
891.000000	-0.074734  
891.500000	0.076651   
892.000000	0.022053   
892.500000	-0.053000  
893.000000	-0.095856  
893.500000	-0.048492  
894.000000	-0.065992  
894.500000	0.001098   
895.000000	0.200500   
895.500000	0.355606   
896.000000	0.291060   
896.500000	0.122000   
897.000000	-0.009848  
897.500000	-0.036734  

