PE FL                   SPECTRUM    ASCII       PEDS        1.60        
  -1
SA83B5~1.SP
24/04/12
15:39:12.00
24/04/12
15:39:12.00
Jan

897.500000
1









LS55
405.00
5.00
5.00
SCAN
1
20
100
100
0
400
0
1
0
1
5
ON
450 405 
1 0 0
#HDR
-1
-1
#GR
NM

0.00002384185791015625
0.0
450.000000
0.500000
896
8
379.940719
-0.335606
#DATA
450.000000	0.304000   
450.500000	0.194780   
451.000000	0.085901   
451.500000	0.023242   
452.000000	-0.035916  
452.500000	0.020242   
453.000000	0.128166   
453.500000	0.233181   
454.000000	0.276651   
454.500000	0.273659   
455.000000	0.174492   
455.500000	0.013477   
456.000000	0.016598   
456.500000	0.190401   
457.000000	0.312803   
457.500000	0.188613   
458.000000	0.105901   
458.500000	0.199386   
459.000000	0.346719   
459.500000	0.327651   
460.000000	0.210590   
460.500000	0.018992   
461.000000	-0.126613  
461.500000	-0.225962  
462.000000	-0.175560  
462.500000	-0.183128  
463.000000	-0.097643  
463.500000	0.054416   
464.000000	0.187924   
464.500000	0.093537   
465.000000	0.050371   
465.500000	0.111371   
466.000000	0.121409   
466.500000	-0.033068  
467.000000	-0.140106  
467.500000	-0.017969  
468.000000	0.111121   
468.500000	0.191825   
469.000000	0.224643   
469.500000	0.255515   
470.000000	0.205871   
470.500000	0.103962   
471.000000	0.024674   
471.500000	-0.025212  
472.000000	-0.044810  
472.500000	-0.104393  
473.000000	-0.043106  
473.500000	0.145348   
474.000000	0.396590   
474.500000	0.430454   
475.000000	0.228401   
475.500000	0.029037   
476.000000	0.135606   
476.500000	0.423530   
477.000000	0.516621   
477.500000	0.205856   
478.000000	-0.173674  
478.500000	-0.223757  
479.000000	0.031924   
479.500000	0.247060   
480.000000	0.321833   
480.500000	0.357272   
481.000000	0.438522   
481.500000	0.428348   
482.000000	0.356659   
482.500000	0.223227   
483.000000	0.227166   
483.500000	0.242674   
484.000000	0.226515   
484.500000	-0.022446  
485.000000	-0.066856  
485.500000	0.115719   
486.000000	0.353060   
486.500000	0.336575   
487.000000	0.166674   
487.500000	0.063386   
488.000000	-0.021121  
488.500000	0.001166   
489.000000	0.162053   
489.500000	0.407000   
490.000000	0.506780   
490.500000	0.485795   
491.000000	0.398075   
491.500000	0.235083   
492.000000	0.133083   
492.500000	0.163515   
493.000000	0.290598   
493.500000	0.243893   
494.000000	0.117446   
494.500000	0.032151   
495.000000	0.170500   
495.500000	0.308128   
496.000000	0.396295   
496.500000	0.406325   
497.000000	0.372992   
497.500000	0.327674   
498.000000	0.286295   
498.500000	0.280030   
499.000000	0.317068   
499.500000	0.395681   
500.000000	0.478356   
500.500000	0.565416   
501.000000	0.690378   
501.500000	0.702113   
502.000000	0.707068   
502.500000	0.539666   
503.000000	0.525106   
503.500000	0.572416   
504.000000	0.660174   
504.500000	0.601636   
505.000000	0.521636   
505.500000	0.463856   
506.000000	0.488030   
506.500000	0.623121   
507.000000	0.845484   
507.500000	1.080484   
508.000000	1.172075   
508.500000	1.127628   
509.000000	1.000962   
509.500000	0.930537   
510.000000	0.982371   
510.500000	0.980977   
511.000000	0.894083   
511.500000	0.811643   
512.000000	0.870636   
512.500000	1.023037   
513.000000	1.163681   
513.500000	1.304515   
514.000000	1.472522   
514.500000	1.593545   
515.000000	1.586893   
515.500000	1.563431   
516.000000	1.575000   
516.500000	1.654848   
517.000000	1.714121   
517.500000	1.724098   
518.000000	1.623386   
518.500000	1.689977   
519.000000	1.808356   
519.500000	2.116886   
520.000000	2.250893   
520.500000	2.306575   
521.000000	2.206621   
521.500000	2.231143   
522.000000	2.399492   
522.500000	2.526893   
523.000000	2.454545   
523.500000	2.265416   
524.000000	2.373575   
524.500000	2.684613   
525.000000	3.014530   
525.500000	3.127833   
526.000000	3.165325   
526.500000	3.021500   
527.000000	2.915719   
527.500000	3.088659   
528.000000	3.588431   
528.500000	3.865196   
529.000000	3.802931   
529.500000	3.708310   
530.000000	4.045462   
530.500000	4.611969   
531.000000	4.844136   
531.500000	4.727287   
532.000000	4.514939   
532.500000	4.747856   
533.000000	5.253022   
533.500000	5.735545   
534.000000	5.895583   
534.500000	5.916992   
535.000000	6.064325   
535.500000	6.500916   
536.000000	7.030727   
536.500000	7.300053   
537.000000	7.448121   
537.500000	7.603030   
538.000000	7.856250   
538.500000	8.114795   
539.000000	8.477727   
539.500000	8.927287   
540.000000	9.500469   
540.500000	9.777628   
541.000000	10.070492  
541.500000	10.399189  
542.000000	11.048886  
542.500000	11.735515  
543.000000	12.167507  
543.500000	11.971606  
544.000000	11.651007  
544.500000	11.540765  
545.000000	11.650166  
545.500000	11.792583  
546.000000	11.689643  
546.500000	11.637212  
547.000000	11.849810  
547.500000	12.218515  
548.000000	12.249348  
548.500000	12.053590  
549.000000	11.836530  
549.500000	12.102189  
550.000000	12.272030  
550.500000	12.343280  
551.000000	12.243613  
551.500000	12.521689  
552.000000	12.596242  
552.500000	12.843848  
553.000000	12.926643  
553.500000	13.385583  
554.000000	13.715530  
554.500000	14.097128  
555.000000	13.946962  
555.500000	13.752553  
556.000000	13.468007  
556.500000	13.518840  
557.000000	13.732128  
557.500000	14.045787  
558.000000	14.200060  
558.500000	14.597431  
559.000000	15.145143  
559.500000	15.770856  
560.000000	15.867151  
560.500000	15.827886  
561.000000	15.920462  
561.500000	16.752098  
562.000000	17.387106  
562.500000	17.968833  
563.000000	18.140151  
563.500000	18.317060  
564.000000	18.482007  
564.500000	18.798696  
565.000000	19.343030  
565.500000	19.922901  
566.000000	20.696583  
566.500000	20.928522  
567.000000	21.094969  
567.500000	20.970045  
568.000000	21.549492  
568.500000	22.178931  
569.000000	23.306431  
569.500000	24.240931  
570.000000	25.251439  
570.500000	25.378484  
571.000000	25.678651  
571.500000	26.378916  
572.000000	27.893833  
572.500000	28.551568  
573.000000	28.900007  
573.500000	29.156219  
574.000000	30.667121  
574.500000	31.818757  
575.000000	32.336598  
575.500000	31.794924  
576.000000	31.638946  
576.500000	32.072356  
577.000000	33.267492  
577.500000	33.990340  
578.000000	34.248939  
578.500000	34.603924  
579.000000	35.385113  
579.500000	36.088598  
580.000000	36.165113  
580.500000	36.418946  
581.000000	37.291886  
581.500000	38.364780  
582.000000	39.003143  
582.500000	39.028765  
583.000000	39.695628  
583.500000	41.109159  
584.000000	43.117613  
584.500000	43.813022  
585.000000	44.015454  
585.500000	44.344272  
586.000000	45.661643  
586.500000	46.530901  
587.000000	47.425522  
587.500000	48.471250  
588.000000	49.802484  
588.500000	51.057507  
589.000000	52.481446  
589.500000	53.657969  
590.000000	54.957871  
590.500000	55.817560  
591.000000	57.313621  
591.500000	58.713181  
592.000000	60.005530  
592.500000	60.481068  
593.000000	61.349265  
593.500000	62.648053  
594.000000	64.470219  
594.500000	65.737477  
595.000000	67.212189  
595.500000	69.301931  
596.000000	71.768575  
596.500000	72.567257  
597.000000	72.410446  
597.500000	72.563325  
598.000000	74.998568  
598.500000	77.319340  
599.000000	78.694166  
599.500000	79.065204  
600.000000	80.531340  
600.500000	82.731416  
601.000000	84.918083  
601.500000	87.062409  
602.000000	88.968530  
602.500000	91.201704  
603.000000	92.788446  
603.500000	94.590409  
604.000000	95.383121  
604.500000	96.918075  
605.000000	98.169537  
605.500000	100.581992 
606.000000	103.638522 
606.500000	107.059007 
607.000000	108.817803 
607.500000	108.949022 
608.000000	109.601250 
608.500000	111.798765 
609.000000	114.947060 
609.500000	117.819863 
610.000000	121.140265 
610.500000	123.938446 
611.000000	125.753500 
611.500000	127.282848 
612.000000	129.708606 
612.500000	132.245924 
613.000000	135.097363 
613.500000	137.943121 
614.000000	140.975492 
614.500000	143.685219 
615.000000	146.486924 
615.500000	149.985189 
616.000000	153.338878 
616.500000	156.187863 
617.000000	158.080151 
617.500000	160.347204 
618.000000	161.448227 
618.500000	163.616803 
619.000000	166.727727 
619.500000	172.085651 
620.000000	177.483295 
620.500000	181.346863 
621.000000	184.170348 
621.500000	187.958439 
622.000000	192.115416 
622.500000	194.745219 
623.000000	196.755719 
623.500000	199.068916 
624.000000	201.882939 
624.500000	204.451530 
625.000000	207.820333 
625.500000	213.237287 
626.000000	218.788250 
626.500000	223.730143 
627.000000	226.857643 
627.500000	229.796409 
628.000000	233.447242 
628.500000	238.210318 
629.000000	242.405174 
629.500000	245.708242 
630.000000	249.766636 
630.500000	255.036030 
631.000000	260.085106 
631.500000	264.141098 
632.000000	267.715606 
632.500000	271.819454 
633.000000	275.794181 
633.500000	280.165636 
634.000000	283.391257 
634.500000	286.547719 
635.000000	289.553325 
635.500000	293.280803 
636.000000	296.359916 
636.500000	300.364901 
637.000000	304.417537 
637.500000	308.493992 
638.000000	311.345871 
638.500000	315.086378 
639.000000	319.566750 
639.500000	324.573674 
640.000000	327.316174 
640.500000	329.199151 
641.000000	332.414901 
641.500000	336.703454 
642.000000	339.812196 
642.500000	340.499151 
643.000000	342.451045 
643.500000	346.857507 
644.000000	352.222780 
644.500000	356.373893 
645.000000	359.506325 
645.500000	361.218340 
646.000000	362.282287 
646.500000	363.788643 
647.000000	365.482136 
647.500000	365.239628 
648.000000	365.334863 
648.500000	367.474189 
649.000000	371.744962 
649.500000	372.873674 
650.000000	372.814810 
650.500000	373.122265 
651.000000	375.848196 
651.500000	377.013742 
652.000000	377.519871 
652.500000	377.760795 
653.000000	378.496696 
653.500000	379.386371 
654.000000	379.832439 
654.500000	379.940719 
655.000000	378.436121 
655.500000	377.755287 
656.000000	378.294265 
656.500000	379.382999 
657.000000	377.248416 
657.500000	374.095598 
658.000000	371.235575 
658.500000	371.237045 
659.000000	370.716931 
659.500000	369.574757 
660.000000	366.228924 
660.500000	365.201643 
661.000000	363.935393 
661.500000	363.124227 
662.000000	359.059439 
662.500000	355.764507 
663.000000	352.496045 
663.500000	350.268969 
664.000000	347.167507 
664.500000	344.042189 
665.000000	340.465871 
665.500000	337.297159 
666.000000	334.215446 
666.500000	330.707568 
667.000000	327.417053 
667.500000	324.949636 
668.000000	321.897189 
668.500000	318.126378 
669.000000	313.106613 
669.500000	308.238431 
670.000000	302.083196 
670.500000	297.380128 
671.000000	292.478431 
671.500000	288.144522 
672.000000	280.780363 
672.500000	274.856803 
673.000000	269.401242 
673.500000	265.483901 
674.000000	259.908128 
674.500000	254.001643 
675.000000	248.807416 
675.500000	244.041856 
676.000000	239.161462 
676.500000	232.966674 
677.000000	228.499575 
677.500000	223.740939 
678.000000	218.920189 
678.500000	212.076242 
679.000000	205.946151 
679.500000	200.582575 
680.000000	195.506606 
680.500000	190.578469 
681.000000	185.731053 
681.500000	181.387363 
682.000000	176.209954 
682.500000	171.245825 
683.000000	165.691151 
683.500000	161.168674 
684.000000	156.957939 
684.500000	153.254136 
685.000000	148.854424 
685.500000	143.689037 
686.000000	137.785818 
686.500000	132.852696 
687.000000	129.279431 
687.500000	126.299719 
688.000000	123.129727 
688.500000	118.997568 
689.000000	115.446272 
689.500000	112.758560 
690.000000	110.586757 
690.500000	107.074030 
691.000000	103.011507 
691.500000	99.103954  
692.000000	96.531295  
692.500000	94.266962  
693.000000	91.510795  
693.500000	88.782227  
694.000000	86.302000  
694.500000	83.633181  
695.000000	80.894901  
695.500000	78.742356  
696.000000	76.803530  
696.500000	74.526378  
697.000000	71.758265  
697.500000	69.282242  
698.000000	66.970287  
698.500000	64.314037  
699.000000	61.658636  
699.500000	60.064090  
700.000000	59.039113  
700.500000	57.879810  
701.000000	56.198007  
701.500000	54.180613  
702.000000	51.614689  
702.500000	49.466409  
703.000000	47.766272  
703.500000	46.744681  
704.000000	45.118560  
704.500000	44.563106  
705.000000	44.104931  
705.500000	43.849378  
706.000000	42.304946  
706.500000	40.536174  
707.000000	39.388590  
707.500000	39.012378  
708.000000	38.510924  
708.500000	37.342696  
709.000000	36.107159  
709.500000	34.668174  
710.000000	33.930696  
710.500000	32.976356  
711.000000	32.148030  
711.500000	31.023598  
712.000000	30.177030  
712.500000	29.563265  
713.000000	29.092106  
713.500000	28.293598  
714.000000	27.249409  
714.500000	26.875878  
715.000000	26.610969  
715.500000	26.560537  
716.000000	25.727772  
716.500000	24.833742  
717.000000	23.480840  
717.500000	22.640810  
718.000000	22.086962  
718.500000	21.630204  
719.000000	21.002962  
719.500000	20.345212  
720.000000	20.133909  
720.500000	19.905295  
721.000000	19.435916  
721.500000	18.782075  
722.000000	18.345287  
722.500000	17.749954  
723.000000	17.130696  
723.500000	16.813674  
724.000000	17.132227  
724.500000	17.217106  
725.000000	16.587159  
725.500000	15.330537  
726.000000	14.660863  
726.500000	14.613128  
727.000000	14.811037  
727.500000	14.471939  
728.000000	13.853984  
728.500000	13.276075  
729.000000	13.105045  
729.500000	13.238371  
730.000000	13.338530  
730.500000	13.017583  
731.000000	12.418734  
731.500000	11.972151  
732.000000	11.777954  
732.500000	11.875909  
733.000000	11.864401  
733.500000	12.083007  
734.000000	12.097803  
734.500000	11.677318  
735.000000	10.860946  
735.500000	10.273803  
736.000000	10.045924  
736.500000	9.884606   
737.000000	9.815371   
737.500000	9.699992   
738.000000	9.797181   
738.500000	9.786227   
739.000000	10.022424  
739.500000	10.270303  
740.000000	9.914272   
740.500000	9.125962   
741.000000	8.513386   
741.500000	8.504606   
742.000000	8.500484   
742.500000	8.272295   
743.000000	7.935553   
743.500000	7.945560   
744.000000	7.869477   
744.500000	7.757272   
745.000000	7.604598   
745.500000	7.496166   
746.000000	7.283795   
746.500000	7.091189   
747.000000	6.998272   
747.500000	7.163272   
748.000000	7.074787   
748.500000	6.774098   
749.000000	6.497371   
749.500000	6.479689   
750.000000	6.487295   
750.500000	6.488363   
751.000000	6.407106   
751.500000	6.255060   
752.000000	6.163666   
752.500000	6.176431   
753.000000	6.355765   
753.500000	6.279484   
754.000000	5.973621   
754.500000	5.472106   
755.000000	5.283765   
755.500000	5.360833   
756.000000	5.586015   
756.500000	5.594530   
757.000000	5.588878   
757.500000	5.670424   
758.000000	5.704371   
758.500000	5.425666   
759.000000	5.051227   
759.500000	4.904053   
760.000000	5.010825   
760.500000	5.000280   
761.000000	4.907583   
761.500000	4.706234   
762.000000	4.735515   
762.500000	4.607613   
763.000000	4.418742   
763.500000	4.127416   
764.000000	4.256310   
764.500000	4.572530   
765.000000	4.852401   
765.500000	4.785545   
766.000000	4.592598   
766.500000	4.353598   
767.000000	4.336712   
767.500000	4.467515   
768.000000	4.498477   
768.500000	4.358189   
769.000000	4.252787   
769.500000	4.278227   
770.000000	4.353803   
770.500000	4.282871   
771.000000	4.049871   
771.500000	3.842522   
772.000000	3.493545   
772.500000	3.472446   
773.000000	3.615560   
773.500000	3.860000   
774.000000	3.684159   
774.500000	3.504537   
775.000000	3.374204   
775.500000	3.632325   
776.000000	3.739325   
776.500000	3.593484   
777.000000	3.236848   
777.500000	3.059878   
778.000000	3.198196   
778.500000	3.400962   
779.000000	3.411590   
779.500000	3.316401   
780.000000	3.277265   
780.500000	3.174492   
781.000000	2.959204   
781.500000	2.851250   
782.000000	2.932719   
782.500000	3.105621   
783.000000	3.120924   
783.500000	3.077227   
784.000000	3.069742   
784.500000	3.220409   
785.000000	3.313409   
785.500000	3.259234   
786.000000	3.056462   
786.500000	2.988083   
787.000000	3.052431   
787.500000	3.136166   
788.000000	3.107159   
788.500000	3.068606   
789.000000	3.001295   
789.500000	2.932772   
790.000000	2.923227   
790.500000	2.998939   
791.000000	3.069507   
791.500000	3.044719   
792.000000	3.008151   
792.500000	2.919060   
793.000000	2.889310   
793.500000	2.855537   
794.000000	2.910250   
794.500000	2.938128   
795.000000	2.919242   
795.500000	2.782931   
796.000000	2.673121   
796.500000	2.635674   
797.000000	2.721886   
797.500000	2.866984   
798.000000	2.932409   
798.500000	2.850068   
799.000000	2.687795   
799.500000	2.691439   
800.000000	2.619871   
800.500000	2.464886   
801.000000	2.295409   
801.500000	2.518810   
802.000000	2.728893   
802.500000	2.668037   
803.000000	2.251053   
803.500000	2.054424   
804.000000	2.017356   
804.500000	2.125257   
805.000000	2.116053   
805.500000	2.105674   
806.000000	2.148893   
806.500000	2.236977   
807.000000	2.202371   
807.500000	2.055227   
808.000000	1.914219   
808.500000	1.772878   
809.000000	1.787310   
809.500000	1.940257   
810.000000	2.145007   
810.500000	2.157719   
811.000000	1.931318   
811.500000	1.775954   
812.000000	1.733287   
812.500000	1.793090   
813.000000	1.858272   
813.500000	1.956757   
814.000000	1.751454   
814.500000	1.469500   
815.000000	1.313962   
815.500000	1.509590   
816.000000	1.796515   
816.500000	1.939636   
817.000000	1.945719   
817.500000	1.897795   
818.000000	1.738060   
818.500000	1.731939   
819.000000	1.950492   
819.500000	2.218075   
820.000000	2.102015   
820.500000	1.968628   
821.000000	1.844121   
821.500000	2.035378   
822.000000	2.202780   
822.500000	2.300515   
823.000000	2.330893   
823.500000	2.327772   
824.000000	2.261037   
824.500000	2.082643   
825.000000	1.955090   
825.500000	2.006681   
826.000000	2.270121   
826.500000	2.372075   
827.000000	2.297030   
827.500000	2.204204   
828.000000	2.109250   
828.500000	2.004500   
829.000000	1.900825   
829.500000	1.724053   
830.000000	1.498371   
830.500000	1.403393   
831.000000	1.453765   
831.500000	1.584477   
832.000000	1.448681   
832.500000	1.272492   
833.000000	1.107992   
833.500000	1.081583   
834.000000	0.996946   
834.500000	0.925318   
835.000000	1.020924   
835.500000	1.187303   
836.000000	1.268765   
836.500000	1.114310   
837.000000	1.019037   
837.500000	1.033840   
838.000000	1.218856   
838.500000	1.234181   
839.000000	1.116333   
839.500000	0.924727   
840.000000	0.815833   
840.500000	0.845522   
841.000000	0.921507   
841.500000	0.892469   
842.000000	0.760174   
842.500000	0.614946   
843.000000	0.545696   
843.500000	0.532780   
844.000000	0.552946   
844.500000	0.508181   
845.000000	0.542878   
845.500000	0.610227   
846.000000	0.601818   
846.500000	0.489106   
847.000000	0.304371   
847.500000	0.224939   
848.000000	0.086833   
848.500000	0.033234   
849.000000	0.061083   
849.500000	0.246303   
850.000000	0.292666   
850.500000	0.207696   
851.000000	0.270416   
851.500000	0.436143   
852.000000	0.573106   
852.500000	0.554901   
853.000000	0.511250   
853.500000	0.465628   
854.000000	0.380393   
854.500000	0.293689   
855.000000	0.304568   
855.500000	0.370901   
856.000000	0.242515   
856.500000	0.065780   
857.000000	-0.023787  
857.500000	0.019454   
858.000000	0.079704   
858.500000	0.130772   
859.000000	0.181356   
859.500000	0.201893   
860.000000	0.227772   
860.500000	0.275378   
861.000000	0.366621   
861.500000	0.297053   
862.000000	0.111492   
862.500000	-0.040651  
863.000000	0.028053   
863.500000	0.222734   
864.000000	0.318068   
864.500000	0.281431   
865.000000	0.157189   
865.500000	0.108378   
866.000000	0.117818   
866.500000	0.157765   
867.000000	0.150060   
867.500000	0.012424   
868.000000	-0.179742  
868.500000	-0.281999  
869.000000	-0.252674  
869.500000	-0.224037  
870.000000	-0.187863  
870.500000	-0.092037  
871.000000	0.089280   
871.500000	0.197666   
872.000000	0.086659   
872.500000	-0.127825  
873.000000	-0.206333  
873.500000	-0.158287  
874.000000	-0.108916  
874.500000	-0.095969  
875.000000	-0.137575  
875.500000	-0.184272  
876.000000	-0.251833  
876.500000	-0.306416  
877.000000	-0.335606  
877.500000	-0.290174  
878.000000	-0.172507  
878.500000	0.008992   
879.000000	0.129787   
879.500000	0.107833   
880.000000	-0.030477  
880.500000	-0.075772  
881.000000	-0.008348  
881.500000	0.104469   
882.000000	0.065666   
882.500000	-0.057462  
883.000000	-0.132287  
883.500000	-0.135227  
884.000000	-0.106143  
884.500000	-0.030310  
885.000000	0.041734   
885.500000	0.000325   
886.000000	-0.125992  
886.500000	-0.190340  
887.000000	-0.135257  
887.500000	0.008689   
888.000000	0.110303   
888.500000	0.139515   
889.000000	0.117803   
889.500000	0.086045   
890.000000	0.085568   
890.500000	0.026121   
891.000000	-0.070878  
891.500000	-0.142439  
892.000000	-0.110166  
892.500000	-0.092590  
893.000000	-0.072462  
893.500000	0.001780   
894.000000	0.066022   
894.500000	0.060780   
895.000000	0.002689   
895.500000	0.045204   
896.000000	0.095575   
896.500000	0.100818   
897.000000	0.011401   
897.500000	-0.005416  

