PE FL                   SPECTRUM    ASCII       PEDS        1.60        
  -1
SAA399~1.SP
24/04/12
16:44:48.00
24/04/12
16:44:48.00
Jan

897.500000
1









LS55
405.00
5.00
5.00
SCAN
1
20
100
100
0
400
0
1
0
1
5
ON
450 405 
1 0 0
#HDR
-1
-1
#GR
NM

0.00002384185791015625
0.0
450.000000
0.500000
896
8
246.186590
-0.291015
#DATA
450.000000	0.711000   
450.500000	0.457833   
451.000000	0.258325   
451.500000	0.086128   
452.000000	0.075348   
452.500000	0.153409   
453.000000	0.259515   
453.500000	0.090757   
454.000000	-0.080537  
454.500000	-0.129166  
455.000000	0.030227   
455.500000	0.067674   
456.000000	0.083583   
456.500000	0.095106   
457.000000	0.192060   
457.500000	0.179696   
458.000000	0.063992   
458.500000	-0.141143  
459.000000	-0.110272  
459.500000	0.135515   
460.000000	0.339045   
460.500000	0.368818   
461.000000	0.163136   
461.500000	-0.052659  
462.000000	-0.176265  
462.500000	-0.238106  
463.000000	-0.268318  
463.500000	-0.242371  
464.000000	-0.143113  
464.500000	0.065696   
465.000000	0.217780   
465.500000	0.277651   
466.000000	0.214689   
466.500000	0.048151   
467.000000	-0.180643  
467.500000	-0.228090  
468.000000	-0.112651  
468.500000	0.171280   
469.000000	0.297469   
469.500000	0.146166   
470.000000	-0.143719  
470.500000	-0.291015  
471.000000	-0.060810  
471.500000	0.222090   
472.000000	0.396765   
472.500000	0.321363   
473.000000	0.182553   
473.500000	-0.025560  
474.000000	-0.072265  
474.500000	-0.037234  
475.000000	-0.007803  
475.500000	-0.086386  
476.000000	-0.078750  
476.500000	0.073189   
477.000000	0.236454   
477.500000	0.283015   
478.000000	0.125416   
478.500000	0.072696   
479.000000	0.163113   
479.500000	0.277280   
480.000000	0.188189   
480.500000	0.066530   
481.000000	0.051000   
481.500000	0.212704   
482.000000	0.334075   
482.500000	0.316348   
483.000000	0.166992   
483.500000	-0.005181  
484.000000	0.036606   
484.500000	0.266757   
485.000000	0.250560   
485.500000	0.010340   
486.000000	-0.188174  
486.500000	0.007174   
487.000000	0.196196   
487.500000	0.278621   
488.000000	0.172166   
488.500000	0.038598   
489.000000	-0.174757  
489.500000	-0.117984  
490.000000	0.120553   
490.500000	0.242090   
491.000000	0.052060   
491.500000	-0.089962  
492.000000	0.000681   
492.500000	0.202507   
493.000000	0.344931   
493.500000	0.492075   
494.000000	0.483840   
494.500000	0.303643   
495.000000	0.207045   
495.500000	0.381666   
496.000000	0.585287   
496.500000	0.581090   
497.000000	0.414234   
497.500000	0.383590   
498.000000	0.493795   
498.500000	0.562727   
499.000000	0.383303   
499.500000	0.136446   
500.000000	-0.071189  
500.500000	0.023439   
501.000000	0.292431   
501.500000	0.638181   
502.000000	0.817583   
502.500000	0.868946   
503.000000	0.874060   
503.500000	0.898462   
504.000000	0.865810   
504.500000	0.674295   
505.000000	0.537143   
505.500000	0.511060   
506.000000	0.743234   
506.500000	0.908484   
507.000000	0.981234   
507.500000	0.875265   
508.000000	0.794750   
508.500000	0.705825   
509.000000	0.689227   
509.500000	0.800833   
510.000000	0.944598   
510.500000	1.068628   
511.000000	1.089643   
511.500000	1.150007   
512.000000	1.191522   
512.500000	1.260969   
513.000000	1.275704   
513.500000	1.181022   
514.000000	1.143371   
514.500000	1.260204   
515.000000	1.560810   
515.500000	1.723863   
516.000000	1.645719   
516.500000	1.367780   
517.000000	1.359719   
517.500000	1.514893   
518.000000	1.817409   
518.500000	1.933909   
519.000000	1.986977   
519.500000	2.010659   
520.000000	2.200780   
520.500000	2.412196   
521.000000	2.596931   
521.500000	2.589083   
522.000000	2.399984   
522.500000	2.241696   
523.000000	2.253636   
523.500000	2.489500   
524.000000	2.800492   
524.500000	2.959318   
525.000000	3.007719   
525.500000	3.113303   
526.000000	3.315810   
526.500000	3.518113   
527.000000	3.625901   
527.500000	3.741446   
528.000000	4.016787   
528.500000	4.264393   
529.000000	4.263143   
529.500000	4.248651   
530.000000	4.498757   
530.500000	4.798893   
531.000000	4.912015   
531.500000	5.002204   
532.000000	5.400106   
532.500000	5.940090   
533.000000	6.217643   
533.500000	6.343924   
534.000000	6.595939   
534.500000	6.827151   
535.000000	6.965393   
535.500000	7.038462   
536.000000	7.585287   
536.500000	8.250825   
537.000000	8.883310   
537.500000	8.919212   
538.000000	9.294992   
538.500000	9.483863   
539.000000	9.716310   
539.500000	9.508863   
540.000000	9.872068   
540.500000	10.561401  
541.000000	11.407166  
541.500000	11.634969  
542.000000	11.335159  
542.500000	10.936674  
543.000000	10.858696  
543.500000	11.144060  
544.000000	11.178772  
544.500000	11.242500  
545.000000	11.334280  
545.500000	11.671772  
546.000000	11.777143  
546.500000	11.617878  
547.000000	11.303575  
547.500000	11.132636  
548.000000	11.200416  
548.500000	11.233628  
549.000000	11.157886  
549.500000	10.943257  
550.000000	11.090015  
550.500000	11.173848  
551.000000	11.225431  
551.500000	11.182606  
552.000000	11.419704  
552.500000	11.913007  
553.000000	12.540787  
553.500000	12.833401  
554.000000	12.626840  
554.500000	12.277219  
555.000000	12.005128  
555.500000	12.016522  
556.000000	12.249590  
556.500000	12.834424  
557.000000	13.361909  
557.500000	13.640386  
558.000000	13.697568  
558.500000	13.966863  
559.000000	14.212537  
559.500000	14.326477  
560.000000	14.604492  
560.500000	14.872174  
561.000000	15.189742  
561.500000	15.207446  
562.000000	15.509530  
562.500000	16.082560  
563.000000	16.916000  
563.500000	17.512189  
564.000000	18.075780  
564.500000	18.596878  
565.000000	19.247219  
565.500000	19.908848  
566.000000	20.328446  
566.500000	20.551022  
567.000000	20.773765  
567.500000	21.177159  
568.000000	21.713416  
568.500000	22.054757  
569.000000	22.489931  
569.500000	23.078916  
570.000000	23.593287  
570.500000	24.019992  
571.000000	24.344787  
571.500000	25.006628  
572.000000	25.714181  
572.500000	26.081136  
573.000000	25.855257  
573.500000	25.538696  
574.000000	25.728939  
574.500000	26.831454  
575.000000	28.089878  
575.500000	28.795598  
576.000000	28.994022  
576.500000	29.073393  
577.000000	29.703659  
577.500000	30.911765  
578.000000	31.561257  
578.500000	31.742689  
579.000000	31.591787  
579.500000	32.077833  
580.000000	32.658106  
580.500000	33.558356  
581.000000	34.596712  
581.500000	35.779181  
582.000000	36.263969  
582.500000	36.364204  
583.000000	36.752340  
583.500000	37.517469  
584.000000	38.398666  
584.500000	39.173393  
585.000000	40.232772  
585.500000	41.508507  
586.000000	42.338507  
586.500000	42.321007  
587.000000	42.131909  
587.500000	42.629015  
588.000000	43.745651  
588.500000	45.460969  
589.000000	47.120924  
589.500000	48.740280  
590.000000	49.337545  
590.500000	49.612363  
591.000000	49.415659  
591.500000	49.987818  
592.000000	51.066113  
592.500000	52.435666  
593.000000	53.374916  
593.500000	54.030128  
594.000000	55.761303  
594.500000	57.332287  
595.000000	58.340803  
595.500000	58.063749  
596.000000	58.947287  
596.500000	60.025128  
597.000000	61.456492  
597.500000	61.917651  
598.000000	63.054106  
598.500000	64.744340  
599.000000	67.611825  
599.500000	69.246719  
600.000000	70.129628  
600.500000	70.684856  
601.000000	72.312007  
601.500000	73.821946  
602.000000	75.265272  
602.500000	76.730234  
603.000000	78.798022  
603.500000	80.243568  
604.000000	80.451818  
604.500000	80.475977  
605.000000	81.133727  
605.500000	82.803560  
606.000000	84.926303  
606.500000	86.760446  
607.000000	88.026204  
607.500000	89.450659  
608.000000	91.862590  
608.500000	94.108719  
609.000000	95.633530  
609.500000	96.102583  
610.000000	97.438628  
610.500000	99.117833  
611.000000	101.487409 
611.500000	103.876053 
612.000000	107.168553 
612.500000	110.247780 
613.000000	112.493696 
613.500000	114.176181 
614.000000	115.692446 
614.500000	117.401893 
615.000000	118.412962 
615.500000	119.826856 
616.000000	120.905500 
616.500000	123.869227 
617.000000	126.268825 
617.500000	128.710931 
618.000000	129.634227 
618.500000	131.379969 
619.000000	133.416856 
619.500000	136.844515 
620.000000	140.270507 
620.500000	143.401189 
621.000000	144.964401 
621.500000	145.747386 
622.000000	147.615795 
622.500000	149.731454 
623.000000	150.968083 
623.500000	151.335204 
624.000000	153.615303 
624.500000	158.278439 
625.000000	163.156803 
625.500000	165.994977 
626.000000	167.936219 
626.500000	170.477492 
627.000000	173.158303 
627.500000	176.593409 
628.000000	179.794840 
628.500000	184.348515 
629.000000	186.966704 
629.500000	188.278643 
630.000000	187.411962 
630.500000	189.623621 
631.000000	192.868227 
631.500000	197.947643 
632.000000	200.060068 
632.500000	200.590795 
633.000000	200.804719 
633.500000	203.294818 
634.000000	206.413310 
634.500000	208.636265 
635.000000	210.386757 
635.500000	212.168318 
636.000000	214.996946 
636.500000	217.926689 
637.000000	222.264409 
637.500000	226.582477 
638.000000	229.831098 
638.500000	230.858909 
639.000000	230.597030 
639.500000	229.105386 
640.000000	228.761712 
640.500000	230.396840 
641.000000	233.412962 
641.500000	235.877674 
642.000000	237.922674 
642.500000	239.545128 
643.000000	240.192719 
643.500000	239.895696 
644.000000	240.346462 
644.500000	240.981598 
645.000000	241.692484 
645.500000	242.483439 
646.000000	245.571219 
646.500000	246.186590 
647.000000	244.603219 
647.500000	241.280060 
648.000000	240.239825 
648.500000	240.987939 
649.000000	242.364901 
649.500000	243.754219 
650.000000	243.821757 
650.500000	243.341787 
651.000000	242.180287 
651.500000	243.166060 
652.000000	243.395651 
652.500000	243.224825 
653.000000	241.453553 
653.500000	240.698719 
654.000000	241.071893 
654.500000	241.471606 
655.000000	239.655878 
655.500000	235.461810 
656.000000	232.127113 
656.500000	230.064969 
657.000000	229.705810 
657.500000	228.488803 
658.000000	227.372780 
658.500000	224.977590 
659.000000	222.904871 
659.500000	219.688393 
660.000000	215.785651 
660.500000	212.805340 
661.000000	211.487507 
661.500000	211.214106 
662.000000	208.488477 
662.500000	204.119818 
663.000000	199.827674 
663.500000	197.058234 
664.000000	193.454371 
664.500000	189.708181 
665.000000	185.648719 
665.500000	182.198143 
666.000000	178.538219 
666.500000	175.693909 
667.000000	172.292984 
667.500000	169.347295 
668.000000	166.149901 
668.500000	163.447189 
669.000000	159.475606 
669.500000	155.254840 
670.000000	152.101545 
670.500000	150.049462 
671.000000	146.307227 
671.500000	141.512530 
672.000000	138.161681 
672.500000	135.871007 
673.000000	132.700022 
673.500000	128.149757 
674.000000	124.130424 
674.500000	121.347871 
675.000000	118.517053 
675.500000	114.757628 
676.000000	111.019166 
676.500000	107.549750 
677.000000	104.519303 
677.500000	101.678931 
678.000000	99.075212  
678.500000	96.689954  
679.000000	93.868083  
679.500000	90.408598  
680.000000	87.296196  
680.500000	84.869106  
681.000000	82.753121  
681.500000	80.661500  
682.000000	78.033598  
682.500000	75.628378  
683.000000	73.530007  
683.500000	72.116893  
684.000000	70.226530  
684.500000	68.287045  
685.000000	65.770121  
685.500000	63.196833  
686.000000	59.847598  
686.500000	57.885598  
687.000000	56.918272  
687.500000	56.322772  
688.000000	54.350257  
688.500000	52.591378  
689.000000	51.426568  
689.500000	50.506469  
690.000000	48.683856  
690.500000	46.916712  
691.000000	45.298189  
691.500000	43.813090  
692.000000	42.235454  
692.500000	40.744712  
693.000000	39.520159  
693.500000	38.450833  
694.000000	37.542196  
694.500000	36.444863  
695.000000	35.153825  
695.500000	33.797386  
696.000000	32.892954  
696.500000	31.699265  
697.000000	30.251022  
697.500000	28.915651  
698.000000	28.652106  
698.500000	28.938500  
699.000000	28.855356  
699.500000	27.892204  
700.000000	26.200083  
700.500000	24.942954  
701.000000	24.382863  
701.500000	24.325462  
702.000000	23.874977  
702.500000	23.261113  
703.000000	22.395484  
703.500000	21.769454  
704.000000	21.064810  
704.500000	20.474916  
705.000000	19.926113  
705.500000	19.379030  
706.000000	19.033977  
706.500000	18.904780  
707.000000	18.518212  
707.500000	17.885977  
708.000000	17.446636  
708.500000	17.261780  
709.000000	17.108174  
709.500000	16.774674  
710.000000	16.547325  
710.500000	15.902000  
711.000000	15.243227  
711.500000	14.827363  
712.000000	15.039803  
712.500000	14.953454  
713.000000	14.493340  
713.500000	13.914265  
714.000000	13.474022  
714.500000	13.121356  
715.000000	12.654234  
715.500000	12.428674  
716.000000	12.072265  
716.500000	12.023393  
717.000000	11.844477  
717.500000	11.742166  
718.000000	11.424166  
718.500000	11.150560  
719.000000	10.900234  
719.500000	10.737916  
720.000000	10.780340  
720.500000	11.112689  
721.000000	11.253128  
721.500000	10.893530  
722.000000	10.198484  
722.500000	9.799795   
723.000000	9.581840   
723.500000	9.552242   
724.000000	9.243909   
724.500000	8.744772   
725.000000	8.333590   
725.500000	8.173325   
726.000000	8.427901   
726.500000	8.423727   
727.000000	8.283856   
727.500000	7.935181   
728.000000	8.052242   
728.500000	8.042318   
729.000000	7.977977   
729.500000	7.567765   
730.000000	7.363946   
730.500000	7.419098   
731.000000	7.611340   
731.500000	7.380484   
732.000000	7.008613   
732.500000	6.739575   
733.000000	6.827893   
733.500000	6.913537   
734.000000	6.989696   
734.500000	6.937272   
735.000000	6.857643   
735.500000	6.670939   
736.000000	6.421727   
736.500000	6.151196   
737.000000	5.847500   
737.500000	5.762924   
738.000000	5.890356   
738.500000	6.180318   
739.000000	6.248840   
739.500000	6.126863   
740.000000	5.868174   
740.500000	5.615537   
741.000000	5.397045   
741.500000	5.315757   
742.000000	5.339696   
742.500000	5.541560   
743.000000	5.581977   
743.500000	5.451712   
744.000000	5.156530   
744.500000	4.974310   
745.000000	4.818522   
745.500000	4.724356   
746.000000	4.695484   
746.500000	4.737333   
747.000000	4.760045   
747.500000	4.542287   
748.000000	4.514310   
748.500000	4.404272   
749.000000	4.352856   
749.500000	4.262992   
750.000000	4.474325   
750.500000	4.569636   
751.000000	4.560090   
751.500000	4.399045   
752.000000	4.305303   
752.500000	4.154734   
753.000000	4.148916   
753.500000	4.197954   
754.000000	4.210992   
754.500000	4.263227   
755.000000	4.383560   
755.500000	4.451333   
756.000000	4.306401   
756.500000	4.078901   
757.000000	3.976000   
757.500000	3.993840   
758.000000	3.911159   
758.500000	3.752462   
759.000000	3.584022   
759.500000	3.459181   
760.000000	3.509863   
760.500000	3.743333   
761.000000	3.986522   
761.500000	4.148575   
762.000000	4.003015   
762.500000	3.875325   
763.000000	3.742196   
763.500000	3.691787   
764.000000	3.492409   
764.500000	3.518969   
765.000000	3.555212   
765.500000	3.570106   
766.000000	3.410469   
766.500000	3.438318   
767.000000	3.578803   
767.500000	3.649772   
768.000000	3.466750   
768.500000	3.228568   
769.000000	3.104931   
769.500000	3.292674   
770.000000	3.541272   
770.500000	3.532924   
771.000000	3.229969   
771.500000	3.081295   
772.000000	3.189083   
772.500000	3.307878   
773.000000	3.198893   
773.500000	3.079606   
774.000000	3.059113   
774.500000	3.201909   
775.000000	3.312212   
775.500000	3.393696   
776.000000	3.292833   
776.500000	3.083515   
777.000000	2.923159   
777.500000	2.917371   
778.000000	3.051219   
778.500000	3.159931   
779.000000	3.129227   
779.500000	2.884749   
780.000000	2.729863   
780.500000	2.647825   
781.000000	2.721939   
781.500000	2.711719   
782.000000	2.697628   
782.500000	2.665810   
783.000000	2.774583   
783.500000	2.902696   
784.000000	3.067166   
784.500000	3.144931   
785.000000	3.146742   
785.500000	3.042984   
786.000000	2.941106   
786.500000	2.858363   
787.000000	2.821318   
787.500000	2.754166   
788.000000	2.737189   
788.500000	2.750856   
789.000000	2.874075   
789.500000	2.939333   
790.000000	3.037151   
790.500000	3.005901   
791.000000	2.928734   
791.500000	2.896977   
792.000000	2.822878   
792.500000	2.797484   
793.000000	2.574621   
793.500000	2.418606   
794.000000	2.242977   
794.500000	2.367590   
795.000000	2.353454   
795.500000	2.445803   
796.000000	2.496909   
796.500000	2.621712   
797.000000	2.365696   
797.500000	1.918515   
798.000000	1.772772   
798.500000	2.151969   
799.000000	2.508007   
799.500000	2.499772   
800.000000	2.175681   
800.500000	1.838500   
801.000000	1.718719   
801.500000	1.900318   
802.000000	2.184469   
802.500000	2.092098   
803.000000	1.729318   
803.500000	1.450568   
804.000000	1.621909   
804.500000	1.845696   
805.000000	1.937083   
805.500000	1.720818   
806.000000	1.566628   
806.500000	1.560871   
807.000000	1.773098   
807.500000	1.881303   
808.000000	1.737219   
808.500000	1.413878   
809.000000	1.287833   
809.500000	1.531901   
810.000000	1.877674   
810.500000	2.011560   
811.000000	1.783386   
811.500000	1.618507   
812.000000	1.605939   
812.500000	1.759401   
813.000000	1.724893   
813.500000	1.585507   
814.000000	1.384856   
814.500000	1.359500   
815.000000	1.408924   
815.500000	1.604068   
816.000000	1.663977   
816.500000	1.465196   
817.000000	1.230446   
817.500000	1.295742   
818.000000	1.587159   
818.500000	1.610681   
819.000000	1.459628   
819.500000	1.413295   
820.000000	1.596810   
820.500000	1.725227   
821.000000	1.835219   
821.500000	1.924939   
822.000000	1.995128   
822.500000	2.027045   
823.000000	2.141371   
823.500000	2.284969   
824.000000	2.414962   
824.500000	2.524113   
825.000000	2.700234   
825.500000	2.651454   
826.000000	2.346878   
826.500000	1.990643   
827.000000	1.882734   
827.500000	1.934863   
828.000000	1.940250   
828.500000	1.775401   
829.000000	1.536090   
829.500000	1.361893   
830.000000	1.280045   
830.500000	1.248992   
831.000000	1.230500   
831.500000	1.178295   
832.000000	1.114219   
832.500000	1.071719   
833.000000	1.019113   
833.500000	1.040727   
834.000000	1.053545   
834.500000	1.098878   
835.000000	1.036984   
835.500000	0.963962   
836.000000	0.886545   
836.500000	0.935962   
837.000000	1.027045   
837.500000	1.044090   
838.000000	0.969856   
838.500000	0.923500   
839.000000	0.927992   
839.500000	0.917106   
840.000000	0.826590   
840.500000	0.735068   
841.000000	0.630659   
841.500000	0.538439   
842.000000	0.457128   
842.500000	0.574666   
843.000000	0.789674   
843.500000	0.876030   
844.000000	0.725151   
844.500000	0.645083   
845.000000	0.653689   
845.500000	0.645969   
846.000000	0.446446   
846.500000	0.303878   
847.000000	0.317568   
847.500000	0.419227   
848.000000	0.381916   
848.500000	0.333992   
849.000000	0.379234   
849.500000	0.409742   
850.000000	0.314765   
850.500000	0.108598   
851.000000	0.035356   
851.500000	0.148295   
852.000000	0.292568   
852.500000	0.283999   
853.000000	0.207295   
853.500000	0.100916   
854.000000	0.010856   
854.500000	-0.036787  
855.000000	-0.005598  
855.500000	0.134545   
856.000000	0.249909   
856.500000	0.265666   
857.000000	0.149310   
857.500000	0.070083   
858.000000	0.024590   
858.500000	0.118030   
859.000000	0.189439   
859.500000	0.156181   
860.000000	-0.046962  
860.500000	-0.166174  
861.000000	-0.190825  
861.500000	-0.174250  
862.000000	-0.261750  
862.500000	-0.258424  
863.000000	-0.190893  
863.500000	-0.131606  
864.000000	-0.161583  
864.500000	-0.143803  
865.000000	-0.029409  
865.500000	0.095416   
866.000000	0.179484   
866.500000	0.174446   
867.000000	0.151583   
867.500000	0.144696   
868.000000	0.170212   
868.500000	0.084477   
869.000000	-0.032696  
869.500000	-0.081371  
870.000000	0.017999   
870.500000	0.039431   
871.000000	-0.038022  
871.500000	-0.176462  
872.000000	-0.193977  
872.500000	-0.130742  
873.000000	0.010893   
873.500000	0.080068   
874.000000	0.071318   
874.500000	0.091803   
875.000000	0.171166   
875.500000	0.216143   
876.000000	0.132598   
876.500000	0.126393   
877.000000	0.184469   
877.500000	0.210469   
878.000000	0.068689   
878.500000	-0.037151  
879.000000	-0.066090  
879.500000	0.011727   
880.000000	0.126848   
880.500000	0.199856   
881.000000	0.141704   
881.500000	-0.010575  
882.000000	-0.065780  
882.500000	0.042227   
883.000000	0.149234   
883.500000	0.132219   
884.000000	0.064931   
884.500000	0.040590   
885.000000	0.052446   
885.500000	0.095590   
886.000000	0.071257   
886.500000	0.018848   
887.000000	-0.056083  
887.500000	-0.092477  
888.000000	-0.035454  
888.500000	0.053507   
889.000000	0.083643   
889.500000	0.052553   
890.000000	0.020507   
890.500000	-0.004833  
891.000000	0.042750   
891.500000	0.097909   
892.000000	0.109575   
892.500000	0.003287   
893.000000	-0.103530  
893.500000	-0.157909  
894.000000	-0.126174  
894.500000	-0.107075  
895.000000	-0.087371  
895.500000	-0.068454  
896.000000	-0.033537  
896.500000	-0.060613  
897.000000	-0.075356  
897.500000	-0.087409  

