PE FL                   SPECTRUM    ASCII       PEDS        1.60        
  -1
SA9381~1.SP
24/04/12
16:13:26.00
24/04/12
16:13:26.00
Jan

897.500000
1









LS55
405.00
5.00
5.00
SCAN
1
20
100
100
0
400
0
1
0
1
5
ON
450 405 
1 0 0
#HDR
-1
-1
#GR
NM

0.00002384185791015625
0.0
450.000000
0.500000
896
8
332.452212
-1.015000
#DATA
450.000000	-1.015000  
450.500000	-0.419606  
451.000000	-0.205537  
451.500000	-0.154924  
452.000000	-0.013454  
452.500000	0.076492   
453.000000	-0.044348  
453.500000	-0.057431  
454.000000	0.082810   
454.500000	0.179143   
455.000000	0.030113   
455.500000	-0.073477  
456.000000	-0.071287  
456.500000	0.020969   
457.000000	0.110628   
457.500000	0.151325   
458.000000	0.136643   
458.500000	0.071348   
459.000000	0.071515   
459.500000	0.058560   
460.000000	0.012590   
460.500000	0.029878   
461.000000	0.115734   
461.500000	0.122893   
462.000000	-0.156378  
462.500000	-0.260393  
463.000000	-0.122856  
463.500000	0.082189   
464.000000	-0.052492  
464.500000	-0.170818  
465.000000	-0.095530  
465.500000	0.143318   
466.000000	0.201227   
466.500000	0.202666   
467.000000	0.242787   
467.500000	0.316037   
468.000000	0.284681   
468.500000	0.222863   
469.000000	0.241227   
469.500000	0.238712   
470.000000	0.196765   
470.500000	0.149643   
471.000000	0.243727   
471.500000	0.273356   
472.000000	0.217022   
472.500000	0.059424   
473.000000	-0.014325  
473.500000	-0.013219  
474.000000	0.123659   
474.500000	0.080409   
475.000000	-0.063037  
475.500000	-0.255113  
476.000000	-0.177818  
476.500000	-0.078924  
477.000000	0.062371   
477.500000	0.151340   
478.000000	0.213068   
478.500000	0.127409   
479.000000	-0.026212  
479.500000	0.122363   
480.000000	0.430613   
480.500000	0.572204   
481.000000	0.389704   
481.500000	0.188537   
482.000000	0.122712   
482.500000	0.068825   
483.000000	-0.003356  
483.500000	-0.003196  
484.000000	0.229469   
484.500000	0.284636   
485.000000	0.123143   
485.500000	-0.043060  
486.000000	-0.027143  
486.500000	0.103431   
487.000000	0.174871   
487.500000	0.213371   
488.000000	0.218075   
488.500000	0.332500   
489.000000	0.373871   
489.500000	0.331318   
490.000000	0.147916   
490.500000	0.016992   
491.000000	0.118431   
491.500000	0.218712   
492.000000	0.167037   
492.500000	-0.008401  
493.000000	-0.057068  
493.500000	0.011643   
494.000000	0.204803   
494.500000	0.140136   
495.000000	-0.015977  
495.500000	-0.084113  
496.000000	0.183189   
496.500000	0.382250   
497.000000	0.438181   
497.500000	0.271757   
498.000000	0.286553   
498.500000	0.254348   
499.000000	0.157287   
499.500000	0.043204   
500.000000	0.141613   
500.500000	0.379734   
501.000000	0.506734   
501.500000	0.534886   
502.000000	0.477931   
502.500000	0.495121   
503.000000	0.519818   
503.500000	0.648227   
504.000000	0.800598   
504.500000	0.829356   
505.000000	0.711977   
505.500000	0.590871   
506.000000	0.732356   
506.500000	0.822000   
507.000000	0.836780   
507.500000	0.668530   
508.000000	0.633583   
508.500000	0.608674   
509.000000	0.688515   
509.500000	0.696310   
510.000000	0.804560   
510.500000	0.837181   
511.000000	0.847750   
511.500000	0.814553   
512.000000	0.977871   
512.500000	1.100530   
513.000000	1.182954   
513.500000	1.213962   
514.000000	1.397280   
514.500000	1.583840   
515.000000	1.608045   
515.500000	1.466386   
516.000000	1.335583   
516.500000	1.373189   
517.000000	1.566348   
517.500000	1.969719   
518.000000	2.286234   
518.500000	2.299257   
519.000000	2.083272   
519.500000	2.019037   
520.000000	2.217772   
520.500000	2.373863   
521.000000	2.376886   
521.500000	2.212765   
522.000000	2.176439   
522.500000	2.104075   
523.000000	2.192439   
523.500000	2.339643   
524.000000	2.589257   
524.500000	2.718818   
525.000000	2.908083   
525.500000	3.110295   
526.000000	3.219643   
526.500000	3.078174   
527.000000	3.010696   
527.500000	3.307106   
528.000000	3.808636   
528.500000	4.008787   
529.000000	3.927090   
529.500000	3.857787   
530.000000	3.946530   
530.500000	4.210931   
531.000000	4.507924   
531.500000	4.928681   
532.000000	5.246083   
532.500000	5.403462   
533.000000	5.319469   
533.500000	5.409378   
534.000000	5.732515   
534.500000	6.360522   
535.000000	6.795674   
535.500000	6.930992   
536.000000	7.044674   
536.500000	7.369303   
537.000000	7.562515   
537.500000	7.536022   
538.000000	7.633166   
538.500000	8.188242   
539.000000	9.026810   
539.500000	9.783704   
540.000000	10.469545  
540.500000	10.891818  
541.000000	10.893431  
541.500000	10.849469  
542.000000	11.035659  
542.500000	11.434537  
543.000000	11.550401  
543.500000	11.542833  
544.000000	11.468515  
544.500000	11.570780  
545.000000	11.723765  
545.500000	12.027462  
546.000000	12.120636  
546.500000	12.145159  
547.000000	12.154712  
547.500000	12.111280  
548.000000	11.926098  
548.500000	11.817787  
549.000000	12.105643  
549.500000	12.444446  
550.000000	12.384484  
550.500000	11.970916  
551.000000	11.771878  
551.500000	11.861424  
552.000000	12.111090  
552.500000	12.203659  
553.000000	12.139196  
553.500000	11.992787  
554.000000	12.046750  
554.500000	12.047166  
555.000000	12.068318  
555.500000	12.149787  
556.000000	12.664401  
556.500000	13.050818  
557.000000	13.396318  
557.500000	13.624575  
558.000000	13.911484  
558.500000	13.944234  
559.000000	14.022931  
559.500000	14.304750  
560.000000	14.814000  
560.500000	15.147893  
561.000000	15.758060  
561.500000	16.521401  
562.000000	17.092545  
562.500000	16.971742  
563.000000	16.711340  
563.500000	16.949477  
564.000000	17.681257  
564.500000	18.452886  
565.000000	18.841833  
565.500000	19.260689  
566.000000	19.748962  
566.500000	20.640303  
567.000000	21.364166  
567.500000	22.053553  
568.000000	22.512553  
568.500000	23.010621  
569.000000	23.374818  
569.500000	23.804295  
570.000000	24.384424  
570.500000	25.098242  
571.000000	25.430787  
571.500000	25.432833  
572.000000	25.591954  
572.500000	26.583651  
573.000000	27.710083  
573.500000	28.409121  
574.000000	28.072833  
574.500000	28.235537  
575.000000	28.999871  
575.500000	30.213689  
576.000000	30.567234  
576.500000	30.521037  
577.000000	30.794840  
577.500000	31.827181  
578.000000	32.949265  
578.500000	33.597590  
579.000000	33.992280  
579.500000	34.344106  
580.000000	34.649340  
580.500000	34.893560  
581.000000	35.349992  
581.500000	36.272015  
582.000000	37.457606  
582.500000	38.598734  
583.000000	39.213984  
583.500000	39.548030  
584.000000	39.810893  
584.500000	40.470181  
585.000000	41.324916  
585.500000	41.990833  
586.000000	42.485348  
586.500000	43.491772  
587.000000	44.718878  
587.500000	45.841962  
588.000000	46.310750  
588.500000	47.527825  
589.000000	49.074863  
589.500000	50.835295  
590.000000	51.570689  
590.500000	52.599500  
591.000000	53.685492  
591.500000	54.880000  
592.000000	55.458545  
592.500000	56.053030  
593.000000	57.116242  
593.500000	58.249954  
594.000000	60.081787  
594.500000	62.070265  
595.000000	64.154037  
595.500000	65.246984  
596.000000	66.059378  
596.500000	66.703537  
597.000000	67.627204  
597.500000	68.666515  
598.000000	69.891416  
598.500000	71.448431  
599.000000	73.015636  
599.500000	74.509159  
600.000000	75.892386  
600.500000	77.018053  
601.000000	78.606787  
601.500000	80.732469  
602.000000	83.139371  
602.500000	83.798643  
603.000000	84.383757  
603.500000	85.521477  
604.000000	88.322242  
604.500000	90.240787  
605.000000	91.708295  
605.500000	92.924424  
606.000000	95.296068  
606.500000	97.078598  
607.000000	98.759492  
607.500000	100.524787 
608.000000	103.777159 
608.500000	107.601250 
609.000000	110.862454 
609.500000	111.996613 
610.000000	112.084378 
610.500000	113.141121 
611.000000	115.727053 
611.500000	118.485696 
612.000000	119.850106 
612.500000	120.888712 
613.000000	122.520356 
613.500000	124.952856 
614.000000	127.769553 
614.500000	131.585643 
615.000000	135.912159 
615.500000	139.409613 
616.000000	140.867977 
616.500000	141.512856 
617.000000	142.875219 
617.500000	145.682840 
618.000000	148.632628 
618.500000	152.514204 
619.000000	156.092181 
619.500000	159.537651 
620.000000	162.111757 
620.500000	165.212227 
621.000000	168.692696 
621.500000	171.972477 
622.000000	175.442106 
622.500000	178.026462 
623.000000	181.146674 
623.500000	183.859787 
624.000000	187.830803 
624.500000	190.850333 
625.000000	193.677439 
625.500000	195.559553 
626.000000	199.154007 
626.500000	202.827901 
627.000000	206.501242 
627.500000	209.917098 
628.000000	213.678257 
628.500000	217.852083 
629.000000	221.867613 
629.500000	225.064333 
630.000000	227.579000 
630.500000	231.678856 
631.000000	237.410757 
631.500000	243.405393 
632.000000	247.137340 
632.500000	249.082136 
633.000000	251.586265 
633.500000	254.617469 
634.000000	258.100007 
634.500000	260.219250 
635.000000	262.566515 
635.500000	265.752803 
636.000000	270.629583 
636.500000	275.116522 
637.000000	278.119401 
637.500000	279.580386 
638.000000	280.404098 
638.500000	281.595583 
639.000000	283.315924 
639.500000	286.953098 
640.000000	291.746727 
640.500000	296.971530 
641.000000	300.633204 
641.500000	302.674560 
642.000000	303.766840 
642.500000	306.228280 
643.000000	308.856083 
643.500000	311.289106 
644.000000	313.623310 
644.500000	316.973810 
645.000000	319.127363 
645.500000	320.008068 
646.000000	320.389212 
646.500000	322.026356 
647.000000	324.248340 
647.500000	326.084515 
648.000000	327.016030 
648.500000	327.785757 
649.000000	328.620795 
649.500000	328.636780 
650.000000	328.795090 
650.500000	328.718992 
651.000000	329.706689 
651.500000	330.274446 
652.000000	330.461704 
652.500000	331.030007 
653.000000	331.806075 
653.500000	332.452212 
654.000000	331.820371 
654.500000	331.042825 
655.000000	328.650742 
655.500000	326.767310 
656.000000	324.724651 
656.500000	325.159106 
657.000000	325.629303 
657.500000	324.661727 
658.000000	321.287621 
658.500000	318.040924 
659.000000	317.428446 
659.500000	318.423340 
660.000000	318.104734 
660.500000	315.595969 
661.000000	312.470371 
661.500000	308.490295 
662.000000	302.987348 
662.500000	297.874439 
663.000000	295.165393 
663.500000	295.046765 
664.000000	292.469303 
664.500000	287.238303 
665.000000	281.241106 
665.500000	278.949484 
666.000000	277.649613 
666.500000	275.321318 
667.000000	270.861568 
667.500000	265.239931 
668.000000	259.931659 
668.500000	255.292121 
669.000000	252.001992 
669.500000	248.600962 
670.000000	245.001840 
670.500000	240.378227 
671.000000	235.183863 
671.500000	229.849727 
672.000000	225.892878 
672.500000	222.539363 
673.000000	217.233424 
673.500000	209.294583 
674.000000	201.926196 
674.500000	197.279954 
675.000000	194.078037 
675.500000	189.898515 
676.000000	185.610143 
676.500000	181.747946 
677.000000	177.939689 
677.500000	173.151515 
678.000000	168.032204 
678.500000	162.921863 
679.000000	158.331848 
679.500000	153.178651 
680.000000	148.344840 
680.500000	144.965356 
681.000000	142.267848 
681.500000	138.813537 
682.000000	133.608128 
682.500000	129.100250 
683.000000	124.925507 
683.500000	122.124272 
684.000000	118.234659 
684.500000	115.546484 
685.000000	112.041901 
685.500000	108.813545 
686.000000	105.116704 
686.500000	102.181651 
687.000000	98.422507  
687.500000	94.821386  
688.000000	91.819651  
688.500000	89.835386  
689.000000	87.802757  
689.500000	85.709924  
690.000000	83.424651  
690.500000	80.883000  
691.000000	78.187719  
691.500000	75.841196  
692.000000	73.561939  
692.500000	71.342886  
693.000000	69.148666  
693.500000	67.366393  
694.000000	65.355500  
694.500000	62.598939  
695.000000	59.918719  
695.500000	57.975333  
696.000000	56.704500  
696.500000	55.433893  
697.000000	53.966636  
697.500000	52.148303  
698.000000	50.605984  
698.500000	49.254818  
699.000000	47.819643  
699.500000	45.814931  
700.000000	43.870303  
700.500000	42.408424  
701.000000	41.161977  
701.500000	39.620545  
702.000000	38.393015  
702.500000	37.778750  
703.000000	37.521909  
703.500000	36.825530  
704.000000	35.980462  
704.500000	35.105280  
705.000000	34.048454  
705.500000	33.039348  
706.000000	31.912909  
706.500000	31.045757  
707.000000	30.278462  
707.500000	29.720181  
708.000000	28.742348  
708.500000	27.506886  
709.000000	26.498265  
709.500000	26.325416  
710.000000	26.255166  
710.500000	25.648674  
711.000000	24.841128  
711.500000	23.964128  
712.000000	23.180750  
712.500000	22.160643  
713.000000	21.497250  
713.500000	21.177174  
714.000000	21.026378  
714.500000	20.777712  
715.000000	20.236772  
715.500000	19.624159  
716.000000	18.959136  
716.500000	18.666613  
717.000000	18.357765  
717.500000	18.198166  
718.000000	17.701204  
718.500000	16.947522  
719.000000	16.250977  
719.500000	15.975659  
720.000000	16.283598  
720.500000	16.177742  
721.000000	15.780863  
721.500000	15.155113  
722.000000	14.937196  
722.500000	14.439916  
723.000000	13.756757  
723.500000	12.827037  
724.000000	12.520386  
724.500000	12.578227  
725.000000	12.717083  
725.500000	12.382681  
726.000000	11.749098  
726.500000	11.345621  
727.000000	11.454712  
727.500000	11.705765  
728.000000	11.536280  
728.500000	11.222348  
729.000000	11.048204  
729.500000	11.192674  
730.000000	10.957712  
730.500000	10.596075  
731.000000	10.097181  
731.500000	9.924719   
732.000000	9.748401   
732.500000	9.796681   
733.000000	9.695492   
733.500000	9.582825   
734.000000	9.394409   
734.500000	9.379568   
735.000000	9.467962   
735.500000	9.278575   
736.000000	8.727227   
736.500000	8.017590   
737.000000	7.853643   
737.500000	8.208765   
738.000000	8.591257   
738.500000	8.514553   
739.000000	8.140931   
739.500000	7.799742   
740.000000	7.543151   
740.500000	7.506189   
741.000000	7.482295   
741.500000	7.409507   
742.000000	7.113590   
742.500000	7.008628   
743.000000	6.919090   
743.500000	6.816053   
744.000000	6.609674   
744.500000	6.655356   
745.000000	6.744856   
745.500000	6.837212   
746.000000	6.778977   
746.500000	6.648780   
747.000000	6.528537   
747.500000	6.506924   
748.000000	6.518439   
748.500000	6.314325   
749.000000	5.819916   
749.500000	5.339015   
750.000000	5.014212   
750.500000	4.924340   
751.000000	5.109984   
751.500000	5.516643   
752.000000	5.899568   
752.500000	5.975159   
753.000000	5.811636   
753.500000	5.598583   
754.000000	5.390909   
754.500000	5.164598   
755.000000	4.800242   
755.500000	4.548924   
756.000000	4.510810   
756.500000	4.922787   
757.000000	5.091681   
757.500000	4.936863   
758.000000	4.545333   
758.500000	4.367575   
759.000000	4.396560   
759.500000	4.376106   
760.000000	4.365280   
760.500000	4.395075   
761.000000	4.513962   
761.500000	4.543787   
762.000000	4.440462   
762.500000	4.294825   
763.000000	4.155098   
763.500000	4.319931   
764.000000	4.288015   
764.500000	4.281151   
765.000000	4.011401   
765.500000	3.879628   
766.000000	3.735886   
766.500000	3.998121   
767.000000	4.272545   
767.500000	4.352348   
768.000000	4.155121   
768.500000	4.001454   
769.000000	3.965492   
769.500000	3.811530   
770.000000	3.589750   
770.500000	3.327439   
771.000000	3.347598   
771.500000	3.404712   
772.000000	3.538583   
772.500000	3.328621   
773.000000	3.163196   
773.500000	3.155727   
774.000000	3.482507   
774.500000	3.594007   
775.000000	3.497537   
775.500000	3.298075   
776.000000	3.278075   
776.500000	3.381409   
777.000000	3.350787   
777.500000	3.268598   
778.000000	3.311590   
778.500000	3.385227   
779.000000	3.286962   
779.500000	3.092007   
780.000000	3.115712   
780.500000	3.269545   
781.000000	3.314606   
781.500000	3.231446   
782.000000	3.217946   
782.500000	3.174022   
783.000000	3.082075   
783.500000	3.049969   
784.000000	3.001333   
784.500000	2.949750   
785.000000	2.856984   
785.500000	2.846992   
786.000000	2.850181   
786.500000	2.791734   
787.000000	2.672007   
787.500000	2.686393   
788.000000	2.795977   
788.500000	2.897128   
789.000000	2.908962   
789.500000	2.866643   
790.000000	2.938068   
790.500000	2.921727   
791.000000	2.784553   
791.500000	2.580060   
792.000000	2.563750   
792.500000	2.626303   
793.000000	2.781462   
793.500000	2.856439   
794.000000	2.947886   
794.500000	2.815977   
795.000000	2.515621   
795.500000	2.317098   
796.000000	2.347856   
796.500000	2.369977   
797.000000	2.252393   
797.500000	2.097272   
798.000000	2.251999   
798.500000	2.500015   
799.000000	2.690128   
799.500000	2.442409   
800.000000	2.095401   
800.500000	1.700689   
801.000000	1.749765   
801.500000	1.960083   
802.000000	2.228553   
802.500000	2.257227   
803.000000	2.093590   
803.500000	1.944560   
804.000000	2.046522   
804.500000	2.160848   
805.000000	2.155636   
805.500000	1.988212   
806.000000	1.931045   
806.500000	1.643568   
807.000000	1.441106   
807.500000	1.426856   
808.000000	1.829393   
808.500000	2.061401   
809.000000	2.091083   
809.500000	2.062303   
810.000000	2.120886   
810.500000	2.214704   
811.000000	2.081189   
811.500000	1.746878   
812.000000	1.362068   
812.500000	1.298575   
813.000000	1.539227   
813.500000	1.688363   
814.000000	1.515386   
814.500000	1.213856   
815.000000	1.063750   
815.500000	1.199030   
816.000000	1.427651   
816.500000	1.510500   
817.000000	1.334363   
817.500000	1.288462   
818.000000	1.371537   
818.500000	1.564901   
819.000000	1.513772   
819.500000	1.499583   
820.000000	1.483280   
820.500000	1.512424   
821.000000	1.464916   
821.500000	1.665446   
822.000000	1.893227   
822.500000	2.117287   
823.000000	2.097674   
823.500000	2.149401   
824.000000	2.257113   
824.500000	2.478143   
825.000000	2.520424   
825.500000	2.373909   
826.000000	2.249484   
826.500000	2.203128   
827.000000	2.296962   
827.500000	2.157977   
828.000000	1.940734   
828.500000	1.723916   
829.000000	1.656113   
829.500000	1.525848   
830.000000	1.392962   
830.500000	1.263015   
831.000000	1.171901   
831.500000	1.120409   
832.000000	1.091568   
832.500000	1.059204   
833.000000	1.045098   
833.500000	1.031696   
834.000000	1.138742   
834.500000	1.277212   
835.000000	1.230098   
835.500000	1.085363   
836.000000	0.934348   
836.500000	0.899590   
837.000000	0.828469   
837.500000	0.768696   
838.000000	0.784962   
838.500000	0.805439   
839.000000	0.837045   
839.500000	0.752810   
840.000000	0.850977   
840.500000	0.808856   
841.000000	0.786196   
841.500000	0.636553   
842.000000	0.744681   
842.500000	0.860946   
843.000000	0.952954   
843.500000	0.862787   
844.000000	0.743454   
844.500000	0.740257   
845.000000	0.796174   
845.500000	0.813234   
846.000000	0.713492   
846.500000	0.584189   
847.000000	0.459530   
847.500000	0.380325   
848.000000	0.298833   
848.500000	0.408469   
849.000000	0.522462   
849.500000	0.522257   
850.000000	0.315060   
850.500000	0.145015   
851.000000	-0.025204  
851.500000	-0.009628  
852.000000	0.123840   
852.500000	0.289136   
853.000000	0.370787   
853.500000	0.306386   
854.000000	0.256007   
854.500000	0.195575   
855.000000	0.149166   
855.500000	0.103303   
856.000000	0.104598   
856.500000	0.061575   
857.000000	0.075742   
857.500000	0.112462   
858.000000	0.144265   
858.500000	0.103992   
859.000000	0.175015   
859.500000	0.245946   
860.000000	0.330613   
860.500000	0.241886   
861.000000	0.143242   
861.500000	0.024212   
862.000000	-0.032583  
862.500000	-0.129250  
863.000000	-0.145931  
863.500000	-0.090303  
864.000000	0.056386   
864.500000	0.079522   
865.000000	-0.006499  
865.500000	-0.147696  
866.000000	-0.118189  
866.500000	-0.020393  
867.000000	0.058106   
867.500000	-0.011250  
868.000000	-0.079257  
868.500000	-0.072303  
869.000000	-0.034106  
869.500000	-0.107992  
870.000000	-0.210856  
870.500000	-0.163174  
871.000000	-0.003659  
871.500000	0.063931   
872.000000	-0.015249  
872.500000	-0.096606  
873.000000	-0.087659  
873.500000	-0.070462  
874.000000	-0.077409  
874.500000	-0.027780  
875.000000	0.068265   
875.500000	0.119568   
876.000000	0.084060   
876.500000	0.026893   
877.000000	0.037742   
877.500000	0.058030   
878.000000	0.057037   
878.500000	-0.001719  
879.000000	-0.060159  
879.500000	-0.122750  
880.000000	-0.096500  
880.500000	-0.071787  
881.000000	-0.065878  
881.500000	-0.135810  
882.000000	-0.122575  
882.500000	-0.038992  
883.000000	0.057984   
883.500000	0.015696   
884.000000	0.018545   
884.500000	0.044477   
885.000000	0.141280   
885.500000	0.159007   
886.000000	0.185833   
886.500000	0.147272   
887.000000	0.127992   
887.500000	0.024212   
888.000000	-0.063416  
888.500000	-0.139265  
889.000000	-0.044143  
889.500000	0.097287   
890.000000	0.210568   
890.500000	0.121037   
891.000000	0.016113   
891.500000	-0.055575  
892.000000	-0.039181  
892.500000	-0.004507  
893.000000	0.086090   
893.500000	0.142992   
894.000000	0.156992   
894.500000	0.116090   
895.000000	0.033984   
895.500000	-0.023477  
896.000000	-0.076651  
896.500000	-0.135484  
897.000000	-0.145962  
897.500000	-0.109106  

