PE FL                   SPECTRUM    ASCII       PEDS        1.60        
  -1
SAMPLE~2.SP
24/04/12
16:02:01.00
24/04/12
16:02:01.00
Jan

897.500000
1









LS55
405.00
5.00
5.00
SCAN
1
20
100
100
0
400
0
1
0
1
5
ON
450 405 
1 0 0
#HDR
-1
-1
#GR
NM

0.00002384185791015625
0.0
450.000000
0.500000
896
8
348.035522
-0.239742
#DATA
450.000000	0.700999   
450.500000	0.093507   
451.000000	-0.093727  
451.500000	0.021992   
452.000000	0.193090   
452.500000	0.258151   
453.000000	0.284181   
453.500000	0.209356   
454.000000	0.110871   
454.500000	0.107704   
455.000000	0.169856   
455.500000	0.045477   
456.000000	-0.157242  
456.500000	-0.239742  
457.000000	-0.044893  
457.500000	0.126234   
458.000000	0.102303   
458.500000	-0.052424  
459.000000	-0.059303  
459.500000	0.048984   
460.000000	0.120810   
460.500000	0.097871   
461.000000	0.007007   
461.500000	-0.054606  
462.000000	-0.095204  
462.500000	-0.104113  
463.000000	-0.107416  
463.500000	-0.086583  
464.000000	-0.022060  
464.500000	0.141772   
465.000000	0.284628   
465.500000	0.276871   
466.000000	0.174734   
466.500000	0.054553   
467.000000	-0.009969  
467.500000	-0.069090  
468.000000	0.001462   
468.500000	0.071530   
469.000000	0.161522   
469.500000	0.042462   
470.000000	0.048037   
470.500000	0.092939   
471.000000	0.194954   
471.500000	0.091803   
472.000000	-0.021416  
472.500000	-0.107386  
473.000000	-0.052416  
473.500000	0.031643   
474.000000	0.048378   
474.500000	0.032409   
475.000000	0.026386   
475.500000	0.026287   
476.000000	-0.014098  
476.500000	-0.060136  
477.000000	-0.002371  
477.500000	0.111060   
478.000000	0.221962   
478.500000	0.159734   
479.000000	0.177431   
479.500000	0.258174   
480.000000	0.429219   
480.500000	0.377318   
481.000000	0.175659   
481.500000	-0.036113  
482.000000	0.020719   
482.500000	0.158257   
483.000000	0.256424   
483.500000	0.295446   
484.000000	0.290901   
484.500000	0.155583   
485.000000	0.006083   
485.500000	0.010219   
486.000000	0.108886   
486.500000	0.248378   
487.000000	0.242803   
487.500000	0.302598   
488.000000	0.268068   
488.500000	0.181469   
489.000000	0.006606   
489.500000	0.046492   
490.000000	0.123848   
490.500000	0.284325   
491.000000	0.299378   
491.500000	0.303833   
492.000000	0.367340   
492.500000	0.443992   
493.000000	0.377439   
493.500000	0.202931   
494.000000	0.029969   
494.500000	0.058015   
495.000000	0.160803   
495.500000	0.234303   
496.000000	0.209143   
496.500000	0.176166   
497.000000	0.122734   
497.500000	0.183757   
498.000000	0.263924   
498.500000	0.435166   
499.000000	0.589181   
499.500000	0.666159   
500.000000	0.524886   
500.500000	0.404053   
501.000000	0.341030   
501.500000	0.496249   
502.000000	0.507166   
502.500000	0.458916   
503.000000	0.378477   
503.500000	0.426598   
504.000000	0.543477   
504.500000	0.585613   
505.000000	0.587159   
505.500000	0.611272   
506.000000	0.827977   
506.500000	1.033212   
507.000000	1.137386   
507.500000	1.072651   
508.000000	0.959295   
508.500000	0.928840   
509.000000	0.913840   
509.500000	0.965848   
510.000000	0.953568   
510.500000	1.109954   
511.000000	1.344810   
511.500000	1.591204   
512.000000	1.592280   
512.500000	1.522515   
513.000000	1.549734   
513.500000	1.661053   
514.000000	1.682606   
514.500000	1.747606   
515.000000	1.857825   
515.500000	1.853613   
516.000000	1.652515   
516.500000	1.537537   
517.000000	1.682310   
517.500000	1.930901   
518.000000	2.101689   
518.500000	2.310893   
519.000000	2.456909   
519.500000	2.392363   
520.000000	2.224386   
520.500000	2.241992   
521.000000	2.447537   
521.500000	2.570590   
522.000000	2.493242   
522.500000	2.365454   
523.000000	2.470636   
523.500000	2.731689   
524.000000	3.025227   
524.500000	3.062568   
525.000000	3.070681   
525.500000	3.044871   
526.000000	3.093704   
526.500000	3.099969   
527.000000	3.122750   
527.500000	3.066674   
528.000000	3.130378   
528.500000	3.491666   
529.000000	4.031840   
529.500000	4.445749   
530.000000	4.468075   
530.500000	4.298348   
531.000000	4.178439   
531.500000	4.323318   
532.000000	4.653810   
532.500000	5.077454   
533.000000	5.540416   
533.500000	6.029666   
534.000000	6.304962   
534.500000	6.428022   
535.000000	6.664242   
535.500000	7.139340   
536.000000	7.300219   
536.500000	7.086477   
537.000000	6.942348   
537.500000	7.442037   
538.000000	8.123128   
538.500000	8.789075   
539.000000	9.257689   
539.500000	9.790053   
540.000000	10.295674  
540.500000	10.653500  
541.000000	10.611204  
541.500000	10.570431  
542.000000	10.622431  
542.500000	10.943560  
543.000000	11.261318  
543.500000	11.446045  
544.000000	11.449560  
544.500000	11.481659  
545.000000	11.710863  
545.500000	12.358333  
546.000000	12.936469  
546.500000	12.693325  
547.000000	11.736174  
547.500000	10.992840  
548.000000	10.985431  
548.500000	11.527598  
549.000000	11.983606  
549.500000	12.188568  
550.000000	12.290734  
550.500000	12.288257  
551.000000	12.212287  
551.500000	12.107462  
552.000000	12.405628  
552.500000	12.615712  
553.000000	12.669962  
553.500000	12.358765  
554.000000	12.451863  
554.500000	13.118750  
555.000000	13.706022  
555.500000	13.948712  
556.000000	13.739325  
556.500000	13.753946  
557.000000	13.755363  
557.500000	13.900045  
558.000000	14.082992  
558.500000	14.215727  
559.000000	14.315295  
559.500000	14.474954  
560.000000	15.173765  
560.500000	15.615909  
561.000000	15.863477  
561.500000	15.491848  
562.000000	15.488174  
562.500000	15.727750  
563.000000	16.367734  
563.500000	17.076022  
564.000000	17.841265  
564.500000	18.126333  
565.000000	18.326053  
565.500000	18.667621  
566.000000	19.537916  
566.500000	20.464181  
567.000000	21.400469  
567.500000	21.931075  
568.000000	22.452469  
568.500000	22.599643  
569.000000	22.967727  
569.500000	23.487848  
570.000000	24.394083  
570.500000	24.951696  
571.000000	25.406340  
571.500000	25.604636  
572.000000	26.135250  
572.500000	26.513189  
573.000000	27.226143  
573.500000	28.033598  
574.000000	29.069492  
574.500000	29.294121  
575.000000	29.264674  
575.500000	29.616265  
576.000000	30.450083  
576.500000	31.195643  
577.000000	31.608878  
577.500000	32.436007  
578.000000	33.345810  
578.500000	33.949265  
579.000000	34.070719  
579.500000	34.195446  
580.000000	34.374992  
580.500000	34.415810  
581.000000	34.744840  
581.500000	35.706159  
582.000000	37.094204  
582.500000	38.012356  
583.000000	38.270984  
583.500000	38.797378  
584.000000	39.565212  
584.500000	40.455818  
585.000000	41.257962  
585.500000	42.980060  
586.000000	44.430310  
586.500000	45.124962  
587.000000	44.656409  
587.500000	45.048803  
588.000000	46.655962  
588.500000	48.582310  
589.000000	49.815462  
589.500000	50.403515  
590.000000	50.878295  
590.500000	52.022840  
591.000000	53.798590  
591.500000	55.281303  
592.000000	56.104121  
592.500000	56.942303  
593.000000	58.356393  
593.500000	60.077696  
594.000000	60.851053  
594.500000	62.285583  
595.000000	63.724795  
595.500000	65.330007  
596.000000	65.619416  
596.500000	66.342106  
597.000000	67.392583  
597.500000	69.376916  
598.000000	71.171916  
598.500000	73.147303  
599.000000	75.002446  
599.500000	76.719469  
600.000000	78.794780  
600.500000	80.381136  
601.000000	81.628886  
601.500000	82.290613  
602.000000	83.240856  
602.500000	84.320515  
603.000000	86.074499  
603.500000	88.282303  
604.000000	91.162696  
604.500000	93.195984  
605.000000	94.736659  
605.500000	95.618333  
606.000000	97.375287  
606.500000	99.652522  
607.000000	101.799000 
607.500000	102.901560 
608.000000	104.059545 
608.500000	106.339507 
609.000000	109.315954 
609.500000	111.940795 
610.000000	113.393750 
610.500000	115.155984 
611.000000	116.686303 
611.500000	118.735666 
612.000000	121.269053 
612.500000	124.585090 
613.000000	127.316106 
613.500000	129.693719 
614.000000	132.632318 
614.500000	135.831439 
615.000000	138.438803 
615.500000	140.361886 
616.000000	142.266659 
616.500000	145.083825 
617.000000	148.832545 
617.500000	152.388265 
618.000000	155.265803 
618.500000	157.024886 
619.000000	159.348583 
619.500000	162.014484 
620.000000	164.929242 
620.500000	167.963030 
621.000000	172.374265 
621.500000	175.427606 
622.000000	177.764159 
622.500000	179.694250 
623.000000	182.865136 
623.500000	185.557924 
624.000000	188.529727 
624.500000	191.455000 
625.000000	196.281401 
625.500000	199.850946 
626.000000	203.248704 
626.500000	205.386015 
627.000000	208.330416 
627.500000	211.770992 
628.000000	216.495606 
628.500000	222.672500 
629.000000	228.841500 
629.500000	233.613946 
630.000000	234.704477 
630.500000	236.315348 
631.000000	238.961143 
631.500000	244.352507 
632.000000	249.500371 
632.500000	254.856106 
633.000000	258.291265 
633.500000	260.692825 
634.000000	263.010863 
634.500000	267.042522 
635.000000	271.821227 
635.500000	275.343742 
636.000000	278.480189 
636.500000	280.579242 
637.000000	282.985712 
637.500000	285.721696 
638.000000	290.720674 
638.500000	294.693007 
639.000000	298.474189 
639.500000	300.837340 
640.000000	305.426765 
640.500000	308.842462 
641.000000	312.025272 
641.500000	313.406045 
642.000000	316.153553 
642.500000	318.872356 
643.000000	322.380628 
643.500000	324.878363 
644.000000	327.146015 
644.500000	328.906234 
645.000000	330.123439 
645.500000	331.130333 
646.000000	331.414484 
646.500000	333.140931 
647.000000	337.083810 
647.500000	342.415939 
648.000000	345.175083 
648.500000	345.329659 
649.000000	343.972356 
649.500000	343.930015 
650.000000	344.304530 
650.500000	345.608454 
651.000000	346.976545 
651.500000	348.035522 
652.000000	346.681946 
652.500000	345.750840 
653.000000	346.253689 
653.500000	347.202560 
654.000000	346.225583 
654.500000	345.271159 
655.000000	346.087295 
655.500000	347.580295 
656.000000	346.191780 
656.500000	343.376992 
657.000000	341.746992 
657.500000	342.005128 
658.000000	339.638659 
658.500000	337.289272 
659.000000	334.755840 
659.500000	334.499984 
660.000000	332.705378 
660.500000	330.247984 
661.000000	326.202833 
661.500000	322.941689 
662.000000	319.781469 
662.500000	318.651431 
663.000000	318.144878 
663.500000	316.173606 
664.000000	312.821863 
664.500000	308.653431 
665.000000	304.194151 
665.500000	299.473954 
666.000000	295.390757 
666.500000	294.036416 
667.000000	293.319825 
667.500000	290.725500 
668.000000	284.875515 
668.500000	277.724166 
669.000000	271.047015 
669.500000	265.975007 
670.000000	261.015136 
670.500000	255.649053 
671.000000	251.255060 
671.500000	248.162333 
672.000000	244.954068 
672.500000	239.311886 
673.000000	232.522212 
673.500000	227.166742 
674.000000	221.990500 
674.500000	217.402606 
675.000000	213.555674 
675.500000	211.006977 
676.000000	206.599636 
676.500000	200.552106 
677.000000	194.220901 
677.500000	189.421340 
678.000000	184.683166 
678.500000	179.077545 
679.000000	174.332446 
679.500000	170.492507 
680.000000	166.975303 
680.500000	162.496795 
681.000000	157.983234 
681.500000	153.725280 
682.000000	148.994121 
682.500000	143.849818 
683.000000	138.873356 
683.500000	134.639878 
684.000000	130.492318 
684.500000	126.518000 
685.000000	122.871196 
685.500000	119.410386 
686.000000	116.193446 
686.500000	112.547424 
687.000000	108.707143 
687.500000	104.408037 
688.000000	100.651378 
688.500000	97.346507  
689.000000	94.911522  
689.500000	92.969545  
690.000000	91.486946  
690.500000	89.638969  
691.000000	86.783931  
691.500000	82.663590  
692.000000	78.552749  
692.500000	75.652356  
693.000000	74.183249  
693.500000	72.978931  
694.000000	70.992969  
694.500000	69.006742  
695.000000	67.400378  
695.500000	65.283590  
696.000000	62.591606  
696.500000	59.641454  
697.000000	57.472143  
697.500000	55.597643  
698.000000	54.242863  
698.500000	53.205454  
699.000000	52.444446  
699.500000	50.935484  
700.000000	49.098522  
700.500000	48.301840  
701.000000	47.724249  
701.500000	46.465871  
702.000000	44.218727  
702.500000	42.864977  
703.000000	42.328636  
703.500000	41.400303  
704.000000	39.244083  
704.500000	37.246477  
705.000000	36.087537  
705.500000	35.619787  
706.000000	35.509393  
706.500000	35.264871  
707.000000	34.621613  
707.500000	33.159553  
708.000000	31.219962  
708.500000	29.933833  
709.000000	29.566325  
709.500000	29.354393  
710.000000	28.329181  
710.500000	27.365128  
711.000000	26.708469  
711.500000	26.556757  
712.000000	25.676954  
712.500000	25.071393  
713.000000	24.651242  
713.500000	24.590462  
714.000000	24.132000  
714.500000	23.181068  
715.000000	22.016742  
715.500000	21.223492  
716.000000	21.081803  
716.500000	21.051287  
717.000000	20.442083  
717.500000	19.454689  
718.000000	18.569984  
718.500000	18.285659  
719.000000	18.107530  
719.500000	17.898553  
720.000000	17.214386  
720.500000	16.788825  
721.000000	16.641151  
721.500000	16.592234  
722.000000	16.323393  
722.500000	15.720121  
723.000000	15.281030  
723.500000	14.846098  
724.000000	14.537712  
724.500000	14.097121  
725.000000	13.841234  
725.500000	13.520265  
726.000000	13.411128  
726.500000	13.105795  
727.000000	12.871750  
727.500000	12.487386  
728.000000	12.064136  
728.500000	11.611689  
729.000000	11.488856  
729.500000	11.466242  
730.000000	11.397189  
730.500000	11.193128  
731.000000	10.940727  
731.500000	10.669462  
732.000000	10.308787  
732.500000	9.981393   
733.000000	9.863696   
733.500000	9.851636   
734.000000	9.763984   
734.500000	9.577083   
735.000000	9.471545   
735.500000	9.548568   
736.000000	9.581500   
736.500000	9.344795   
737.000000	8.871636   
737.500000	8.571757   
738.000000	8.414628   
738.500000	8.474325   
739.000000	8.515795   
739.500000	8.558053   
740.000000	8.459409   
740.500000	8.148219   
741.000000	7.845613   
741.500000	7.494765   
742.000000	7.440840   
742.500000	7.496825   
743.000000	7.764787   
743.500000	7.680181   
744.000000	7.486212   
744.500000	7.112272   
745.000000	6.855515   
745.500000	6.634613   
746.000000	6.563325   
746.500000	6.335560   
747.000000	6.128325   
747.500000	6.074234   
748.000000	6.246143   
748.500000	6.207416   
749.000000	5.975636   
749.500000	5.743818   
750.000000	5.725856   
750.500000	5.461477   
751.000000	5.127174   
751.500000	5.031469   
752.000000	5.199037   
752.500000	5.273750   
753.000000	5.314674   
753.500000	5.390530   
754.000000	5.460742   
754.500000	5.476727   
755.000000	5.462143   
755.500000	5.456363   
756.000000	5.189098   
756.500000	4.898159   
757.000000	4.847196   
757.500000	4.971560   
758.000000	4.934500   
758.500000	4.819340   
759.000000	4.804856   
759.500000	4.836590   
760.000000	4.816280   
760.500000	4.630280   
761.000000	4.482280   
761.500000	4.374545   
762.000000	4.319916   
762.500000	4.239742   
763.000000	4.227909   
763.500000	4.341606   
764.000000	4.573045   
764.500000	4.818242   
765.000000	4.781416   
765.500000	4.593553   
766.000000	4.115522   
766.500000	3.818159   
767.000000	3.654348   
767.500000	3.744030   
768.000000	3.758143   
768.500000	3.890560   
769.000000	3.884083   
769.500000	3.973431   
770.000000	3.968977   
770.500000	4.020787   
771.000000	3.931030   
771.500000	3.879053   
772.000000	3.748674   
772.500000	3.665212   
773.000000	3.395924   
773.500000	3.161045   
774.000000	3.190424   
774.500000	3.382734   
775.000000	3.472446   
775.500000	3.372583   
776.000000	3.312348   
776.500000	3.310734   
777.000000	3.277863   
777.500000	3.211537   
778.000000	3.153719   
778.500000	3.211356   
779.000000	3.166636   
779.500000	3.144871   
780.000000	3.178075   
780.500000	3.253598   
781.000000	3.227333   
781.500000	3.112098   
782.000000	3.051030   
782.500000	3.111424   
783.000000	3.143583   
783.500000	3.078113   
784.000000	3.024151   
784.500000	3.111446   
785.000000	3.123424   
785.500000	3.137840   
786.000000	3.081704   
786.500000	3.117492   
787.000000	3.034234   
787.500000	2.952484   
788.000000	2.924393   
788.500000	2.945242   
789.000000	2.942492   
789.500000	2.938681   
790.000000	3.013189   
790.500000	3.004098   
791.000000	2.987106   
791.500000	2.844909   
792.000000	2.718515   
792.500000	2.592560   
793.000000	2.660833   
793.500000	2.681560   
794.000000	2.662181   
794.500000	2.426068   
795.000000	2.344477   
795.500000	2.271287   
796.000000	2.428181   
796.500000	2.426803   
797.000000	2.491212   
797.500000	2.358257   
798.000000	2.401515   
798.500000	2.289310   
799.000000	2.227454   
799.500000	2.089651   
800.000000	2.190840   
800.500000	2.354795   
801.000000	2.532280   
801.500000	2.542984   
802.000000	2.463234   
802.500000	2.380856   
803.000000	2.399272   
803.500000	2.409522   
804.000000	2.314727   
804.500000	2.178446   
805.000000	2.048333   
805.500000	2.097856   
806.000000	2.029825   
806.500000	2.026696   
807.000000	1.899409   
807.500000	1.891515   
808.000000	1.803030   
808.500000	1.735613   
809.000000	1.603628   
809.500000	1.587454   
810.000000	1.710007   
810.500000	1.798219   
811.000000	1.781969   
811.500000	1.609977   
812.000000	1.595795   
812.500000	1.683113   
813.000000	1.607522   
813.500000	1.396484   
814.000000	1.300704   
814.500000	1.440045   
815.000000	1.575780   
815.500000	1.601090   
816.000000	1.666113   
816.500000	1.805409   
817.000000	1.830613   
817.500000	1.648446   
818.000000	1.574825   
818.500000	1.708674   
819.000000	1.838121   
819.500000	1.869818   
820.000000	1.884909   
820.500000	2.130401   
821.000000	2.406537   
821.500000	2.506098   
822.000000	2.241598   
822.500000	2.048840   
823.000000	1.907840   
823.500000	1.953719   
824.000000	2.038022   
824.500000	2.295007   
825.000000	2.508803   
825.500000	2.545757   
826.000000	2.383250   
826.500000	2.313765   
827.000000	2.225931   
827.500000	2.013856   
828.000000	1.804431   
828.500000	1.722409   
829.000000	1.734833   
829.500000	1.741113   
830.000000	1.659833   
830.500000	1.502454   
831.000000	1.457257   
831.500000	1.484924   
832.000000	1.524606   
832.500000	1.338886   
833.000000	1.130500   
833.500000	1.086833   
834.000000	1.290840   
834.500000	1.257977   
835.000000	1.059863   
835.500000	0.855196   
836.000000	0.886765   
836.500000	0.980409   
837.000000	1.063492   
837.500000	1.017462   
838.000000	1.006310   
838.500000	0.968499   
839.000000	0.956234   
839.500000	1.001636   
840.000000	1.133871   
840.500000	1.218590   
841.000000	1.166250   
841.500000	0.912015   
842.000000	0.735484   
842.500000	0.634143   
843.000000	0.560803   
843.500000	0.427484   
844.000000	0.428999   
844.500000	0.528901   
845.000000	0.574674   
845.500000	0.398015   
846.000000	0.095340   
846.500000	-0.033053  
847.000000	0.022166   
847.500000	0.133507   
848.000000	0.119750   
848.500000	0.122946   
849.000000	0.213916   
849.500000	0.288363   
850.000000	0.331469   
850.500000	0.370265   
851.000000	0.400212   
851.500000	0.315530   
852.000000	0.250727   
852.500000	0.209818   
853.000000	0.147810   
853.500000	0.042181   
854.000000	0.020696   
854.500000	0.200060   
855.000000	0.329098   
855.500000	0.330287   
856.000000	0.197143   
856.500000	0.117628   
857.000000	0.066000   
857.500000	0.068037   
858.000000	0.079893   
858.500000	0.142818   
859.000000	0.214742   
859.500000	0.192318   
860.000000	0.231560   
860.500000	0.217363   
861.000000	0.302446   
861.500000	0.302651   
862.000000	0.283522   
862.500000	0.149393   
863.000000	0.041272   
863.500000	-0.016356  
864.000000	-0.035575  
864.500000	-0.134015  
865.000000	-0.205250  
865.500000	-0.095204  
866.000000	0.064106   
866.500000	0.196030   
867.000000	0.220901   
867.500000	0.219734   
868.000000	0.157219   
868.500000	0.104621   
869.000000	0.071431   
869.500000	0.135833   
870.000000	0.026045   
870.500000	-0.137545  
871.000000	-0.220227  
871.500000	-0.050469  
872.000000	0.114886   
872.500000	0.168893   
873.000000	0.117840   
873.500000	0.083939   
874.000000	0.082113   
874.500000	0.018643   
875.000000	0.008280   
875.500000	0.025704   
876.000000	0.090787   
876.500000	0.053106   
877.000000	0.039249   
877.500000	0.008537   
878.000000	0.076431   
878.500000	0.079621   
879.000000	0.058856   
879.500000	0.005515   
880.000000	0.003143   
880.500000	-0.006424  
881.000000	0.014181   
881.500000	0.052537   
882.000000	0.099204   
882.500000	0.069621   
883.000000	-0.026030  
883.500000	-0.075901  
884.000000	-0.034553  
884.500000	-0.013606  
885.000000	-0.059075  
885.500000	-0.105340  
886.000000	-0.079621  
886.500000	0.000530   
887.000000	0.095159   
887.500000	0.165068   
888.000000	0.166333   
888.500000	0.106977   
889.000000	0.013946   
889.500000	-0.021848  
890.000000	-0.020022  
890.500000	0.024590   
891.000000	0.059136   
891.500000	0.046674   
892.000000	-0.019780  
892.500000	-0.086643  
893.000000	-0.067075  
893.500000	-0.003568  
894.000000	0.098840   
894.500000	0.110416   
895.000000	0.102810   
895.500000	0.044204   
896.000000	0.020015   
896.500000	-0.038840  
897.000000	0.018893   
897.500000	0.070598   

