PE FL                   SPECTRUM    ASCII       PEDS        1.60        
  -1
SA9B91~1.SP
24/04/12
16:17:42.00
24/04/12
16:17:42.00
Jan

897.500000
1









LS55
405.00
5.00
5.00
SCAN
1
20
100
100
0
400
0
1
0
1
5
ON
450 405 
1 0 0
#HDR
-1
-1
#GR
NM

0.00002384185791015625
0.0
450.000000
0.500000
896
8
327.204613
-0.337765
#DATA
450.000000	0.203000   
450.500000	0.056318   
451.000000	0.003075   
451.500000	0.081151   
452.000000	0.113621   
452.500000	0.142212   
453.000000	0.146265   
453.500000	0.109606   
454.000000	-0.040530  
454.500000	-0.179530  
455.000000	-0.202606  
455.500000	-0.102681  
456.000000	0.019666   
456.500000	0.107469   
457.000000	0.137803   
457.500000	0.088446   
458.000000	0.015272   
458.500000	0.083227   
459.000000	0.186257   
459.500000	0.237659   
460.000000	0.161287   
460.500000	0.049454   
461.000000	-0.041022  
461.500000	-0.064643  
462.000000	-0.085363  
462.500000	-0.108575  
463.000000	-0.083522  
463.500000	0.069628   
464.000000	0.223090   
464.500000	0.364401   
465.000000	0.391689   
465.500000	0.394196   
466.000000	0.307409   
466.500000	0.216484   
467.000000	0.124287   
467.500000	0.135575   
468.000000	0.213931   
468.500000	0.233507   
469.000000	0.015060   
469.500000	-0.187250  
470.000000	-0.168780  
470.500000	0.020409   
471.000000	0.084962   
471.500000	0.058166   
472.000000	0.059651   
472.500000	0.113954   
473.000000	0.022560   
473.500000	-0.119174  
474.000000	-0.082931  
474.500000	0.101590   
475.000000	0.219742   
475.500000	0.156530   
476.000000	0.126113   
476.500000	0.236712   
477.000000	0.296424   
477.500000	0.208174   
478.000000	0.184984   
478.500000	0.269136   
479.000000	0.306795   
479.500000	0.221863   
480.000000	0.099090   
480.500000	0.131765   
481.000000	0.233053   
481.500000	0.342712   
482.000000	0.152818   
482.500000	-0.044181  
483.000000	-0.183537  
483.500000	-0.070628  
484.000000	-0.071257  
484.500000	-0.037469  
485.000000	0.072181   
485.500000	0.300113   
486.000000	0.267030   
486.500000	0.099287   
487.000000	-0.072833  
487.500000	-0.009977  
488.000000	0.040492   
488.500000	0.113022   
489.000000	0.110598   
489.500000	0.214477   
490.000000	0.169295   
490.500000	0.097204   
491.000000	-0.048037  
491.500000	-0.080499  
492.000000	-0.104590  
492.500000	0.016545   
493.000000	0.211931   
493.500000	0.415939   
494.000000	0.520166   
494.500000	0.430204   
495.000000	0.359606   
495.500000	0.278780   
496.000000	0.236833   
496.500000	0.090287   
497.000000	0.122477   
497.500000	0.237969   
498.000000	0.389636   
498.500000	0.365886   
499.000000	0.325818   
499.500000	0.487356   
500.000000	0.579159   
500.500000	0.609689   
501.000000	0.587545   
501.500000	0.689712   
502.000000	0.623022   
502.500000	0.460121   
503.000000	0.289234   
503.500000	0.399416   
504.000000	0.636257   
504.500000	0.901522   
505.000000	1.028106   
505.500000	0.981962   
506.000000	0.864227   
506.500000	0.906371   
507.000000	1.013469   
507.500000	1.027954   
508.000000	0.952969   
508.500000	0.926113   
509.000000	0.942878   
509.500000	0.924484   
510.000000	0.898363   
510.500000	0.890106   
511.000000	0.967666   
511.500000	1.093628   
512.000000	1.267219   
512.500000	1.174833   
513.000000	0.925431   
513.500000	0.778916   
514.000000	1.048484   
514.500000	1.263340   
515.000000	1.342090   
515.500000	1.295469   
516.000000	1.361613   
516.500000	1.381568   
517.000000	1.459977   
517.500000	1.564522   
518.000000	1.679977   
518.500000	1.701348   
519.000000	1.842446   
519.500000	2.156189   
520.000000	2.390295   
520.500000	2.467553   
521.000000	2.594780   
521.500000	2.701310   
522.000000	2.652984   
522.500000	2.413030   
523.000000	2.373136   
523.500000	2.537303   
524.000000	2.753977   
524.500000	2.690962   
525.000000	2.576121   
525.500000	2.599704   
526.000000	2.863424   
526.500000	3.138575   
527.000000	3.218196   
527.500000	3.249000   
528.000000	3.337090   
528.500000	3.639689   
529.000000	3.922863   
529.500000	4.118636   
530.000000	4.054666   
530.500000	4.030454   
531.000000	4.213946   
531.500000	4.739818   
532.000000	5.247454   
532.500000	5.536734   
533.000000	5.784136   
533.500000	6.130174   
534.000000	6.369946   
534.500000	6.501265   
535.000000	6.592484   
535.500000	6.691643   
536.000000	6.911704   
536.500000	7.168924   
537.000000	7.517992   
537.500000	7.909909   
538.000000	8.216234   
538.500000	8.721916   
539.000000	9.231265   
539.500000	9.691272   
540.000000	9.816666   
540.500000	10.305553  
541.000000	10.893636  
541.500000	11.523310  
542.000000	11.428083  
542.500000	10.948727  
543.000000	10.817159  
543.500000	11.202439  
544.000000	11.835742  
544.500000	11.941787  
545.000000	11.828878  
545.500000	11.683674  
546.000000	11.950363  
546.500000	12.285356  
547.000000	12.374545  
547.500000	12.222212  
548.000000	11.888772  
548.500000	11.847780  
549.000000	11.971651  
549.500000	12.171212  
550.000000	12.220681  
550.500000	12.075045  
551.000000	11.915295  
551.500000	11.574674  
552.000000	11.453992  
552.500000	11.179727  
553.000000	11.523121  
553.500000	12.084500  
554.000000	12.913083  
554.500000	13.088575  
555.000000	12.823750  
555.500000	12.436068  
556.000000	12.419022  
556.500000	12.533098  
557.000000	12.821780  
557.500000	13.351363  
558.000000	14.064636  
558.500000	14.552962  
559.000000	14.610681  
559.500000	14.430242  
560.000000	14.657545  
560.500000	14.953795  
561.000000	15.335946  
561.500000	15.760045  
562.000000	16.464159  
562.500000	17.123257  
563.000000	17.449946  
563.500000	17.254795  
564.000000	17.382530  
564.500000	17.926916  
565.000000	18.656431  
565.500000	19.111106  
566.000000	19.524734  
566.500000	19.875113  
567.000000	20.174954  
567.500000	20.616075  
568.000000	21.367659  
568.500000	22.361590  
569.000000	23.007560  
569.500000	23.634568  
570.000000	24.161431  
570.500000	24.542719  
571.000000	24.887560  
571.500000	25.461196  
572.000000	25.973946  
572.500000	26.187583  
573.000000	26.883128  
573.500000	28.051977  
574.000000	29.336931  
574.500000	29.485068  
575.000000	29.033136  
575.500000	28.723234  
576.000000	30.233674  
576.500000	32.090636  
577.000000	33.419901  
577.500000	33.242234  
578.000000	33.089151  
578.500000	33.052068  
579.000000	33.435946  
579.500000	33.574409  
580.000000	33.751734  
580.500000	34.110227  
581.000000	35.250825  
581.500000	36.785522  
582.000000	37.740318  
582.500000	38.094386  
583.000000	38.119901  
583.500000	38.345431  
584.000000	38.981416  
584.500000	40.811083  
585.000000	42.957121  
585.500000	44.529204  
586.000000	44.415348  
586.500000	44.796371  
587.000000	45.867939  
587.500000	47.497234  
588.000000	48.271015  
588.500000	48.960553  
589.000000	49.882962  
589.500000	51.158651  
590.000000	51.742628  
590.500000	52.036174  
591.000000	52.723083  
591.500000	53.489719  
592.000000	54.394462  
592.500000	56.197628  
593.000000	58.293787  
593.500000	59.887553  
594.000000	60.120166  
594.500000	60.242045  
595.000000	61.248924  
595.500000	63.199060  
596.000000	65.501371  
596.500000	67.208575  
597.000000	68.302530  
597.500000	68.719598  
598.000000	69.974674  
598.500000	71.205446  
599.000000	72.936053  
599.500000	74.448090  
600.000000	75.944378  
600.500000	77.357022  
601.000000	78.781863  
601.500000	80.535356  
602.000000	82.551325  
602.500000	83.387037  
603.000000	84.090393  
603.500000	85.850340  
604.000000	88.945174  
604.500000	91.464477  
605.000000	92.742962  
605.500000	93.740583  
606.000000	95.378765  
606.500000	97.199696  
607.000000	98.849242  
607.500000	101.300787 
608.000000	103.881560 
608.500000	105.680371 
609.000000	106.419386 
609.500000	107.293037 
610.000000	109.867325 
610.500000	112.785000 
611.000000	115.106189 
611.500000	116.665484 
612.000000	118.939962 
612.500000	122.156659 
613.000000	125.496060 
613.500000	128.051022 
614.000000	130.496780 
614.500000	132.937189 
615.000000	134.892628 
615.500000	135.935166 
616.000000	138.002583 
616.500000	141.194621 
617.000000	144.605765 
617.500000	146.685681 
618.000000	149.353287 
618.500000	152.560121 
619.000000	156.013719 
619.500000	158.430204 
620.000000	161.765181 
620.500000	165.470333 
621.000000	168.924015 
621.500000	171.208318 
622.000000	173.618795 
622.500000	176.170431 
623.000000	179.167522 
623.500000	182.153280 
624.000000	185.367386 
624.500000	188.169833 
625.000000	191.120810 
625.500000	194.124310 
626.000000	196.920166 
626.500000	200.585477 
627.000000	204.847712 
627.500000	209.946886 
628.000000	213.912871 
628.500000	218.291553 
629.000000	221.446530 
629.500000	224.874704 
630.000000	227.039287 
630.500000	229.666500 
631.000000	233.291393 
631.500000	237.710477 
632.000000	241.962196 
632.500000	245.166363 
633.000000	249.493159 
633.500000	254.411924 
634.000000	258.777803 
634.500000	260.819977 
635.000000	262.695166 
635.500000	265.917166 
636.000000	268.624977 
636.500000	270.809924 
637.000000	272.775553 
637.500000	276.034060 
638.000000	280.042984 
638.500000	284.413075 
639.000000	287.541492 
639.500000	288.513106 
640.000000	288.917227 
640.500000	289.413810 
641.000000	291.473499 
641.500000	294.336166 
642.000000	298.437090 
642.500000	302.242371 
643.000000	305.384462 
643.500000	308.316030 
644.000000	311.542242 
644.500000	313.894075 
645.000000	315.198757 
645.500000	316.339287 
646.000000	317.597969 
646.500000	317.413431 
647.000000	317.134734 
647.500000	317.058234 
648.000000	319.412765 
648.500000	322.131848 
649.000000	324.841833 
649.500000	325.224219 
650.000000	325.536454 
650.500000	325.730954 
651.000000	326.946272 
651.500000	326.892113 
652.000000	327.029030 
652.500000	327.181840 
653.000000	327.204613 
653.500000	324.628878 
654.000000	322.419075 
654.500000	322.384242 
655.000000	324.549227 
655.500000	324.929787 
656.000000	322.738848 
656.500000	319.282893 
657.000000	318.366287 
657.500000	318.834136 
658.000000	318.723015 
658.500000	316.571666 
659.000000	313.547212 
659.500000	311.572750 
660.000000	310.439810 
660.500000	309.151833 
661.000000	306.035696 
661.500000	302.496757 
662.000000	299.590310 
662.500000	297.091878 
663.000000	293.638083 
663.500000	289.160515 
664.000000	286.651537 
664.500000	283.687636 
665.000000	279.850174 
665.500000	274.113151 
666.000000	269.995916 
666.500000	266.593386 
667.000000	263.628219 
667.500000	260.284606 
668.000000	257.091939 
668.500000	252.514310 
669.000000	246.754037 
669.500000	241.617469 
670.000000	238.873977 
670.500000	237.210015 
671.000000	233.653674 
671.500000	227.157401 
672.000000	219.803386 
672.500000	212.917878 
673.000000	206.844053 
673.500000	201.210878 
674.000000	196.615454 
674.500000	192.623507 
675.000000	188.695719 
675.500000	183.841151 
676.000000	179.175939 
676.500000	174.416121 
677.000000	170.294409 
677.500000	165.550893 
678.000000	160.190068 
678.500000	154.810628 
679.000000	151.031681 
679.500000	147.901386 
680.000000	144.347295 
680.500000	139.997515 
681.000000	136.471545 
681.500000	133.855901 
682.000000	131.285325 
682.500000	127.827742 
683.000000	123.706939 
683.500000	118.831295 
684.000000	113.690931 
684.500000	109.709492 
685.000000	107.465818 
685.500000	105.690560 
686.000000	102.284621 
686.500000	98.447484  
687.000000	94.942833  
687.500000	92.679553  
688.000000	89.583886  
688.500000	86.504257  
689.000000	83.709621  
689.500000	82.002765  
690.000000	80.087439  
690.500000	77.378250  
691.000000	74.674590  
691.500000	72.588696  
692.000000	70.591265  
692.500000	67.721401  
693.000000	64.747007  
693.500000	62.425962  
694.000000	60.829234  
694.500000	59.571492  
695.000000	58.324848  
695.500000	56.899015  
696.000000	54.784946  
696.500000	52.613545  
697.000000	51.405931  
697.500000	50.429515  
698.000000	48.975166  
698.500000	46.740727  
699.000000	44.529689  
699.500000	42.681060  
700.000000	41.571856  
700.500000	40.777128  
701.000000	39.754522  
701.500000	38.573863  
702.000000	37.383613  
702.500000	36.878159  
703.000000	36.811765  
703.500000	36.551757  
704.000000	35.529590  
704.500000	33.697999  
705.000000	31.909015  
705.500000	30.909636  
706.000000	30.399621  
706.500000	29.814651  
707.000000	29.148363  
707.500000	28.578780  
708.000000	27.913075  
708.500000	27.094628  
709.000000	26.009568  
709.500000	25.149424  
710.000000	24.594939  
710.500000	24.499151  
711.000000	24.216765  
711.500000	23.534575  
712.000000	22.594295  
712.500000	22.310265  
713.000000	22.073015  
713.500000	21.720909  
714.000000	21.045318  
714.500000	20.603825  
715.000000	19.899075  
715.500000	19.034878  
716.000000	18.242780  
716.500000	17.954674  
717.000000	17.581121  
717.500000	17.053143  
718.000000	16.542303  
718.500000	16.256446  
719.000000	15.964500  
719.500000	15.532537  
720.000000	15.276848  
720.500000	15.357984  
721.000000	15.540992  
721.500000	15.226856  
722.000000	14.508681  
722.500000	13.718537  
723.000000	13.333257  
723.500000	13.219106  
724.000000	13.041984  
724.500000	12.769689  
725.000000	12.301560  
725.500000	11.800348  
726.000000	11.548931  
726.500000	11.669757  
727.000000	11.781386  
727.500000	11.551151  
728.000000	10.877696  
728.500000	10.460901  
729.000000	10.290454  
729.500000	10.410446  
730.000000	10.346075  
730.500000	10.239681  
731.000000	10.114931  
731.500000	10.067909  
732.000000	9.853734   
732.500000	9.289037   
733.000000	8.885583   
733.500000	8.667590   
734.000000	8.819969   
734.500000	8.600462   
735.000000	8.258863   
735.500000	7.801583   
736.000000	8.012136   
736.500000	8.513462   
737.000000	8.845575   
737.500000	8.536689   
738.000000	8.009030   
738.500000	7.875272   
739.000000	7.950053   
739.500000	7.985484   
740.000000	7.929348   
740.500000	7.964613   
741.000000	7.778924   
741.500000	7.306893   
742.000000	6.926303   
742.500000	6.769022   
743.000000	6.772424   
743.500000	6.600015   
744.000000	6.442734   
744.500000	6.376378   
745.000000	6.356128   
745.500000	6.312053   
746.000000	6.213969   
746.500000	6.387196   
747.000000	6.522803   
747.500000	6.531166   
748.000000	6.240196   
748.500000	6.030765   
749.000000	5.930469   
749.500000	5.732992   
750.000000	5.369098   
750.500000	4.976727   
751.000000	4.670265   
751.500000	4.469727   
752.000000	4.565037   
752.500000	4.838598   
753.000000	4.970515   
753.500000	4.932992   
754.000000	4.780568   
754.500000	4.723886   
755.000000	4.588537   
755.500000	4.616651   
756.000000	4.616242   
756.500000	4.567098   
757.000000	4.521909   
757.500000	4.839962   
758.000000	5.133553   
758.500000	4.884227   
759.000000	4.385166   
759.500000	4.299136   
760.000000	4.681545   
760.500000	4.725128   
761.000000	4.275507   
761.500000	3.783553   
762.000000	3.816469   
762.500000	4.011439   
763.000000	4.223121   
763.500000	4.269674   
764.000000	4.304787   
764.500000	4.179742   
765.000000	4.121901   
765.500000	4.141416   
766.000000	4.166901   
766.500000	3.888696   
767.000000	3.652053   
767.500000	3.707378   
768.000000	3.906939   
768.500000	3.885386   
769.000000	3.737613   
769.500000	3.641750   
770.000000	3.657219   
770.500000	3.709446   
771.000000	3.750636   
771.500000	3.665060   
772.000000	3.505416   
772.500000	3.388787   
773.000000	3.342053   
773.500000	3.278969   
774.000000	3.241174   
774.500000	3.322590   
775.000000	3.534325   
775.500000	3.641060   
776.000000	3.636931   
776.500000	3.463310   
777.000000	3.242636   
777.500000	3.071606   
778.000000	3.092590   
778.500000	3.177393   
779.000000	3.231424   
779.500000	3.206545   
780.000000	3.188628   
780.500000	3.218568   
781.000000	3.217666   
781.500000	3.228613   
782.000000	3.197681   
782.500000	3.075234   
783.000000	2.910310   
783.500000	2.845462   
784.000000	2.969803   
784.500000	3.175598   
785.000000	3.228174   
785.500000	3.166060   
786.000000	3.128348   
786.500000	3.156022   
787.000000	3.060265   
787.500000	2.894969   
788.000000	2.686818   
788.500000	2.551303   
789.000000	2.485931   
789.500000	2.520568   
790.000000	2.732060   
790.500000	2.925977   
791.000000	3.000651   
791.500000	2.844803   
792.000000	2.630833   
792.500000	2.489606   
793.000000	2.565962   
793.500000	2.637143   
794.000000	2.604287   
794.500000	2.596583   
795.000000	2.692848   
795.500000	2.788750   
796.000000	2.706151   
796.500000	2.594431   
797.000000	2.537886   
797.500000	2.491909   
798.000000	2.405825   
798.500000	2.402068   
799.000000	2.481446   
799.500000	2.440621   
800.000000	2.265515   
800.500000	1.973757   
801.000000	1.796378   
801.500000	1.818348   
802.000000	2.118083   
802.500000	2.325681   
803.000000	2.352303   
803.500000	2.212212   
804.000000	2.256053   
804.500000	2.253924   
805.000000	2.258181   
805.500000	2.144424   
806.000000	2.127704   
806.500000	2.034431   
807.000000	1.997984   
807.500000	1.962810   
808.000000	2.025840   
808.500000	2.068969   
809.000000	1.973522   
809.500000	1.890833   
810.000000	1.872363   
810.500000	2.050757   
811.000000	2.066901   
811.500000	1.890628   
812.000000	1.518106   
812.500000	1.453416   
813.000000	1.568666   
813.500000	1.764863   
814.000000	1.730901   
814.500000	1.551621   
815.000000	1.374234   
815.500000	1.342757   
816.000000	1.371787   
816.500000	1.500462   
817.000000	1.610750   
817.500000	1.684454   
818.000000	1.746196   
818.500000	1.796287   
819.000000	1.775484   
819.500000	1.702901   
820.000000	1.554174   
820.500000	1.586212   
821.000000	1.762159   
821.500000	2.066734   
822.000000	2.223257   
822.500000	2.203681   
823.000000	2.117151   
823.500000	2.236469   
824.000000	2.405795   
824.500000	2.487969   
825.000000	2.435128   
825.500000	2.360946   
826.000000	2.310030   
826.500000	2.192553   
827.000000	2.017265   
827.500000	1.950878   
828.000000	1.889060   
828.500000	1.929113   
829.000000	1.866045   
829.500000	1.700992   
830.000000	1.496613   
830.500000	1.351212   
831.000000	1.274962   
831.500000	1.256106   
832.000000	1.282204   
832.500000	1.418348   
833.000000	1.527007   
833.500000	1.429143   
834.000000	1.234151   
834.500000	1.128553   
835.000000	1.112825   
835.500000	1.122113   
836.000000	1.079492   
836.500000	1.061234   
837.000000	1.045992   
837.500000	1.002530   
838.000000	1.011515   
838.500000	0.996431   
839.000000	0.893371   
839.500000	0.834166   
840.000000	0.899810   
840.500000	0.934939   
841.000000	0.844037   
841.500000	0.686803   
842.000000	0.713181   
842.500000	0.759568   
843.000000	0.756992   
843.500000	0.667401   
844.000000	0.632553   
844.500000	0.687681   
845.000000	0.771613   
845.500000	0.721916   
846.000000	0.436212   
846.500000	0.227681   
847.000000	0.228840   
847.500000	0.375174   
848.000000	0.359848   
848.500000	0.226878   
849.000000	0.167242   
849.500000	0.254272   
850.000000	0.270325   
850.500000	0.228068   
851.000000	0.249303   
851.500000	0.321583   
852.000000	0.427098   
852.500000	0.475962   
853.000000	0.434242   
853.500000	0.282825   
854.000000	0.175909   
854.500000	0.172318   
855.000000	0.237325   
855.500000	0.209681   
856.000000	0.114863   
856.500000	0.036166   
857.000000	0.023810   
857.500000	0.101886   
858.000000	0.144666   
858.500000	0.061575   
859.000000	-0.034954  
859.500000	-0.014598  
860.000000	0.014401   
860.500000	-0.008227  
861.000000	-0.031424  
861.500000	0.023613   
862.000000	0.092325   
862.500000	0.176575   
863.000000	0.233553   
863.500000	0.213621   
864.000000	0.086181   
864.500000	-0.056840  
865.000000	-0.186325  
865.500000	-0.246424  
866.000000	-0.202553  
866.500000	0.036628   
867.000000	0.212750   
867.500000	0.274674   
868.000000	0.190106   
868.500000	0.165272   
869.000000	0.085742   
869.500000	0.035318   
870.000000	-0.005833  
870.500000	0.103553   
871.000000	0.228962   
871.500000	0.320507   
872.000000	0.267128   
872.500000	0.263143   
873.000000	0.163939   
873.500000	0.086878   
874.000000	-0.099674  
874.500000	-0.070356  
875.000000	-0.051946  
875.500000	-0.018136  
876.000000	-0.166037  
876.500000	-0.159022  
877.000000	-0.093977  
877.500000	0.012484   
878.000000	0.024227   
878.500000	0.056628   
879.000000	0.087272   
879.500000	0.010378   
880.000000	-0.180280  
880.500000	-0.337765  
881.000000	-0.297568  
881.500000	-0.162250  
882.000000	-0.067515  
882.500000	-0.076106  
883.000000	-0.069606  
883.500000	-0.040333  
884.000000	-0.014909  
884.500000	-0.034098  
885.000000	-0.006431  
885.500000	0.008553   
886.000000	0.000863   
886.500000	-0.064992  
887.000000	-0.089909  
887.500000	-0.081924  
888.000000	-0.067696  
888.500000	-0.073590  
889.000000	-0.059068  
889.500000	-0.008212  
890.000000	-0.029492  
890.500000	-0.049946  
891.000000	-0.058424  
891.500000	0.053939   
892.000000	0.111250   
892.500000	0.103712   
893.000000	0.047553   
893.500000	0.095325   
894.000000	0.174219   
894.500000	0.190037   
895.000000	0.089212   
895.500000	-0.051416  
896.000000	-0.104901  
896.500000	-0.079212  
897.000000	-0.042909  
897.500000	-0.061719  

