PE FL                   SPECTRUM    ASCII       PEDS        1.60        
  -1
SA9BB1~1.SP
24/04/12
16:23:25.00
24/04/12
16:23:25.00
Jan

897.500000
1









LS55
405.00
5.00
5.00
SCAN
1
20
100
100
0
400
0
1
0
1
5
ON
450 405 
1 0 0
#HDR
-1
-1
#GR
NM

0.00002384185791015625
0.0
450.000000
0.500000
896
8
287.232712
-0.314310
#DATA
450.000000	0.814999   
450.500000	0.497522   
451.000000	0.264196   
451.500000	0.090212   
452.000000	-0.011537  
452.500000	-0.128598  
453.000000	-0.184871  
453.500000	-0.269954  
454.000000	-0.256825  
454.500000	-0.010098  
455.000000	0.315318   
455.500000	0.428431   
456.000000	0.197227   
456.500000	-0.050310  
457.000000	-0.070151  
457.500000	0.044068   
458.000000	0.063977   
458.500000	0.008643   
459.000000	-0.011659  
459.500000	-0.069803  
460.000000	-0.144621  
460.500000	-0.170113  
461.000000	-0.066545  
461.500000	0.065840   
462.000000	0.019772   
462.500000	-0.122621  
463.000000	-0.177727  
463.500000	-0.014734  
464.000000	0.197515   
464.500000	0.332522   
465.000000	0.218787   
465.500000	-0.004477  
466.000000	-0.142250  
466.500000	-0.078053  
467.000000	-0.018909  
467.500000	-0.049560  
468.000000	-0.045446  
468.500000	0.038500   
469.000000	0.169159   
469.500000	0.211121   
470.000000	0.183469   
470.500000	0.129424   
471.000000	0.069712   
471.500000	0.080810   
472.000000	0.079106   
472.500000	-0.038863  
473.000000	-0.199992  
473.500000	-0.182568  
474.000000	-0.085393  
474.500000	0.041825   
475.000000	0.158219   
475.500000	0.197265   
476.000000	0.203696   
476.500000	0.073598   
477.000000	0.012348   
477.500000	-0.050969  
478.000000	-0.064378  
478.500000	-0.113674  
479.000000	-0.103598  
479.500000	-0.063477  
480.000000	-0.014045  
480.500000	-0.040242  
481.000000	-0.002378  
481.500000	0.121825   
482.000000	0.217681   
482.500000	0.174515   
483.000000	0.026522   
483.500000	-0.084628  
484.000000	-0.068151  
484.500000	-0.049628  
485.000000	-0.069386  
485.500000	-0.103318  
486.000000	-0.108727  
486.500000	0.011696   
487.000000	0.201560   
487.500000	0.370750   
488.000000	0.304007   
488.500000	0.060113   
489.000000	-0.179901  
489.500000	-0.181878  
490.000000	-0.100651  
490.500000	-0.031984  
491.000000	-0.035416  
491.500000	-0.022484  
492.000000	-0.010128  
492.500000	0.022999   
493.000000	0.106310   
493.500000	0.243636   
494.000000	0.402174   
494.500000	0.355515   
495.000000	0.227515   
495.500000	0.045909   
496.000000	0.086484   
496.500000	0.096469   
497.000000	0.173143   
497.500000	0.160848   
498.000000	0.218606   
498.500000	0.186583   
499.000000	0.234500   
499.500000	0.350931   
500.000000	0.486696   
500.500000	0.522939   
501.000000	0.511507   
501.500000	0.488257   
502.000000	0.532174   
502.500000	0.622068   
503.000000	0.752060   
503.500000	0.738030   
504.000000	0.691454   
504.500000	0.665181   
505.000000	0.890765   
505.500000	1.131946   
506.000000	1.273409   
506.500000	1.209424   
507.000000	1.032075   
507.500000	0.876643   
508.000000	0.857560   
508.500000	0.886318   
509.000000	0.883166   
509.500000	0.902977   
510.000000	1.033863   
510.500000	1.102386   
511.000000	1.095931   
511.500000	1.009643   
512.000000	0.998371   
512.500000	0.927371   
513.000000	0.948765   
513.500000	1.056500   
514.000000	1.290712   
514.500000	1.390363   
515.000000	1.330893   
515.500000	1.327871   
516.000000	1.578393   
516.500000	1.989212   
517.000000	2.073272   
517.500000	1.836151   
518.000000	1.576643   
518.500000	1.713696   
519.000000	2.055500   
519.500000	2.480969   
520.000000	2.622439   
520.500000	2.491674   
521.000000	2.254143   
521.500000	2.296856   
522.000000	2.596136   
522.500000	2.812727   
523.000000	2.752696   
523.500000	2.615219   
524.000000	2.587803   
524.500000	2.806681   
525.000000	3.056356   
525.500000	3.193174   
526.000000	3.200500   
526.500000	3.288643   
527.000000	3.341643   
527.500000	3.487378   
528.000000	3.663090   
528.500000	3.827166   
529.000000	3.883924   
529.500000	4.139931   
530.000000	4.728212   
530.500000	5.343303   
531.000000	5.579787   
531.500000	5.493348   
532.000000	5.474712   
532.500000	5.544196   
533.000000	5.689863   
533.500000	5.730848   
534.000000	5.836219   
534.500000	6.278803   
535.000000	6.903212   
535.500000	7.357022   
536.000000	7.233818   
536.500000	7.181424   
537.000000	7.387295   
537.500000	8.076416   
538.000000	8.689234   
538.500000	9.249310   
539.000000	9.513272   
539.500000	9.633568   
540.000000	9.779825   
540.500000	10.228537  
541.000000	10.852909  
541.500000	11.325636  
542.000000	11.327522  
542.500000	11.105166  
543.000000	11.072356  
543.500000	11.494212  
544.000000	12.194106  
544.500000	12.568704  
545.000000	12.470204  
545.500000	12.055083  
546.000000	11.781727  
546.500000	11.635060  
547.000000	11.697984  
547.500000	11.917212  
548.000000	12.019992  
548.500000	12.027651  
549.000000	11.854765  
549.500000	11.906568  
550.000000	11.663151  
550.500000	11.258628  
551.000000	10.920053  
551.500000	11.177333  
552.000000	11.758803  
552.500000	12.129022  
553.000000	12.218704  
553.500000	12.073916  
554.000000	12.184750  
554.500000	12.201871  
555.000000	12.569303  
555.500000	12.852878  
556.000000	13.230734  
556.500000	13.156674  
557.000000	12.925666  
557.500000	12.660098  
558.000000	12.921666  
558.500000	13.296181  
559.000000	13.711537  
559.500000	13.912325  
560.000000	14.217575  
560.500000	14.349492  
561.000000	14.727598  
561.500000	15.187954  
562.000000	16.225083  
562.500000	16.937886  
563.000000	17.278106  
563.500000	17.342977  
564.000000	17.621303  
564.500000	18.032969  
565.000000	18.236545  
565.500000	18.663848  
566.000000	19.184128  
566.500000	19.705500  
567.000000	19.882386  
567.500000	20.435704  
568.000000	21.306681  
568.500000	22.142143  
569.000000	22.630840  
569.500000	23.206750  
570.000000	23.712356  
570.500000	24.157174  
571.000000	24.710893  
571.500000	25.674272  
572.000000	26.278310  
572.500000	26.550962  
573.000000	26.586136  
573.500000	26.801060  
574.000000	27.306750  
574.500000	27.954659  
575.000000	28.606250  
575.500000	28.745727  
576.000000	29.115378  
576.500000	29.571090  
577.000000	30.322500  
577.500000	30.799083  
578.000000	31.680378  
578.500000	32.338871  
579.000000	32.744598  
579.500000	32.772128  
580.000000	32.848522  
580.500000	32.854787  
581.000000	32.829356  
581.500000	33.255863  
582.000000	34.005325  
582.500000	35.373022  
583.000000	36.460901  
583.500000	37.194553  
584.000000	37.533143  
584.500000	38.337598  
585.000000	39.457590  
585.500000	40.580856  
586.000000	41.559840  
586.500000	42.238696  
587.000000	42.718106  
587.500000	43.083083  
588.000000	44.245848  
588.500000	45.770227  
589.000000	46.967007  
589.500000	47.734325  
590.000000	48.557954  
590.500000	49.667401  
591.000000	50.532143  
591.500000	50.939969  
592.000000	51.293007  
592.500000	53.306848  
593.000000	56.015772  
593.500000	58.040522  
594.000000	58.213909  
594.500000	57.889780  
595.000000	58.319250  
595.500000	59.927537  
596.000000	61.831068  
596.500000	63.284704  
597.000000	64.015659  
597.500000	64.713992  
598.000000	66.583280  
598.500000	68.182954  
599.000000	68.654053  
599.500000	68.835833  
600.000000	70.244689  
600.500000	72.196863  
601.000000	73.630878  
601.500000	74.637719  
602.000000	76.557999  
602.500000	78.365553  
603.000000	79.481401  
603.500000	80.332795  
604.000000	81.471598  
604.500000	83.052151  
605.000000	85.154492  
605.500000	87.693075  
606.000000	89.647090  
606.500000	90.987598  
607.000000	92.383378  
607.500000	94.608477  
608.000000	96.144204  
608.500000	97.655886  
609.000000	99.499015  
609.500000	102.314121 
610.000000	104.044227 
610.500000	105.326863 
611.000000	106.945765 
611.500000	109.871628 
612.000000	111.760393 
612.500000	113.357356 
613.000000	115.317121 
613.500000	118.256181 
614.000000	120.588515 
614.500000	122.330878 
615.000000	124.057409 
615.500000	126.217492 
616.000000	128.081810 
616.500000	129.974545 
617.000000	132.707030 
617.500000	135.766969 
618.000000	138.438424 
618.500000	139.549257 
619.000000	140.433196 
619.500000	142.367250 
620.000000	145.080409 
620.500000	148.239537 
621.000000	151.273454 
621.500000	155.167439 
622.000000	159.032007 
622.500000	162.412696 
623.000000	163.832083 
623.500000	164.755098 
624.000000	166.460681 
624.500000	169.871757 
625.000000	174.140734 
625.500000	178.050030 
626.000000	181.438977 
626.500000	183.737492 
627.000000	185.426674 
627.500000	188.062159 
628.000000	191.973787 
628.500000	194.676174 
629.000000	196.572727 
629.500000	199.066303 
630.000000	202.967651 
630.500000	207.340575 
631.000000	210.575287 
631.500000	213.243393 
632.000000	215.938643 
632.500000	219.083113 
633.000000	222.016537 
633.500000	224.919310 
634.000000	227.371325 
634.500000	229.658037 
635.000000	232.058325 
635.500000	234.897924 
636.000000	237.403181 
636.500000	240.735022 
637.000000	243.605886 
637.500000	246.991643 
638.000000	248.012651 
638.500000	249.915250 
639.000000	251.981924 
639.500000	255.283439 
640.000000	257.890363 
640.500000	260.072818 
641.000000	262.216189 
641.500000	262.972568 
642.000000	264.394636 
642.500000	266.743363 
643.000000	269.951560 
643.500000	270.956810 
644.000000	272.110295 
644.500000	273.895446 
645.000000	275.239825 
645.500000	274.739090 
646.000000	275.057416 
646.500000	277.750424 
647.000000	281.734818 
647.500000	283.971742 
648.000000	284.051590 
648.500000	284.034007 
649.000000	283.125378 
649.500000	282.997386 
650.000000	282.816204 
650.500000	283.359507 
651.000000	283.521022 
651.500000	283.965196 
652.000000	283.277189 
652.500000	284.544803 
653.000000	286.760962 
653.500000	287.232712 
654.000000	284.034575 
654.500000	280.479651 
655.000000	280.079803 
655.500000	280.919772 
656.000000	279.241962 
656.500000	276.468992 
657.000000	275.521454 
657.500000	274.807015 
658.000000	273.814090 
658.500000	271.862045 
659.000000	270.478878 
659.500000	267.987090 
660.000000	264.231871 
660.500000	260.103166 
661.000000	257.929287 
661.500000	256.454030 
662.000000	253.996825 
662.500000	250.152840 
663.000000	246.093636 
663.500000	244.024196 
664.000000	242.216280 
664.500000	239.672810 
665.000000	235.504401 
665.500000	232.287287 
666.000000	230.299598 
666.500000	227.858765 
667.000000	223.664901 
667.500000	218.433666 
668.000000	214.591462 
668.500000	210.950636 
669.000000	207.347590 
669.500000	202.525651 
670.000000	197.949772 
670.500000	192.758454 
671.000000	188.196310 
671.500000	184.096568 
672.000000	180.994848 
672.500000	177.707704 
673.000000	174.849045 
673.500000	171.819265 
674.000000	168.418189 
674.500000	162.915075 
675.000000	156.703310 
675.500000	151.132477 
676.000000	147.222356 
676.500000	143.986439 
677.000000	141.175818 
677.500000	137.944234 
678.000000	133.944090 
678.500000	128.734469 
679.000000	124.611083 
679.500000	121.843037 
680.000000	119.810143 
680.500000	116.300484 
681.000000	112.299583 
681.500000	108.648310 
682.000000	105.880204 
682.500000	102.988977 
683.000000	99.642015  
683.500000	96.925053  
684.000000	94.183666  
684.500000	91.843181  
685.000000	88.591477  
685.500000	85.572113  
686.000000	82.445371  
686.500000	80.392227  
687.000000	78.406022  
687.500000	76.342242  
688.000000	72.849522  
688.500000	69.728318  
689.000000	67.261174  
689.500000	65.902265  
690.000000	63.921522  
690.500000	62.026750  
691.000000	59.843780  
691.500000	58.115856  
692.000000	56.719333  
692.500000	56.156787  
693.000000	55.544681  
693.500000	53.689250  
694.000000	51.004363  
694.500000	48.752916  
695.000000	47.605583  
695.500000	46.370939  
696.000000	44.635159  
696.500000	43.229734  
697.000000	42.168303  
697.500000	40.943666  
698.000000	39.143659  
698.500000	37.282325  
699.000000	36.164363  
699.500000	35.726856  
700.000000	35.298901  
700.500000	34.294424  
701.000000	33.109265  
701.500000	32.186484  
702.000000	31.687613  
702.500000	30.998621  
703.000000	29.982636  
703.500000	29.008325  
704.000000	28.266750  
704.500000	27.586810  
705.000000	26.581265  
705.500000	25.366446  
706.000000	24.326901  
706.500000	23.722848  
707.000000	23.231598  
707.500000	22.791681  
708.000000	22.377939  
708.500000	22.465189  
709.000000	22.172674  
709.500000	21.397310  
710.000000	20.420113  
710.500000	20.060022  
711.000000	20.082386  
711.500000	19.837030  
712.000000	19.183159  
712.500000	18.546037  
713.000000	18.027719  
713.500000	17.258310  
714.000000	16.617515  
714.500000	16.396340  
715.000000	16.385015  
715.500000	16.322772  
716.000000	15.964818  
716.500000	15.628803  
717.000000	15.246151  
717.500000	14.797106  
718.000000	14.373219  
718.500000	14.007068  
719.000000	13.434310  
719.500000	12.638431  
720.000000	12.271030  
720.500000	12.199310  
721.000000	12.307659  
721.500000	12.060840  
722.000000	11.862840  
722.500000	11.821825  
723.000000	11.949484  
723.500000	12.011696  
724.000000	11.941598  
724.500000	11.530515  
725.000000	10.776250  
725.500000	10.203598  
726.000000	10.038424  
726.500000	10.244371  
727.000000	10.249136  
727.500000	9.967780   
728.000000	9.941393   
728.500000	10.088689  
729.000000	10.061598  
729.500000	9.500704   
730.000000	8.816522   
730.500000	8.257810   
731.000000	7.932325   
731.500000	7.675681   
732.000000	7.726477   
732.500000	8.019181   
733.000000	8.299666   
733.500000	8.407984   
734.000000	8.250863   
734.500000	7.774416   
735.000000	7.397590   
735.500000	7.314219   
736.000000	7.607159   
736.500000	7.739409   
737.000000	7.677704   
737.500000	7.320545   
738.000000	6.918257   
738.500000	6.540840   
739.000000	6.385068   
739.500000	6.394636   
740.000000	6.422409   
740.500000	6.371916   
741.000000	6.394196   
741.500000	6.372583   
742.000000	6.582272   
742.500000	6.507409   
743.000000	6.283727   
743.500000	5.773287   
744.000000	5.904083   
744.500000	6.005272   
745.000000	6.067613   
745.500000	5.607924   
746.000000	5.439424   
746.500000	5.417999   
747.000000	5.513962   
747.500000	5.456030   
748.000000	5.368962   
748.500000	5.208719   
749.000000	5.149553   
749.500000	5.150522   
750.000000	5.238916   
750.500000	5.157734   
751.000000	5.166295   
751.500000	4.971507   
752.000000	4.897310   
752.500000	4.638712   
753.000000	4.647409   
753.500000	4.647810   
754.000000	5.056977   
754.500000	5.077954   
755.000000	4.902136   
755.500000	4.439249   
756.000000	4.424325   
756.500000	4.270886   
757.000000	4.157583   
757.500000	3.921045   
758.000000	4.103590   
758.500000	4.119446   
759.000000	4.054219   
759.500000	4.039757   
760.000000	4.227871   
760.500000	4.274371   
761.000000	4.295303   
761.500000	4.311984   
762.000000	4.211871   
762.500000	3.885189   
763.000000	3.619143   
763.500000	3.474818   
764.000000	3.464083   
764.500000	3.393530   
765.000000	3.431696   
765.500000	3.447909   
766.000000	3.668553   
766.500000	3.940083   
767.000000	4.200840   
767.500000	3.956371   
768.000000	3.629977   
768.500000	3.400962   
769.000000	3.486037   
769.500000	3.441856   
770.000000	3.352446   
770.500000	3.275727   
771.000000	3.321007   
771.500000	3.294931   
772.000000	3.416924   
772.500000	3.573803   
773.000000	3.629151   
773.500000	3.380530   
774.000000	3.114530   
774.500000	3.015840   
775.000000	3.103227   
775.500000	3.165446   
776.000000	3.243863   
776.500000	3.279840   
777.000000	3.246674   
777.500000	3.209280   
778.000000	3.141098   
778.500000	3.045772   
779.000000	3.008878   
779.500000	3.118689   
780.000000	3.155659   
780.500000	3.036613   
781.000000	2.860181   
781.500000	2.976151   
782.000000	3.102409   
782.500000	3.096098   
783.000000	2.933000   
783.500000	2.908848   
784.000000	2.924446   
784.500000	3.016393   
785.000000	3.111075   
785.500000	3.184522   
786.000000	2.931621   
786.500000	2.562939   
787.000000	2.385090   
787.500000	2.602136   
788.000000	2.805553   
788.500000	2.854128   
789.000000	2.722303   
789.500000	2.592704   
790.000000	2.577515   
790.500000	2.634719   
791.000000	2.696219   
791.500000	2.667636   
792.000000	2.639825   
792.500000	2.630742   
793.000000	2.580174   
793.500000	2.447757   
794.000000	2.314636   
794.500000	2.292212   
795.000000	2.349409   
795.500000	2.432159   
796.000000	2.417583   
796.500000	2.327946   
797.000000	2.207818   
797.500000	2.169621   
798.000000	2.357454   
798.500000	2.430303   
799.000000	2.285045   
799.500000	1.931484   
800.000000	1.833659   
800.500000	2.019977   
801.000000	2.360363   
801.500000	2.507946   
802.000000	2.432969   
802.500000	2.313121   
803.000000	2.235393   
803.500000	2.306363   
804.000000	2.147446   
804.500000	2.004439   
805.000000	1.871075   
805.500000	1.958106   
806.000000	1.890424   
806.500000	1.863060   
807.000000	1.814742   
807.500000	1.874151   
808.000000	1.870204   
808.500000	1.961931   
809.000000	2.091378   
809.500000	2.139803   
810.000000	2.003992   
810.500000	1.890310   
811.000000	1.861204   
811.500000	1.856318   
812.000000	1.653174   
812.500000	1.587075   
813.000000	1.742462   
813.500000	1.999386   
814.000000	1.882106   
814.500000	1.669439   
815.000000	1.497795   
815.500000	1.535666   
816.000000	1.497121   
816.500000	1.476204   
817.000000	1.506401   
817.500000	1.647181   
818.000000	1.657272   
818.500000	1.577431   
819.000000	1.515060   
819.500000	1.542689   
820.000000	1.511598   
820.500000	1.533356   
821.000000	1.637386   
821.500000	1.842871   
822.000000	1.898219   
822.500000	1.978878   
823.000000	2.260424   
823.500000	2.717189   
824.000000	2.800477   
824.500000	2.734674   
825.000000	2.560136   
825.500000	2.488946   
826.000000	2.256878   
826.500000	2.125348   
827.000000	1.976507   
827.500000	1.986022   
828.000000	1.978416   
828.500000	2.033378   
829.000000	1.937378   
829.500000	1.632181   
830.000000	1.437803   
830.500000	1.355878   
831.000000	1.330742   
831.500000	1.164484   
832.000000	1.074643   
832.500000	1.188575   
833.000000	1.336696   
833.500000	1.309818   
834.000000	1.051371   
834.500000	0.915545   
835.000000	0.896007   
835.500000	1.037068   
836.000000	1.026704   
836.500000	0.976325   
837.000000	0.908045   
837.500000	0.840848   
838.000000	0.786189   
838.500000	0.736606   
839.000000	0.750871   
839.500000	0.770477   
840.000000	0.833689   
840.500000	0.778015   
841.000000	0.691984   
841.500000	0.575143   
842.000000	0.635181   
842.500000	0.726499   
843.000000	0.750712   
843.500000	0.584333   
844.000000	0.389090   
844.500000	0.328939   
845.000000	0.440515   
845.500000	0.580765   
846.000000	0.534613   
846.500000	0.401446   
847.000000	0.229886   
847.500000	0.193856   
848.000000	0.226121   
848.500000	0.422575   
849.000000	0.557272   
849.500000	0.532522   
850.000000	0.348946   
850.500000	0.242643   
851.000000	0.225712   
851.500000	0.242000   
852.000000	0.216295   
852.500000	0.243628   
853.000000	0.310363   
853.500000	0.329477   
854.000000	0.183446   
854.500000	0.039477   
855.000000	0.009401   
855.500000	0.136840   
856.000000	0.173643   
856.500000	0.132742   
857.000000	0.050287   
857.500000	0.032295   
858.000000	0.054257   
858.500000	0.078280   
859.000000	0.100924   
859.500000	0.108560   
860.000000	0.053651   
860.500000	-0.045378  
861.000000	-0.116083  
861.500000	-0.103265  
862.000000	-0.018643  
862.500000	0.116643   
863.000000	0.179196   
863.500000	0.129696   
864.000000	-0.059931  
864.500000	-0.192939  
865.000000	-0.159113  
865.500000	-0.068810  
866.000000	0.029909   
866.500000	0.059068   
867.000000	0.211560   
867.500000	0.340022   
868.000000	0.445946   
868.500000	0.249863   
869.000000	0.068689   
869.500000	0.001098   
870.000000	0.093628   
870.500000	0.033159   
871.000000	-0.178007  
871.500000	-0.276681  
872.000000	-0.124280  
872.500000	0.160393   
873.000000	0.166901   
873.500000	-0.078553  
874.000000	-0.314310  
874.500000	-0.236075  
875.000000	-0.011969  
875.500000	0.097075   
876.000000	0.027431   
876.500000	-0.109924  
877.000000	-0.172000  
877.500000	-0.179295  
878.000000	-0.025060  
878.500000	0.037613   
879.000000	0.025568   
879.500000	-0.095606  
880.000000	-0.080757  
880.500000	-0.104121  
881.000000	-0.104515  
881.500000	-0.089295  
882.000000	0.015113   
882.500000	0.129159   
883.000000	0.132621   
883.500000	0.093643   
884.000000	0.020886   
884.500000	0.020901   
885.000000	0.073575   
885.500000	0.201250   
886.000000	0.203780   
886.500000	0.179946   
887.000000	0.095575   
887.500000	0.024363   
888.000000	-0.041681  
888.500000	0.073348   
889.000000	0.147037   
889.500000	0.148901   
890.000000	-0.083613  
890.500000	-0.143143  
891.000000	-0.083628  
891.500000	0.044356   
892.000000	-0.020121  
892.500000	-0.085310  
893.000000	-0.106765  
893.500000	0.000848   
894.000000	0.073000   
894.500000	0.014787   
895.000000	-0.082143  
895.500000	-0.126893  
896.000000	-0.058939  
896.500000	-0.001803  
897.000000	0.020280   
897.500000	-0.017689  

