PE FL                   SPECTRUM    ASCII       PEDS        1.60        
  -1
SAMPLE~1.SP
24/04/12
15:19:14.00
24/04/12
15:19:14.00
Jan

897.500000
1









LS55
405.00
5.00
5.00
SCAN
1
20
100
100
0
400
0
1
0
1
5
ON
450 405 
1 0 0
#HDR
-1
-1
#GR
NM

0.00002384185791015625
0.0
450.000000
0.500000
896
8
404.884840
-0.402000
#DATA
450.000000	-0.402000  
450.500000	-0.073462  
451.000000	0.025287   
451.500000	-0.005386  
452.000000	0.048515   
452.500000	0.226227   
453.000000	0.273265   
453.500000	0.142454   
454.000000	-0.002136  
454.500000	-0.042553  
455.000000	0.172977   
455.500000	0.334446   
456.000000	0.393719   
456.500000	0.258234   
457.000000	0.235045   
457.500000	0.214689   
458.000000	0.222446   
458.500000	0.118909   
459.000000	0.156833   
459.500000	0.197060   
460.000000	0.184174   
460.500000	0.044696   
461.000000	0.051553   
461.500000	0.137734   
462.000000	0.241196   
462.500000	0.178795   
463.000000	0.192704   
463.500000	0.284424   
464.000000	0.399090   
464.500000	0.344856   
465.000000	0.186931   
465.500000	0.009015   
466.000000	-0.052363  
466.500000	-0.093674  
467.000000	0.026083   
467.500000	0.191015   
468.000000	0.351780   
468.500000	0.370234   
469.000000	0.253227   
469.500000	0.190924   
470.000000	0.162416   
470.500000	0.237340   
471.000000	0.221174   
471.500000	0.298181   
472.000000	0.284446   
472.500000	0.293803   
473.000000	0.172772   
473.500000	0.056931   
474.000000	0.057621   
474.500000	0.013462   
475.000000	0.064265   
475.500000	0.136280   
476.000000	0.306492   
476.500000	0.359280   
477.000000	0.268469   
477.500000	0.146356   
478.000000	0.156984   
478.500000	0.271863   
479.000000	0.213621   
479.500000	0.096856   
480.000000	0.011143   
480.500000	0.122204   
481.000000	0.252000   
481.500000	0.267719   
482.000000	0.282871   
482.500000	0.360999   
483.000000	0.455401   
483.500000	0.471500   
484.000000	0.407060   
484.500000	0.317128   
485.000000	0.244856   
485.500000	0.221954   
486.000000	0.252128   
486.500000	0.316848   
487.000000	0.303840   
487.500000	0.156795   
488.000000	0.089871   
488.500000	0.190787   
489.000000	0.393954   
489.500000	0.444356   
490.000000	0.337893   
490.500000	0.275000   
491.000000	0.290378   
491.500000	0.334007   
492.000000	0.433363   
492.500000	0.469424   
493.000000	0.333181   
493.500000	0.141272   
494.000000	0.230477   
494.500000	0.412143   
495.000000	0.449810   
495.500000	0.309310   
496.000000	0.299204   
496.500000	0.405840   
497.000000	0.377416   
497.500000	0.249666   
498.000000	0.171446   
498.500000	0.184098   
499.000000	0.225621   
499.500000	0.288431   
500.000000	0.306810   
500.500000	0.284636   
501.000000	0.334969   
501.500000	0.502295   
502.000000	0.633863   
502.500000	0.686659   
503.000000	0.683060   
503.500000	0.750000   
504.000000	0.705931   
504.500000	0.656636   
505.000000	0.697492   
505.500000	0.851310   
506.000000	0.947818   
506.500000	0.946409   
507.000000	0.910560   
507.500000	0.848401   
508.000000	0.882613   
508.500000	1.022666   
509.000000	1.086666   
509.500000	0.985681   
510.000000	0.897303   
510.500000	0.992090   
511.000000	1.141803   
511.500000	1.272939   
512.000000	1.496136   
512.500000	1.595939   
513.000000	1.570803   
513.500000	1.421469   
514.000000	1.652431   
514.500000	1.881166   
515.000000	1.946606   
515.500000	1.590583   
516.000000	1.333098   
516.500000	1.384810   
517.000000	1.704871   
517.500000	1.966340   
518.000000	1.987916   
518.500000	1.944378   
519.000000	1.990166   
519.500000	2.050909   
520.000000	2.101901   
520.500000	2.161015   
521.000000	2.309068   
521.500000	2.443643   
522.000000	2.635015   
522.500000	2.651628   
523.000000	2.588810   
523.500000	2.527333   
524.000000	2.506757   
524.500000	2.598280   
525.000000	2.731371   
525.500000	2.939931   
526.000000	3.144030   
526.500000	3.278121   
527.000000	3.336878   
527.500000	3.412893   
528.000000	3.506098   
528.500000	3.727583   
529.000000	4.039666   
529.500000	4.264628   
530.000000	4.410310   
530.500000	4.558924   
531.000000	4.624878   
531.500000	4.746151   
532.000000	4.970628   
532.500000	5.399136   
533.000000	5.756204   
533.500000	6.131984   
534.000000	6.455553   
534.500000	6.721196   
535.000000	6.974303   
535.500000	7.251113   
536.000000	7.362280   
536.500000	7.361128   
537.000000	7.593636   
537.500000	8.067113   
538.000000	8.427303   
538.500000	8.490621   
539.000000	8.801325   
539.500000	9.370590   
540.000000	10.069545  
540.500000	10.460568  
541.000000	10.862378  
541.500000	11.076704  
542.000000	11.360181  
542.500000	11.511666  
543.000000	11.843810  
543.500000	12.091674  
544.000000	12.388045  
544.500000	12.228750  
545.000000	12.045575  
545.500000	11.828318  
546.000000	11.961181  
546.500000	11.997356  
547.000000	12.271295  
547.500000	12.535439  
548.000000	12.910643  
548.500000	12.891727  
549.000000	12.347409  
549.500000	11.921659  
550.000000	11.775219  
550.500000	12.392431  
551.000000	12.956265  
551.500000	13.519795  
552.000000	13.733825  
552.500000	14.046113  
553.000000	13.794727  
553.500000	13.569901  
554.000000	13.645795  
554.500000	14.018863  
555.000000	14.062863  
555.500000	13.760166  
556.000000	13.566204  
556.500000	13.759954  
557.000000	14.190848  
557.500000	14.804477  
558.000000	15.402545  
558.500000	15.919030  
559.000000	16.259159  
559.500000	16.527977  
560.000000	16.614446  
560.500000	16.778840  
561.000000	17.357507  
561.500000	18.370931  
562.000000	19.392643  
562.500000	19.774598  
563.000000	19.785522  
563.500000	19.676325  
564.000000	20.184757  
564.500000	20.576818  
565.000000	20.698537  
565.500000	20.781234  
566.000000	21.771181  
566.500000	22.719159  
567.000000	23.210219  
567.500000	23.268590  
568.000000	23.958303  
568.500000	24.799257  
569.000000	25.826863  
569.500000	26.294340  
570.000000	26.653878  
570.500000	26.765030  
571.000000	27.566636  
571.500000	28.806409  
572.000000	30.084424  
572.500000	30.525234  
573.000000	30.837893  
573.500000	31.414484  
574.000000	32.148681  
574.500000	32.494416  
575.000000	32.743469  
575.500000	33.123757  
576.000000	34.203333  
576.500000	35.460090  
577.000000	36.411356  
577.500000	36.609727  
578.000000	36.725045  
578.500000	37.476840  
579.000000	39.085560  
579.500000	40.244742  
580.000000	40.552871  
580.500000	40.550901  
581.000000	40.707537  
581.500000	41.302310  
582.000000	42.268219  
582.500000	43.471090  
583.000000	44.616333  
583.500000	45.563272  
584.000000	46.228560  
584.500000	47.115719  
585.000000	47.971234  
585.500000	48.366962  
586.000000	48.440007  
586.500000	49.202136  
587.000000	51.103015  
587.500000	53.082424  
588.000000	54.324348  
588.500000	55.594181  
589.000000	57.046030  
589.500000	57.835969  
590.000000	57.937333  
590.500000	58.831840  
591.000000	61.119719  
591.500000	63.777795  
592.000000	65.611863  
592.500000	66.739522  
593.000000	68.173719  
593.500000	70.405772  
594.000000	72.553575  
594.500000	73.522409  
595.000000	73.874575  
595.500000	74.968863  
596.000000	77.182053  
596.500000	79.504068  
597.000000	80.924454  
597.500000	81.483568  
598.000000	81.707303  
598.500000	83.160575  
599.000000	85.720734  
599.500000	89.002515  
600.000000	91.255015  
600.500000	92.407916  
601.000000	92.987265  
601.500000	94.416977  
602.000000	96.496378  
602.500000	98.411939  
603.000000	100.575174 
603.500000	102.844212 
604.000000	104.777507 
604.500000	105.703424 
605.000000	107.066295 
605.500000	109.739772 
606.000000	113.143992 
606.500000	116.374037 
607.000000	118.959954 
607.500000	121.016098 
608.000000	122.349181 
608.500000	124.227174 
609.000000	127.044037 
609.500000	129.982287 
610.000000	131.640765 
610.500000	133.442500 
611.000000	136.172174 
611.500000	140.129250 
612.000000	143.753106 
612.500000	146.843287 
613.000000	148.620840 
613.500000	150.287954 
614.000000	151.533840 
614.500000	154.632621 
615.000000	158.065106 
615.500000	161.844030 
616.000000	165.022166 
616.500000	167.924325 
617.000000	169.897787 
617.500000	172.039992 
618.000000	175.973530 
618.500000	180.872325 
619.000000	185.367931 
619.500000	188.207234 
620.000000	191.590454 
620.500000	196.914515 
621.000000	202.430386 
621.500000	206.020106 
622.000000	207.573681 
622.500000	210.518303 
623.000000	214.456363 
623.500000	218.655772 
624.000000	221.193022 
624.500000	223.620871 
625.000000	227.298742 
625.500000	231.633757 
626.000000	235.675954 
626.500000	239.080696 
627.000000	243.622500 
627.500000	248.782045 
628.000000	253.029287 
628.500000	257.209090 
629.000000	262.219416 
629.500000	268.229113 
630.000000	272.400977 
630.500000	274.730848 
631.000000	277.153371 
631.500000	281.521840 
632.000000	286.960916 
632.500000	292.671780 
633.000000	297.490636 
633.500000	301.068727 
634.000000	303.864598 
634.500000	307.200871 
635.000000	311.814946 
635.500000	318.317734 
636.000000	323.135992 
636.500000	325.649780 
637.000000	327.302575 
637.500000	330.948909 
638.000000	335.640106 
638.500000	339.424848 
639.000000	342.440962 
639.500000	346.215219 
640.000000	350.444333 
640.500000	354.039378 
641.000000	357.249242 
641.500000	361.332121 
642.000000	364.987363 
642.500000	367.392022 
643.000000	369.380219 
643.500000	372.240992 
644.000000	375.319196 
644.500000	376.888469 
645.000000	378.599969 
645.500000	381.701181 
646.000000	386.523833 
646.500000	389.803522 
647.000000	391.575871 
647.500000	392.117780 
648.000000	392.425916 
648.500000	393.069227 
649.000000	395.360174 
649.500000	399.141143 
650.000000	401.385121 
650.500000	401.311416 
651.000000	400.580446 
651.500000	400.697856 
652.000000	400.850242 
652.500000	399.274424 
653.000000	399.749681 
653.500000	401.953000 
654.000000	404.667643 
654.500000	404.884840 
655.000000	404.054651 
655.500000	402.197613 
656.000000	399.515272 
656.500000	397.671613 
657.000000	398.063143 
657.500000	400.045424 
658.000000	399.854227 
658.500000	397.327545 
659.000000	393.750295 
659.500000	390.627704 
660.000000	388.596553 
660.500000	387.435500 
661.000000	386.354886 
661.500000	384.036636 
662.000000	381.690651 
662.500000	379.443219 
663.000000	376.565340 
663.500000	373.195007 
664.000000	369.475325 
664.500000	366.364075 
665.000000	362.674992 
665.500000	358.876477 
666.000000	353.923416 
666.500000	349.224500 
667.000000	344.988893 
667.500000	342.276848 
668.000000	339.012909 
668.500000	335.418068 
669.000000	331.365500 
669.500000	328.179136 
670.000000	323.248333 
670.500000	317.955045 
671.000000	312.279628 
671.500000	308.581977 
672.000000	304.328666 
672.500000	300.111803 
673.000000	294.593803 
673.500000	288.650272 
674.000000	282.113121 
674.500000	276.724136 
675.000000	272.028924 
675.500000	266.963242 
676.000000	260.726969 
676.500000	255.083568 
677.000000	250.115893 
677.500000	246.157621 
678.000000	240.405500 
678.500000	235.197060 
679.000000	230.101984 
679.500000	225.662098 
680.000000	219.087946 
680.500000	213.515227 
681.000000	208.603022 
681.500000	204.782174 
682.000000	198.669856 
682.500000	192.359560 
683.000000	186.844098 
683.500000	182.486590 
684.000000	177.699666 
684.500000	172.034674 
685.000000	166.289750 
685.500000	160.554962 
686.000000	156.545969 
686.500000	152.542234 
687.000000	148.357303 
687.500000	143.228598 
688.000000	139.730424 
688.500000	135.798590 
689.000000	131.632090 
689.500000	126.411257 
690.000000	122.500992 
690.500000	119.578310 
691.000000	117.641909 
691.500000	114.911863 
692.000000	111.771416 
692.500000	107.797772 
693.000000	104.227356 
693.500000	100.451219 
694.000000	97.152522  
694.500000	94.253954  
695.000000	91.797734  
695.500000	88.672484  
696.000000	85.655280  
696.500000	83.696424  
697.000000	81.854303  
697.500000	79.213636  
698.000000	75.711848  
698.500000	73.360106  
699.000000	71.239795  
699.500000	68.933507  
700.000000	66.711909  
700.500000	64.463189  
701.000000	62.321621  
701.500000	59.655681  
702.000000	58.045386  
702.500000	56.050909  
703.000000	54.606272  
703.500000	53.164553  
704.000000	52.644257  
704.500000	51.310833  
705.000000	49.701212  
705.500000	48.181946  
706.000000	47.024742  
706.500000	45.456462  
707.000000	44.198227  
707.500000	43.348060  
708.000000	42.781363  
708.500000	41.597515  
709.000000	40.465045  
709.500000	39.246575  
710.000000	38.472212  
710.500000	37.575628  
711.000000	36.670265  
711.500000	35.560492  
712.000000	34.515446  
712.500000	33.763090  
713.000000	32.870204  
713.500000	31.550401  
714.000000	30.369075  
714.500000	29.852553  
715.000000	29.592560  
715.500000	28.852681  
716.000000	27.591121  
716.500000	26.705583  
717.000000	26.595295  
717.500000	26.573871  
718.000000	26.156310  
718.500000	25.721545  
719.000000	24.994537  
719.500000	23.939530  
720.000000	22.386325  
720.500000	21.423795  
721.000000	20.999196  
721.500000	20.881803  
722.000000	20.152000  
722.500000	19.939030  
723.000000	19.877553  
723.500000	19.888583  
724.000000	19.300227  
724.500000	18.705522  
725.000000	18.327772  
725.500000	17.793053  
726.000000	17.013204  
726.500000	16.251356  
727.000000	16.429045  
727.500000	16.675257  
728.000000	16.666727  
728.500000	15.619416  
729.000000	14.516159  
729.500000	13.901265  
730.000000	14.007242  
730.500000	14.112106  
731.000000	13.574772  
731.500000	12.869856  
732.000000	12.435151  
732.500000	12.857295  
733.000000	13.266492  
733.500000	13.389712  
734.000000	12.893106  
734.500000	12.554674  
735.000000	12.290121  
735.500000	11.949484  
736.000000	11.428969  
736.500000	11.334939  
737.000000	11.493303  
737.500000	11.464409  
738.000000	10.819863  
738.500000	10.295901  
739.000000	10.108674  
739.500000	10.358159  
740.000000	10.197825  
740.500000	9.993621   
741.000000	9.446219   
741.500000	9.174401   
742.000000	8.883242   
742.500000	8.761454   
743.000000	8.589628   
743.500000	8.725287   
744.000000	9.056499   
744.500000	9.263159   
745.000000	8.869772   
745.500000	8.272893   
746.000000	7.868666   
746.500000	7.733310   
747.000000	7.452106   
747.500000	7.389386   
748.000000	7.579196   
748.500000	7.877742   
749.000000	7.739651   
749.500000	7.539878   
750.000000	7.386431   
750.500000	7.221310   
751.000000	7.032303   
751.500000	6.897999   
752.000000	6.927492   
752.500000	6.924795   
753.000000	6.852333   
753.500000	6.678348   
754.000000	6.501378   
754.500000	6.116750   
755.000000	5.948795   
755.500000	6.030643   
756.000000	6.197007   
756.500000	6.063924   
757.000000	5.714772   
757.500000	5.482530   
758.000000	5.821234   
758.500000	6.055568   
759.000000	5.941500   
759.500000	5.533833   
760.000000	5.425772   
760.500000	5.274462   
761.000000	5.446310   
761.500000	5.572833   
762.000000	5.925181   
762.500000	5.817878   
763.000000	5.562560   
763.500000	5.200666   
764.000000	5.002742   
764.500000	4.675219   
765.000000	4.435378   
765.500000	4.346613   
766.000000	4.190484   
766.500000	3.970386   
767.000000	3.868537   
767.500000	4.096378   
768.000000	4.421522   
768.500000	4.853992   
769.000000	4.972575   
769.500000	4.848833   
770.000000	4.277522   
770.500000	3.860833   
771.000000	3.773727   
771.500000	4.023651   
772.000000	4.010454   
772.500000	3.839583   
773.000000	3.658553   
773.500000	3.653568   
774.000000	3.770431   
774.500000	3.682045   
775.000000	3.642287   
775.500000	3.601439   
776.000000	3.621984   
776.500000	3.528000   
777.000000	3.472954   
777.500000	3.391363   
778.000000	3.299568   
778.500000	3.243795   
779.000000	3.325537   
779.500000	3.531386   
780.000000	3.525348   
780.500000	3.278424   
781.000000	3.048810   
781.500000	3.019954   
782.000000	3.178545   
782.500000	3.231325   
783.000000	3.253378   
783.500000	3.221946   
784.000000	3.257939   
784.500000	3.269159   
785.000000	3.246780   
785.500000	3.231924   
786.000000	3.190765   
786.500000	3.141863   
787.000000	3.095969   
787.500000	3.099780   
788.000000	3.068151   
788.500000	3.042545   
789.000000	3.055212   
789.500000	3.088840   
790.000000	3.088250   
790.500000	3.024939   
791.000000	3.023106   
791.500000	3.013121   
792.000000	2.996954   
792.500000	2.932575   
793.000000	2.857825   
793.500000	2.741871   
794.000000	2.725939   
794.500000	2.803901   
795.000000	2.984780   
795.500000	2.944924   
796.000000	2.760106   
796.500000	2.536083   
797.000000	2.531272   
797.500000	2.592750   
798.000000	2.656886   
798.500000	2.592583   
799.000000	2.543030   
799.500000	2.507893   
800.000000	2.568492   
800.500000	2.604704   
801.000000	2.543530   
801.500000	2.322204   
802.000000	2.313507   
802.500000	2.440045   
803.000000	2.618477   
803.500000	2.531613   
804.000000	2.449681   
804.500000	2.379795   
805.000000	2.281742   
805.500000	2.036287   
806.000000	1.901636   
806.500000	2.095424   
807.000000	2.259643   
807.500000	2.271265   
808.000000	2.026522   
808.500000	1.996189   
809.000000	1.988560   
809.500000	2.047030   
810.000000	2.077666   
810.500000	2.090719   
811.000000	1.983348   
811.500000	1.879371   
812.000000	1.925348   
812.500000	2.051696   
813.000000	2.032818   
813.500000	1.986098   
814.000000	2.086977   
814.500000	2.175090   
815.000000	1.953500   
815.500000	1.622189   
816.000000	1.437833   
816.500000	1.552060   
817.000000	1.757030   
817.500000	1.861863   
818.000000	1.939992   
818.500000	1.999643   
819.000000	1.989583   
819.500000	1.831272   
820.000000	1.608674   
820.500000	1.399363   
821.000000	1.347651   
821.500000	1.449424   
822.000000	1.797340   
822.500000	2.250848   
823.000000	2.661856   
823.500000	2.824969   
824.000000	2.736037   
824.500000	2.615757   
825.000000	2.562272   
825.500000	2.669931   
826.000000	2.593053   
826.500000	2.338265   
827.000000	2.092984   
827.500000	2.114136   
828.000000	2.157734   
828.500000	2.096856   
829.000000	1.908265   
829.500000	1.722818   
830.000000	1.557977   
830.500000	1.364583   
831.000000	1.271037   
831.500000	1.285234   
832.000000	1.307810   
832.500000	1.246454   
833.000000	1.185765   
833.500000	1.057007   
834.000000	1.050340   
834.500000	1.095568   
835.000000	1.190787   
835.500000	1.167833   
836.000000	1.070098   
836.500000	0.988022   
837.000000	0.989613   
837.500000	0.972151   
838.000000	0.900439   
838.500000	0.878098   
839.000000	0.934977   
839.500000	1.014325   
840.000000	1.018681   
840.500000	0.897522   
841.000000	0.798083   
841.500000	0.743363   
842.000000	0.785696   
842.500000	0.789113   
843.000000	0.820825   
843.500000	0.754219   
844.000000	0.749219   
844.500000	0.681136   
845.000000	0.626454   
845.500000	0.474507   
846.000000	0.348553   
846.500000	0.348916   
847.000000	0.434143   
847.500000	0.443469   
848.000000	0.351825   
848.500000	0.374901   
849.000000	0.417378   
849.500000	0.385939   
850.000000	0.206242   
850.500000	0.127863   
851.000000	0.249318   
851.500000	0.368795   
852.000000	0.425848   
852.500000	0.304848   
853.000000	0.164856   
853.500000	0.040166   
854.000000	0.086280   
854.500000	0.050977   
855.000000	-0.024340  
855.500000	-0.102181  
856.000000	0.012416   
856.500000	0.161196   
857.000000	0.178098   
857.500000	0.084666   
858.000000	0.006893   
858.500000	-0.008265  
859.000000	-0.060803  
859.500000	-0.092666  
860.000000	-0.086946  
860.500000	0.028545   
861.000000	0.148484   
861.500000	0.253439   
862.000000	0.170318   
862.500000	0.030143   
863.000000	-0.045068  
863.500000	-0.010106  
864.000000	-0.041765  
864.500000	-0.143439  
865.000000	-0.229750  
865.500000	-0.125795  
866.000000	0.056840   
866.500000	0.058924   
867.000000	-0.114303  
867.500000	-0.263340  
868.000000	-0.043893  
868.500000	0.188454   
869.000000	0.246492   
869.500000	0.017969   
870.000000	0.031704   
870.500000	0.096750   
871.000000	0.173196   
871.500000	0.071174   
872.000000	0.078181   
872.500000	0.134734   
873.000000	0.213204   
873.500000	0.184734   
874.000000	0.188030   
874.500000	0.210416   
875.000000	0.238795   
875.500000	0.137060   
876.000000	-0.008303  
876.500000	-0.087878  
877.000000	-0.038113  
877.500000	0.037227   
878.000000	0.120325   
878.500000	0.201439   
879.000000	0.260212   
879.500000	0.247280   
880.000000	0.125863   
880.500000	0.042484   
881.000000	0.071719   
881.500000	0.139515   
882.000000	0.132318   
882.500000	0.006295   
883.000000	-0.104530  
883.500000	-0.083181  
884.000000	0.060196   
884.500000	0.133121   
885.000000	0.092871   
885.500000	0.022575   
886.000000	0.067393   
886.500000	0.068719   
887.000000	-0.071734  
887.500000	-0.247575  
888.000000	-0.262909  
888.500000	-0.133022  
889.000000	-0.037803  
889.500000	-0.074749  
890.000000	-0.205219  
890.500000	-0.238962  
891.000000	-0.150113  
891.500000	0.016166   
892.000000	0.058272   
892.500000	-0.023022  
893.000000	-0.112121  
893.500000	-0.045196  
894.000000	0.086568   
894.500000	0.112416   
895.000000	0.034030   
895.500000	-0.057136  
896.000000	-0.053037  
896.500000	-0.024310  
897.000000	-0.066083  
897.500000	-0.122462  

