PE FL                   SPECTRUM    ASCII       PEDS        1.60        
  -1
SA9BA5~1.SP
24/04/12
16:34:49.00
24/04/12
16:34:49.00
Jan

897.500000
1









LS55
405.00
5.00
5.00
SCAN
1
20
100
100
0
400
0
1
0
1
5
ON
450 405 
1 0 0
#HDR
-1
-1
#GR
NM

0.00002384185791015625
0.0
450.000000
0.500000
896
8
263.882992
-0.421166
#DATA
450.000000	0.304000   
450.500000	0.197272   
451.000000	0.179628   
451.500000	0.207340   
452.000000	0.099818   
452.500000	0.032083   
453.000000	0.081681   
453.500000	0.266204   
454.000000	0.174696   
454.500000	-0.085287  
455.000000	-0.281848  
455.500000	-0.123030  
456.000000	0.079984   
456.500000	0.126439   
457.000000	0.049333   
457.500000	0.031409   
458.000000	-0.012818  
458.500000	-0.197696  
459.000000	-0.334356  
459.500000	-0.201969  
460.000000	0.177901   
460.500000	0.496007   
461.000000	0.577378   
461.500000	0.404727   
462.000000	0.215174   
462.500000	0.008500   
463.000000	-0.098833  
463.500000	-0.157106  
464.000000	-0.133878  
464.500000	-0.128765  
465.000000	-0.099484  
465.500000	-0.093022  
466.000000	-0.010886  
466.500000	0.176393   
467.000000	0.401909   
467.500000	0.477515   
468.000000	0.182878   
468.500000	-0.137492  
469.000000	-0.258393  
469.500000	-0.140575  
470.000000	-0.151469  
470.500000	-0.306727  
471.000000	-0.421166  
471.500000	-0.215030  
472.000000	0.128409   
472.500000	0.368977   
473.000000	0.377924   
473.500000	0.223636   
474.000000	0.192045   
474.500000	0.155833   
475.000000	0.108545   
475.500000	0.068219   
476.000000	0.184742   
476.500000	0.286000   
477.000000	0.258083   
477.500000	0.135522   
478.000000	0.230727   
478.500000	0.408651   
479.000000	0.491151   
479.500000	0.425409   
480.000000	0.390265   
480.500000	0.330325   
481.000000	0.304462   
481.500000	0.140333   
482.000000	0.038598   
482.500000	-0.151090  
483.000000	-0.156143  
483.500000	-0.084818  
484.000000	0.139295   
484.500000	0.264719   
485.000000	0.325886   
485.500000	0.304916   
486.000000	0.316121   
486.500000	0.298295   
487.000000	0.224053   
487.500000	0.214128   
488.000000	0.334962   
488.500000	0.448492   
489.000000	0.453613   
489.500000	0.360212   
490.000000	0.271477   
490.500000	0.073803   
491.000000	-0.052060  
491.500000	-0.041128  
492.000000	0.229674   
492.500000	0.348787   
493.000000	0.324704   
493.500000	0.215954   
494.000000	0.258590   
494.500000	0.257492   
495.000000	0.245969   
495.500000	0.142409   
496.000000	0.223946   
496.500000	0.301727   
497.000000	0.358371   
497.500000	0.261909   
498.000000	0.271719   
498.500000	0.271439   
499.000000	0.275651   
499.500000	0.092022   
500.000000	0.068681   
500.500000	0.245636   
501.000000	0.487553   
501.500000	0.432098   
502.000000	0.230636   
502.500000	0.156560   
503.000000	0.287901   
503.500000	0.462212   
504.000000	0.571424   
504.500000	0.680303   
505.000000	0.732818   
505.500000	0.717143   
506.000000	0.629007   
506.500000	0.662424   
507.000000	0.756371   
507.500000	0.858507   
508.000000	0.914242   
508.500000	0.909628   
509.000000	0.850250   
509.500000	0.766522   
510.000000	0.832924   
510.500000	1.015863   
511.000000	1.182916   
511.500000	1.155204   
512.000000	1.002818   
512.500000	1.007446   
513.000000	1.066863   
513.500000	1.178621   
514.000000	1.209219   
514.500000	1.407492   
515.000000	1.511909   
515.500000	1.657810   
516.000000	1.646689   
516.500000	1.861128   
517.000000	2.008696   
517.500000	2.045689   
518.000000	1.996757   
518.500000	1.929590   
519.000000	1.820151   
519.500000	1.747318   
520.000000	1.985234   
520.500000	2.300651   
521.000000	2.590037   
521.500000	2.562992   
522.000000	2.474371   
522.500000	2.408378   
523.000000	2.492015   
523.500000	2.668537   
524.000000	2.739166   
524.500000	2.653931   
525.000000	2.625454   
525.500000	2.801924   
526.000000	3.049462   
526.500000	3.401742   
527.000000	3.605401   
527.500000	3.639166   
528.000000	3.836340   
528.500000	4.035757   
529.000000	4.462333   
529.500000	4.651871   
530.000000	4.933431   
530.500000	5.003643   
531.000000	5.173825   
531.500000	5.088530   
532.000000	5.306401   
532.500000	5.675189   
533.000000	6.180068   
533.500000	6.440969   
534.000000	6.419325   
534.500000	6.646818   
535.000000	7.201613   
535.500000	7.766212   
536.000000	7.903856   
536.500000	7.867636   
537.000000	7.793636   
537.500000	7.809863   
538.000000	8.119106   
538.500000	8.649712   
539.000000	9.345401   
539.500000	9.845893   
540.000000	10.403909  
540.500000	10.868560  
541.000000	11.420227  
541.500000	11.658507  
542.000000	12.035992  
542.500000	12.253295  
543.000000	12.312803  
543.500000	11.885439  
544.000000	11.450613  
544.500000	11.216136  
545.000000	11.447068  
545.500000	11.803431  
546.000000	12.143196  
546.500000	12.063113  
547.000000	11.869128  
547.500000	11.867515  
548.000000	12.117265  
548.500000	12.051371  
549.000000	11.810522  
549.500000	11.496424  
550.000000	11.564363  
550.500000	11.479030  
551.000000	11.362424  
551.500000	11.240409  
552.000000	11.400984  
552.500000	11.562424  
553.000000	11.867833  
553.500000	12.108181  
554.000000	12.444666  
554.500000	12.526393  
555.000000	12.473856  
555.500000	12.390272  
556.000000	12.585916  
556.500000	12.947689  
557.000000	13.264893  
557.500000	13.398462  
558.000000	13.202825  
558.500000	13.425598  
559.000000	13.920136  
559.500000	14.874962  
560.000000	15.211272  
560.500000	15.548537  
561.000000	15.781409  
561.500000	16.413371  
562.000000	16.950500  
562.500000	17.253151  
563.000000	17.139727  
563.500000	17.202560  
564.000000	17.802401  
564.500000	18.977553  
565.000000	19.994159  
565.500000	20.354257  
566.000000	20.387204  
566.500000	20.436575  
567.000000	20.606954  
567.500000	21.001575  
568.000000	21.722136  
568.500000	22.260454  
569.000000	22.668280  
569.500000	22.670757  
570.000000	22.751060  
570.500000	23.034704  
571.000000	23.609340  
571.500000	24.268378  
572.000000	24.640303  
572.500000	24.615045  
573.000000	24.745416  
573.500000	25.697825  
574.000000	27.102128  
574.500000	27.988045  
575.000000	27.841560  
575.500000	27.238621  
576.000000	27.445492  
576.500000	27.812416  
577.000000	28.229636  
577.500000	28.868848  
578.000000	29.953606  
578.500000	30.959416  
579.000000	31.580803  
579.500000	31.863939  
580.000000	32.253924  
580.500000	32.958840  
581.000000	33.925643  
581.500000	34.907181  
582.000000	35.756734  
582.500000	35.956916  
583.000000	36.181242  
583.500000	36.414893  
584.000000	37.475704  
584.500000	38.510037  
585.000000	39.131901  
585.500000	39.297295  
586.000000	40.543590  
586.500000	42.152553  
587.000000	43.093780  
587.500000	43.245439  
588.000000	43.658825  
588.500000	44.808378  
589.000000	45.842371  
589.500000	46.436757  
590.000000	47.115189  
590.500000	49.129825  
591.000000	51.247409  
591.500000	52.597621  
592.000000	52.220189  
592.500000	52.256734  
593.000000	53.503954  
593.500000	55.715909  
594.000000	57.483015  
594.500000	58.777242  
595.000000	59.578795  
595.500000	60.134189  
596.000000	60.669962  
596.500000	61.536000  
597.000000	63.214121  
597.500000	65.282765  
598.000000	66.752674  
598.500000	67.571606  
599.000000	67.730575  
599.500000	68.748484  
600.000000	70.181462  
600.500000	71.870272  
601.000000	72.781181  
601.500000	73.939560  
602.000000	74.963833  
602.500000	76.642083  
603.000000	78.428401  
603.500000	80.394719  
604.000000	81.959833  
604.500000	82.479787  
605.000000	82.939583  
605.500000	84.568030  
606.000000	87.217295  
606.500000	89.621848  
607.000000	91.445992  
607.500000	93.258893  
608.000000	94.636234  
608.500000	96.338553  
609.000000	97.681386  
609.500000	100.041242 
610.000000	101.960295 
610.500000	103.936848 
611.000000	104.792954 
611.500000	106.256575 
612.000000	107.518219 
612.500000	109.587333 
613.000000	110.790780 
613.500000	112.410969 
614.000000	114.131113 
614.500000	116.895946 
615.000000	119.431795 
615.500000	122.032893 
616.000000	123.381075 
616.500000	124.747219 
617.000000	126.937992 
617.500000	130.339462 
618.000000	132.893606 
618.500000	134.087439 
619.000000	135.716946 
619.500000	139.409560 
620.000000	143.618522 
620.500000	146.189356 
621.000000	147.882272 
621.500000	150.165606 
622.000000	154.370742 
622.500000	158.242840 
623.000000	161.238045 
623.500000	162.611371 
624.000000	163.676878 
624.500000	164.539568 
625.000000	166.013469 
625.500000	168.636727 
626.000000	171.796810 
626.500000	174.706363 
627.000000	177.456962 
627.500000	181.396106 
628.000000	185.937886 
628.500000	189.600840 
629.000000	191.641371 
629.500000	193.285098 
630.000000	195.503651 
630.500000	198.373909 
631.000000	202.059060 
631.500000	205.736007 
632.000000	208.628030 
632.500000	210.331143 
633.000000	211.742371 
633.500000	213.561000 
634.000000	216.288727 
634.500000	217.762128 
635.000000	219.160901 
635.500000	220.819022 
636.000000	224.291272 
636.500000	227.817477 
637.000000	231.154128 
637.500000	233.564553 
638.000000	236.381068 
638.500000	238.620045 
639.000000	240.959477 
639.500000	243.020250 
640.000000	244.836704 
640.500000	245.842083 
641.000000	245.667893 
641.500000	245.432628 
642.000000	247.008765 
642.500000	249.548128 
643.000000	251.392083 
643.500000	251.317037 
644.000000	251.739431 
644.500000	253.191181 
645.000000	256.077621 
645.500000	257.821696 
646.000000	259.188416 
646.500000	258.663318 
647.000000	259.109219 
647.500000	260.290272 
648.000000	262.536833 
648.500000	263.678659 
649.000000	263.882992 
649.500000	263.215106 
650.000000	262.705636 
650.500000	262.754992 
651.000000	262.977007 
651.500000	262.694310 
652.000000	261.019636 
652.500000	259.546022 
653.000000	258.667386 
653.500000	258.288363 
654.000000	257.820083 
654.500000	256.675280 
655.000000	254.365409 
655.500000	251.584977 
656.000000	250.096606 
656.500000	249.334189 
657.000000	249.007787 
657.500000	247.918689 
658.000000	246.623000 
658.500000	244.359575 
659.000000	241.808734 
659.500000	239.034386 
660.000000	237.277992 
660.500000	234.458340 
661.000000	232.254863 
661.500000	230.513765 
662.000000	230.260878 
662.500000	228.916863 
663.000000	225.185333 
663.500000	220.302053 
664.000000	216.695712 
664.500000	214.365969 
665.000000	211.655575 
665.500000	208.770878 
666.000000	204.692893 
666.500000	200.467537 
667.000000	196.222712 
667.500000	192.686196 
668.000000	189.116106 
668.500000	184.971863 
669.000000	180.812409 
669.500000	176.578037 
670.000000	171.301393 
670.500000	166.780318 
671.000000	163.315121 
671.500000	161.095984 
672.000000	157.903318 
672.500000	154.819484 
673.000000	150.585053 
673.500000	146.692340 
674.000000	141.986772 
674.500000	138.781280 
675.000000	135.688636 
675.500000	132.467303 
676.000000	127.651340 
676.500000	122.613250 
677.000000	118.326757 
677.500000	115.720628 
678.000000	113.686893 
678.500000	111.114893 
679.000000	107.835000 
679.500000	104.271666 
680.000000	101.106954 
680.500000	98.382659  
681.000000	95.649674  
681.500000	92.905674  
682.000000	90.635931  
682.500000	87.711553  
683.000000	84.645356  
683.500000	81.979121  
684.000000	80.459969  
684.500000	78.108916  
685.000000	75.197007  
685.500000	71.995848  
686.000000	70.345613  
686.500000	68.510553  
687.000000	66.704454  
687.500000	64.595068  
688.000000	63.082045  
688.500000	61.125378  
689.000000	59.121030  
689.500000	56.686356  
690.000000	54.957189  
690.500000	53.562045  
691.000000	52.108628  
691.500000	50.392469  
692.000000	48.826871  
692.500000	47.749136  
693.000000	46.852045  
693.500000	46.009992  
694.000000	44.785393  
694.500000	43.434378  
695.000000	42.014151  
695.500000	40.819106  
696.000000	40.012060  
696.500000	38.814962  
697.000000	37.556439  
697.500000	36.073780  
698.000000	35.151037  
698.500000	34.419189  
699.000000	33.917484  
699.500000	32.666143  
700.000000	31.039424  
700.500000	29.572651  
701.000000	28.781181  
701.500000	28.103803  
702.000000	27.297454  
702.500000	26.272545  
703.000000	25.507227  
703.500000	24.520515  
704.000000	23.883333  
704.500000	23.351242  
705.000000	23.301196  
705.500000	22.940303  
706.000000	22.297772  
706.500000	21.265712  
707.000000	20.309992  
707.500000	19.864878  
708.000000	19.619030  
708.500000	19.177469  
709.000000	18.765946  
709.500000	18.853106  
710.000000	19.013750  
710.500000	18.571030  
711.000000	17.866901  
711.500000	17.536674  
712.000000	17.474393  
712.500000	16.768674  
713.000000	15.516946  
713.500000	14.908696  
714.000000	15.212477  
714.500000	15.590712  
715.000000	15.031674  
715.500000	14.118643  
716.000000	13.587022  
716.500000	13.635303  
717.000000	13.639643  
717.500000	13.347977  
718.000000	12.885886  
718.500000	12.413007  
719.000000	12.105174  
719.500000	11.876969  
720.000000	11.600075  
720.500000	11.389295  
721.000000	11.407000  
721.500000	11.582272  
722.000000	11.521356  
722.500000	10.994469  
723.000000	10.211121  
723.500000	9.831356   
724.000000	9.805954   
724.500000	10.158810  
725.000000	10.211674  
725.500000	10.119651  
726.000000	9.663174   
726.500000	9.358007   
727.000000	8.902848   
727.500000	8.605507   
728.000000	8.350712   
728.500000	8.341022   
729.000000	8.338045   
729.500000	8.145939   
730.000000	7.948181   
730.500000	7.619712   
731.000000	7.722704   
731.500000	7.902742   
732.000000	8.251856   
732.500000	7.989772   
733.000000	7.648636   
733.500000	7.196477   
734.000000	7.264886   
734.500000	7.038954   
735.000000	6.905939   
735.500000	6.596628   
736.000000	6.462053   
736.500000	6.227204   
737.000000	6.171818   
737.500000	6.294795   
738.000000	6.424378   
738.500000	6.309878   
739.000000	6.157954   
739.500000	6.301712   
740.000000	6.382416   
740.500000	6.170613   
741.000000	5.789409   
741.500000	5.612530   
742.000000	5.576325   
742.500000	5.583689   
743.000000	5.533325   
743.500000	5.639287   
744.000000	5.630583   
744.500000	5.817984   
745.000000	5.846848   
745.500000	5.877924   
746.000000	5.515143   
746.500000	5.360787   
747.000000	5.367666   
747.500000	5.516757   
748.000000	5.478537   
748.500000	5.167280   
749.000000	4.823272   
749.500000	4.640045   
750.000000	4.933310   
750.500000	5.172598   
751.000000	5.138909   
751.500000	4.671333   
752.000000	4.342363   
752.500000	4.109878   
753.000000	3.917257   
753.500000	3.792378   
754.000000	3.963553   
754.500000	4.382000   
755.000000	4.603492   
755.500000	4.381356   
756.000000	4.046704   
756.500000	3.864287   
757.000000	3.857022   
757.500000	3.778681   
758.000000	3.788537   
758.500000	3.891492   
759.000000	3.919969   
759.500000	3.719681   
760.000000	3.596946   
760.500000	3.648265   
761.000000	3.658181   
761.500000	3.616477   
762.000000	3.532212   
762.500000	3.624090   
763.000000	3.856878   
763.500000	4.136712   
764.000000	4.255863   
764.500000	4.110454   
765.000000	3.906810   
765.500000	3.768803   
766.000000	3.702871   
766.500000	3.730295   
767.000000	3.939962   
767.500000	4.111022   
768.000000	4.013340   
768.500000	3.693507   
769.000000	3.407068   
769.500000	3.352204   
770.000000	3.474795   
770.500000	3.637628   
771.000000	3.674575   
771.500000	3.532446   
772.000000	3.269242   
772.500000	3.046924   
773.000000	3.013143   
773.500000	3.177606   
774.000000	3.347371   
774.500000	3.332363   
775.000000	3.255500   
775.500000	3.173401   
776.000000	3.192333   
776.500000	3.134530   
777.000000	3.156734   
777.500000	3.123613   
778.000000	3.045500   
778.500000	2.851386   
779.000000	2.769386   
779.500000	2.847727   
780.000000	3.029681   
780.500000	3.135901   
781.000000	3.110166   
781.500000	3.010893   
782.000000	2.915257   
782.500000	2.812712   
783.000000	2.789090   
783.500000	2.879068   
784.000000	3.139333   
784.500000	3.142977   
785.000000	2.923696   
785.500000	2.711128   
786.000000	2.774128   
786.500000	2.947386   
787.000000	3.098954   
787.500000	3.130583   
788.000000	3.036348   
788.500000	2.791750   
789.000000	2.572310   
789.500000	2.538871   
790.000000	2.601856   
790.500000	2.730227   
791.000000	2.864484   
791.500000	2.926037   
792.000000	2.831727   
792.500000	2.629666   
793.000000	2.490386   
793.500000	2.458750   
794.000000	2.569098   
794.500000	2.698628   
795.000000	2.854303   
795.500000	2.841166   
796.000000	2.772068   
796.500000	2.462704   
797.000000	2.219522   
797.500000	2.001553   
798.000000	2.098810   
798.500000	2.179946   
799.000000	2.363931   
799.500000	2.304856   
800.000000	2.196386   
800.500000	1.894727   
801.000000	1.801946   
801.500000	1.893310   
802.000000	2.044106   
802.500000	2.056840   
803.000000	1.945022   
803.500000	1.939037   
804.000000	1.933962   
804.500000	1.900053   
805.000000	1.756560   
805.500000	1.622856   
806.000000	1.539083   
806.500000	1.676098   
807.000000	1.941780   
807.500000	2.104825   
808.000000	2.060257   
808.500000	2.100750   
809.000000	2.143636   
809.500000	2.003621   
810.000000	1.417856   
810.500000	1.033757   
811.000000	0.987310   
811.500000	1.278242   
812.000000	1.418015   
812.500000	1.646393   
813.000000	1.764613   
813.500000	1.720954   
814.000000	1.385151   
814.500000	1.400765   
815.000000	1.696545   
815.500000	1.927704   
816.000000	1.679893   
816.500000	1.333530   
817.000000	1.251833   
817.500000	1.447795   
818.000000	1.718568   
818.500000	1.813590   
819.000000	1.721295   
819.500000	1.538280   
820.000000	1.634810   
820.500000	1.943053   
821.000000	2.222924   
821.500000	2.354015   
822.000000	2.393280   
822.500000	2.581000   
823.000000	2.702628   
823.500000	2.674560   
824.000000	2.404424   
824.500000	2.324787   
825.000000	2.339522   
825.500000	2.530863   
826.000000	2.459409   
826.500000	2.431621   
827.000000	2.189121   
827.500000	2.005727   
828.000000	1.712022   
828.500000	1.802878   
829.000000	1.802462   
829.500000	1.714863   
830.000000	1.378575   
830.500000	1.246515   
831.000000	1.235916   
831.500000	1.315356   
832.000000	1.252924   
832.500000	1.278568   
833.000000	1.305318   
833.500000	1.328583   
834.000000	1.242401   
834.500000	1.171287   
835.000000	1.011462   
835.500000	0.956909   
836.000000	0.983477   
836.500000	1.093219   
837.000000	1.121583   
837.500000	1.035371   
838.000000	0.952204   
838.500000	0.935287   
839.000000	0.913090   
839.500000	0.845196   
840.000000	0.816734   
840.500000	0.826393   
841.000000	0.834272   
841.500000	0.840386   
842.000000	0.845765   
842.500000	0.842022   
843.000000	0.757931   
843.500000	0.616628   
844.000000	0.394378   
844.500000	0.276181   
845.000000	0.329659   
845.500000	0.428734   
846.000000	0.335492   
846.500000	0.223325   
847.000000	0.247409   
847.500000	0.347022   
848.000000	0.332143   
848.500000	0.254242   
849.000000	0.357363   
849.500000	0.440606   
850.000000	0.425022   
850.500000	0.292287   
851.000000	0.284303   
851.500000	0.205295   
852.000000	0.167492   
852.500000	-0.064545  
853.000000	-0.207984  
853.500000	-0.304636  
854.000000	-0.127234  
854.500000	0.052068   
855.000000	0.172598   
855.500000	0.080242   
856.000000	0.065901   
856.500000	0.120962   
857.000000	0.145515   
857.500000	0.064651   
858.000000	-0.024871  
858.500000	-0.046462  
859.000000	-0.030022  
859.500000	-0.045651  
860.000000	-0.061401  
860.500000	-0.104196  
861.000000	-0.201863  
861.500000	-0.201553  
862.000000	-0.065477  
862.500000	0.095643   
863.000000	0.078136   
863.500000	0.005545   
864.000000	-0.019310  
864.500000	0.059363   
865.000000	0.048613   
865.500000	-0.029954  
866.000000	-0.144212  
866.500000	-0.161553  
867.000000	-0.087356  
867.500000	0.037340   
868.000000	0.054628   
868.500000	0.025984   
869.000000	-0.061962  
869.500000	-0.100431  
870.000000	-0.114000  
870.500000	-0.101674  
871.000000	-0.142083  
871.500000	-0.186803  
872.000000	-0.202409  
872.500000	-0.146674  
873.000000	-0.077310  
873.500000	-0.027106  
874.000000	-0.053628  
874.500000	-0.110659  
875.000000	-0.200310  
875.500000	-0.178106  
876.000000	-0.171378  
876.500000	-0.129333  
877.000000	-0.110712  
877.500000	-0.016143  
878.000000	-0.022303  
878.500000	-0.043136  
879.000000	-0.091045  
879.500000	-0.033068  
880.000000	0.011666   
880.500000	0.030886   
881.000000	-0.003409  
881.500000	-0.008772  
882.000000	-0.035545  
882.500000	0.004871   
883.000000	0.084227   
883.500000	0.159015   
884.000000	0.149257   
884.500000	0.115848   
885.000000	0.065621   
885.500000	0.038128   
886.000000	0.051590   
886.500000	0.009696   
887.000000	-0.101113  
887.500000	-0.225174  
888.000000	-0.128386  
888.500000	-0.008613  
889.000000	-0.047674  
889.500000	-0.224325  
890.000000	-0.181984  
890.500000	-0.085893  
891.000000	-0.057068  
891.500000	-0.174598  
892.000000	-0.136909  
892.500000	-0.057272  
893.000000	-0.019969  
893.500000	-0.117787  
894.000000	-0.124992  
894.500000	-0.100348  
895.000000	-0.052765  
895.500000	-0.096280  
896.000000	-0.142840  
896.500000	-0.151075  
897.000000	-0.088424  
897.500000	-0.041583  

