PE FL                   SPECTRUM    ASCII       PEDS        1.60        
  -1
SAAB9D~1.SP
24/04/12
17:00:29.00
24/04/12
17:00:29.00
Jan

897.500000
1









LS55
405.00
5.00
5.00
SCAN
1
20
100
100
0
400
0
1
0
1
5
ON
450 405 
1 0 0
#HDR
-1
-1
#GR
NM

0.00002384185791015625
0.0
450.000000
0.500000
896
8
227.714772
-0.418810
#DATA
450.000000	0.469999   
450.500000	-0.056659  
451.000000	-0.294727  
451.500000	-0.339931  
452.000000	-0.329507  
452.500000	-0.310356  
453.000000	-0.148795  
453.500000	0.071492   
454.000000	0.227484   
454.500000	0.113030   
455.000000	-0.111704  
455.500000	-0.290636  
456.000000	-0.323727  
456.500000	-0.262113  
457.000000	-0.245537  
457.500000	-0.198227  
458.000000	-0.120621  
458.500000	0.021068   
459.000000	0.061878   
459.500000	0.086856   
460.000000	0.009689   
460.500000	-0.046848  
461.000000	-0.061583  
461.500000	0.023992   
462.000000	0.024136   
462.500000	0.035492   
463.000000	0.111909   
463.500000	0.256583   
464.000000	0.205553   
464.500000	0.038984   
465.000000	-0.089916  
465.500000	-0.126090  
466.000000	-0.170734  
466.500000	-0.296477  
467.000000	-0.343871  
467.500000	-0.377416  
468.000000	-0.418810  
468.500000	-0.278030  
469.000000	0.003946   
469.500000	0.346386   
470.000000	0.420393   
470.500000	0.386727   
471.000000	0.235833   
471.500000	0.167136   
472.000000	0.101371   
472.500000	0.175924   
473.000000	0.290083   
473.500000	0.273469   
474.000000	0.096393   
474.500000	-0.086128  
475.000000	-0.135727  
475.500000	-0.019962  
476.000000	0.138015   
476.500000	0.410696   
477.000000	0.508856   
477.500000	0.343946   
478.000000	-0.111659  
478.500000	-0.357060  
479.000000	-0.276045  
479.500000	-0.007560  
480.000000	0.011386   
480.500000	-0.048280  
481.000000	-0.016371  
481.500000	0.224628   
482.000000	0.410909   
482.500000	0.379303   
483.000000	0.234606   
483.500000	0.217719   
484.000000	0.236628   
484.500000	0.120454   
485.000000	-0.062189  
485.500000	-0.081606  
486.000000	0.072636   
486.500000	0.275742   
487.000000	0.419909   
487.500000	0.442999   
488.000000	0.275765   
488.500000	0.059696   
489.000000	-0.027022  
489.500000	0.002863   
490.000000	0.142128   
490.500000	0.183128   
491.000000	0.131848   
491.500000	0.041333   
492.000000	0.044166   
492.500000	0.045287   
493.000000	-0.150204  
493.500000	-0.358583  
494.000000	-0.288659  
494.500000	0.060310   
495.000000	0.133333   
495.500000	-0.022734  
496.000000	-0.111712  
496.500000	0.205318   
497.000000	0.628280   
497.500000	0.710916   
498.000000	0.559037   
498.500000	0.453893   
499.000000	0.432250   
499.500000	0.277181   
500.000000	0.150674   
500.500000	0.307583   
501.000000	0.619522   
501.500000	0.715757   
502.000000	0.514863   
502.500000	0.435659   
503.000000	0.595333   
503.500000	0.826090   
504.000000	0.779401   
504.500000	0.610689   
505.000000	0.465515   
505.500000	0.551537   
506.000000	0.550969   
506.500000	0.573204   
507.000000	0.538143   
507.500000	0.789477   
508.000000	0.893083   
508.500000	1.003621   
509.000000	1.014431   
509.500000	1.141439   
510.000000	1.105469   
510.500000	0.966068   
511.000000	0.870803   
511.500000	1.004371   
512.000000	1.198939   
512.500000	1.323848   
513.000000	1.325598   
513.500000	1.391469   
514.000000	1.465946   
514.500000	1.601280   
515.000000	1.648000   
515.500000	1.726189   
516.000000	1.681924   
516.500000	1.784295   
517.000000	2.007250   
517.500000	2.309901   
518.000000	2.305348   
518.500000	2.148000   
519.000000	2.103507   
519.500000	2.349590   
520.000000	2.546901   
520.500000	2.632636   
521.000000	2.726310   
521.500000	2.813901   
522.000000	2.830439   
522.500000	2.762886   
523.000000	2.818000   
523.500000	3.007984   
524.000000	3.153590   
524.500000	3.211856   
525.000000	3.267477   
525.500000	3.324227   
526.000000	3.313893   
526.500000	3.467901   
527.000000	3.902530   
527.500000	4.422166   
528.000000	4.659265   
528.500000	4.754765   
529.000000	4.948803   
529.500000	5.078060   
530.000000	4.854681   
530.500000	4.615969   
531.000000	4.871689   
531.500000	5.499212   
532.000000	5.962159   
532.500000	6.181939   
533.000000	6.381946   
533.500000	6.603931   
534.000000	6.665068   
534.500000	6.571886   
535.000000	6.603310   
535.500000	6.825962   
536.000000	7.358871   
536.500000	8.470431   
537.000000	9.535454   
537.500000	9.917901   
538.000000	9.527045   
538.500000	9.091310   
539.000000	9.249280   
539.500000	9.988166   
540.000000	10.835113  
540.500000	11.450106  
541.000000	11.713643  
541.500000	11.587712  
542.000000	11.304015  
542.500000	11.341674  
543.000000	11.746037  
543.500000	12.286075  
544.000000	12.303848  
544.500000	11.968212  
545.000000	11.756340  
545.500000	11.847356  
546.000000	11.952856  
546.500000	11.840712  
547.000000	11.722469  
547.500000	11.502037  
548.000000	11.577780  
548.500000	11.527318  
549.000000	11.523348  
549.500000	11.530856  
550.000000	11.534189  
550.500000	11.508333  
551.000000	11.606000  
551.500000	11.881954  
552.000000	12.057348  
552.500000	12.064348  
553.000000	11.752318  
553.500000	11.874772  
554.000000	12.113704  
554.500000	12.357174  
555.000000	12.304545  
555.500000	12.335840  
556.000000	12.383378  
556.500000	12.700053  
557.000000	13.114575  
557.500000	13.738871  
558.000000	14.229045  
558.500000	14.469954  
559.000000	14.766598  
559.500000	15.457280  
560.000000	16.105401  
560.500000	16.602356  
561.000000	16.930371  
561.500000	17.371363  
562.000000	17.961363  
562.500000	18.269803  
563.000000	18.139234  
563.500000	17.806704  
564.000000	17.727530  
564.500000	18.035674  
565.000000	18.758878  
565.500000	19.506166  
566.000000	20.047787  
566.500000	20.549537  
567.000000	20.872037  
567.500000	21.302810  
568.000000	21.766318  
568.500000	22.554810  
569.000000	23.372068  
569.500000	23.609416  
570.000000	23.366159  
570.500000	23.402219  
571.000000	24.254628  
571.500000	25.066348  
572.000000	25.617545  
572.500000	25.793537  
573.000000	26.169659  
573.500000	26.682000  
574.000000	27.235174  
574.500000	27.521500  
575.000000	27.676242  
575.500000	27.788189  
576.000000	28.098560  
576.500000	28.662606  
577.000000	29.705121  
577.500000	30.810848  
578.000000	31.641803  
578.500000	32.159189  
579.000000	32.487598  
579.500000	32.575522  
580.000000	32.703742  
580.500000	33.346833  
581.000000	34.401674  
581.500000	35.043643  
582.000000	35.386643  
582.500000	36.046045  
583.000000	37.079742  
583.500000	37.974553  
584.000000	38.848250  
584.500000	39.787333  
585.000000	40.305363  
585.500000	40.125765  
586.000000	40.532454  
586.500000	41.864734  
587.000000	43.753090  
587.500000	44.843022  
588.000000	45.789037  
588.500000	46.685984  
589.000000	47.508643  
589.500000	47.805522  
590.000000	48.476401  
590.500000	49.517007  
591.000000	50.458121  
591.500000	51.186068  
592.000000	52.766219  
592.500000	54.223378  
593.000000	54.645810  
593.500000	54.195787  
594.000000	54.776871  
594.500000	56.765318  
595.000000	58.872128  
595.500000	60.042318  
596.000000	59.777568  
596.500000	60.179250  
597.000000	61.022030  
597.500000	62.872780  
598.000000	64.495075  
598.500000	66.675007  
599.000000	68.101659  
599.500000	69.302924  
600.000000	70.359886  
600.500000	72.055348  
601.000000	73.533159  
601.500000	74.631219  
602.000000	75.251363  
602.500000	76.018371  
603.000000	77.000143  
603.500000	78.842098  
604.000000	80.432340  
604.500000	81.497916  
605.000000	82.367250  
605.500000	84.290219  
606.000000	86.326151  
606.500000	88.101772  
607.000000	90.012143  
607.500000	91.893818  
608.000000	93.656499  
608.500000	95.350780  
609.000000	96.731749  
609.500000	98.139037  
610.000000	99.704242  
610.500000	101.269590 
611.000000	102.732075 
611.500000	104.317931 
612.000000	105.905280 
612.500000	107.453424 
613.000000	109.075393 
613.500000	111.441590 
614.000000	114.821787 
614.500000	117.378015 
615.000000	119.021303 
615.500000	120.372742 
616.000000	122.138333 
616.500000	123.890098 
617.000000	125.594416 
617.500000	126.769924 
618.000000	128.479818 
618.500000	130.217090 
619.000000	133.365022 
619.500000	136.305098 
620.000000	139.034818 
620.500000	141.184340 
621.000000	143.889272 
621.500000	146.006174 
622.000000	148.197856 
622.500000	149.950856 
623.000000	152.093946 
623.500000	153.888189 
624.000000	155.933856 
624.500000	158.536969 
625.000000	161.828795 
625.500000	164.939121 
626.000000	166.653515 
626.500000	168.297007 
627.000000	170.192234 
627.500000	172.982939 
628.000000	174.447015 
628.500000	175.501681 
629.000000	177.066128 
629.500000	179.616984 
630.000000	182.314424 
630.500000	183.760674 
631.000000	185.844204 
631.500000	187.819530 
632.000000	192.060984 
632.500000	195.372280 
633.000000	197.830833 
633.500000	197.938848 
634.000000	199.346780 
634.500000	201.343431 
635.000000	202.992598 
635.500000	203.171159 
636.000000	203.823681 
636.500000	205.381022 
637.000000	207.339545 
637.500000	209.016037 
638.000000	210.585401 
638.500000	212.251287 
639.000000	214.047984 
639.500000	215.017689 
640.000000	216.760204 
640.500000	218.811022 
641.000000	221.916757 
641.500000	224.296121 
642.000000	225.230492 
642.500000	223.154340 
643.000000	220.743803 
643.500000	219.279515 
644.000000	221.156386 
644.500000	224.422128 
645.000000	227.111401 
645.500000	227.425780 
646.000000	225.886393 
646.500000	223.912363 
647.000000	224.095469 
647.500000	226.297159 
648.000000	227.714772 
648.500000	226.508628 
649.000000	223.418689 
649.500000	220.483075 
650.000000	219.054136 
650.500000	219.031590 
651.000000	220.112916 
651.500000	221.127871 
652.000000	220.965037 
652.500000	219.783712 
653.000000	218.252113 
653.500000	216.781401 
654.000000	215.529371 
654.500000	214.922333 
655.000000	214.166075 
655.500000	213.261696 
656.000000	211.238143 
656.500000	208.587371 
657.000000	204.790750 
657.500000	201.576636 
658.000000	198.147810 
658.500000	196.878393 
659.000000	194.976795 
659.500000	193.399636 
660.000000	189.251856 
660.500000	186.249159 
661.000000	183.009242 
661.500000	181.106522 
662.000000	177.679030 
662.500000	175.494166 
663.000000	173.104742 
663.500000	170.274946 
664.000000	165.878121 
664.500000	161.904098 
665.000000	159.508060 
665.500000	157.525681 
666.000000	154.521537 
666.500000	149.836454 
667.000000	144.725575 
667.500000	139.925893 
668.000000	136.788325 
668.500000	133.656507 
669.000000	130.614636 
669.500000	127.401204 
670.000000	124.577196 
670.500000	121.784621 
671.000000	118.681643 
671.500000	115.894378 
672.000000	113.085780 
672.500000	110.453409 
673.000000	106.976053 
673.500000	103.567939 
674.000000	99.609696  
674.500000	96.596939  
675.000000	94.046780  
675.500000	92.397015  
676.000000	90.251234  
676.500000	87.610515  
677.000000	84.680340  
677.500000	82.090053  
678.000000	79.569659  
678.500000	76.901727  
679.000000	74.538598  
679.500000	72.495507  
680.000000	70.946931  
680.500000	69.299916  
681.000000	67.335795  
681.500000	64.579931  
682.000000	61.436196  
682.500000	58.833159  
683.000000	57.669742  
683.500000	56.674000  
684.000000	55.259924  
684.500000	53.028181  
685.000000	50.973772  
685.500000	49.146204  
686.000000	48.200856  
686.500000	47.092878  
687.000000	45.576825  
687.500000	43.641659  
688.000000	42.129295  
688.500000	41.171719  
689.000000	40.326174  
689.500000	39.240765  
690.000000	38.458257  
690.500000	37.535424  
691.000000	36.614378  
691.500000	35.195765  
692.000000	33.785803  
692.500000	32.576757  
693.000000	32.007765  
693.500000	31.459856  
694.000000	30.239909  
694.500000	28.985212  
695.000000	27.982848  
695.500000	27.506651  
696.000000	26.764984  
696.500000	25.973643  
697.000000	25.280318  
697.500000	24.803825  
698.000000	24.390462  
698.500000	23.567045  
699.000000	22.505939  
699.500000	21.234196  
700.000000	21.112287  
700.500000	21.145606  
701.000000	21.136984  
701.500000	20.154318  
702.000000	19.199916  
702.500000	18.115825  
703.000000	17.775803  
703.500000	17.335037  
704.000000	17.130734  
704.500000	16.834083  
705.000000	16.753772  
705.500000	16.481356  
706.000000	16.091772  
706.500000	15.475007  
707.000000	15.098128  
707.500000	14.769219  
708.000000	14.631651  
708.500000	14.242643  
709.000000	13.755416  
709.500000	13.202257  
710.000000	12.929128  
710.500000	12.892757  
711.000000	12.939856  
711.500000	12.752181  
712.000000	12.069636  
712.500000	11.502287  
713.000000	11.299931  
713.500000	11.504954  
714.000000	11.504325  
714.500000	11.266272  
715.000000	10.886666  
715.500000	10.584886  
716.000000	10.539939  
716.500000	10.529515  
717.000000	10.289143  
717.500000	9.842219   
718.000000	9.665393   
718.500000	9.729651   
719.000000	9.756757   
719.500000	9.552106   
720.000000	9.285893   
720.500000	8.813431   
721.000000	8.514121   
721.500000	8.401924   
722.000000	8.557977   
722.500000	8.281818   
723.000000	7.891757   
723.500000	7.478318   
724.000000	7.497681   
724.500000	7.399848   
725.000000	7.318272   
725.500000	7.259621   
726.000000	7.336356   
726.500000	7.265090   
727.000000	7.145636   
727.500000	7.075727   
728.000000	7.005568   
728.500000	6.863227   
729.000000	6.729325   
729.500000	6.788803   
730.000000	6.593371   
730.500000	6.349037   
731.000000	6.055651   
731.500000	6.164234   
732.000000	6.005151   
732.500000	5.771181   
733.000000	5.478477   
733.500000	5.676575   
734.000000	5.916651   
734.500000	6.294204   
735.000000	6.396659   
735.500000	6.234856   
736.000000	5.842750   
736.500000	5.665613   
737.000000	5.612022   
737.500000	5.570878   
738.000000	5.539909   
738.500000	5.521909   
739.000000	5.399704   
739.500000	5.017484   
740.000000	4.818939   
740.500000	4.769333   
741.000000	4.894916   
741.500000	5.034015   
742.000000	5.314234   
742.500000	5.130522   
743.000000	4.680545   
743.500000	4.246068   
744.000000	4.479022   
744.500000	4.661651   
745.000000	4.577863   
745.500000	4.084424   
746.000000	4.080454   
746.500000	4.176962   
747.000000	4.368439   
747.500000	4.242606   
748.000000	4.117295   
748.500000	3.847401   
749.000000	3.659136   
749.500000	3.653939   
750.000000	3.791393   
750.500000	3.825515   
751.000000	3.727121   
751.500000	3.823704   
752.000000	3.970863   
752.500000	4.054416   
753.000000	3.909871   
753.500000	3.669310   
754.000000	3.413181   
754.500000	3.250537   
755.000000	3.270446   
755.500000	3.378696   
756.000000	3.496030   
756.500000	3.442742   
757.000000	3.401916   
757.500000	3.418462   
758.000000	3.369916   
758.500000	3.462954   
759.000000	3.697924   
759.500000	4.058674   
760.000000	4.010659   
760.500000	3.685840   
761.000000	3.297151   
761.500000	3.277621   
762.000000	3.366303   
762.500000	3.435712   
763.000000	3.404848   
763.500000	3.196015   
764.000000	3.190848   
764.500000	3.335189   
765.000000	3.596045   
765.500000	3.594575   
766.000000	3.535363   
766.500000	3.357810   
767.000000	3.210212   
767.500000	3.034401   
768.000000	3.073325   
768.500000	3.271916   
769.000000	3.437583   
769.500000	3.402363   
770.000000	3.265189   
770.500000	3.089780   
771.000000	2.999318   
771.500000	3.010712   
772.000000	3.109606   
772.500000	3.169909   
773.000000	3.207719   
773.500000	3.238340   
774.000000	3.210250   
774.500000	3.160068   
775.000000	3.120174   
775.500000	3.212174   
776.000000	3.223333   
776.500000	3.156515   
777.000000	2.952272   
777.500000	2.867060   
778.000000	2.886037   
778.500000	2.987234   
779.000000	3.038045   
779.500000	2.982090   
780.000000	2.929212   
780.500000	2.650886   
781.000000	2.489068   
781.500000	2.455803   
782.000000	2.852280   
782.500000	3.065651   
783.000000	3.151378   
783.500000	2.985424   
784.000000	2.909969   
784.500000	2.814128   
785.000000	2.812749   
785.500000	2.803757   
786.000000	2.610409   
786.500000	2.497106   
787.000000	2.678545   
787.500000	2.987037   
788.000000	2.961772   
788.500000	2.580734   
789.000000	2.373492   
789.500000	2.324515   
790.000000	2.388840   
790.500000	2.352000   
791.000000	2.544537   
791.500000	2.712598   
792.000000	2.838409   
792.500000	2.752765   
793.000000	2.672696   
793.500000	2.604530   
794.000000	2.624393   
794.500000	2.736946   
795.000000	2.856636   
795.500000	2.812803   
796.000000	2.727507   
796.500000	2.600045   
797.000000	2.550219   
797.500000	2.385674   
798.000000	2.330265   
798.500000	2.200174   
799.000000	2.067484   
799.500000	1.943143   
800.000000	2.109689   
800.500000	2.246068   
801.000000	2.066946   
801.500000	1.702462   
802.000000	1.678469   
802.500000	2.017000   
803.000000	2.243484   
803.500000	2.171151   
804.000000	1.921909   
804.500000	1.758659   
805.000000	1.647575   
805.500000	1.643348   
806.000000	1.647984   
806.500000	1.639280   
807.000000	1.519053   
807.500000	1.344151   
808.000000	1.267462   
808.500000	1.454446   
809.000000	1.779174   
809.500000	1.937825   
810.000000	1.834545   
810.500000	1.609969   
811.000000	1.437166   
811.500000	1.348000   
812.000000	1.437151   
812.500000	1.559643   
813.000000	1.713439   
813.500000	1.723189   
814.000000	1.692977   
814.500000	1.433143   
815.000000	1.292446   
815.500000	1.295553   
816.000000	1.464212   
816.500000	1.568371   
817.000000	1.659477   
817.500000	1.724121   
818.000000	1.656272   
818.500000	1.530863   
819.000000	1.447643   
819.500000	1.401666   
820.000000	1.559924   
820.500000	1.809825   
821.000000	2.089909   
821.500000	2.078962   
822.000000	1.987765   
822.500000	1.740545   
823.000000	1.750712   
823.500000	1.977651   
824.000000	2.411651   
824.500000	2.649318   
825.000000	2.632212   
825.500000	2.550863   
826.000000	2.431030   
826.500000	2.096348   
827.000000	1.705500   
827.500000	1.554803   
828.000000	1.706272   
828.500000	1.816886   
829.000000	1.723136   
829.500000	1.468409   
830.000000	1.336257   
830.500000	1.286325   
831.000000	1.266727   
831.500000	1.267015   
832.000000	1.264000   
832.500000	1.234757   
833.000000	1.142333   
833.500000	1.063878   
834.000000	0.973106   
834.500000	0.887704   
835.000000	0.952234   
835.500000	1.094386   
836.000000	1.134053   
836.500000	1.021393   
837.000000	0.870499   
837.500000	0.801833   
838.000000	0.824818   
838.500000	0.782068   
839.000000	0.745249   
839.500000	0.678719   
840.000000	0.704181   
840.500000	0.744386   
841.000000	0.860318   
841.500000	0.787825   
842.000000	0.612750   
842.500000	0.423015   
843.000000	0.329363   
843.500000	0.372409   
844.000000	0.409871   
844.500000	0.423242   
845.000000	0.324295   
845.500000	0.307757   
846.000000	0.392962   
846.500000	0.469166   
847.000000	0.357606   
847.500000	0.194833   
848.000000	0.261840   
848.500000	0.447643   
849.000000	0.583204   
849.500000	0.490318   
850.000000	0.349916   
850.500000	0.153803   
851.000000	0.065462   
851.500000	-0.078772  
852.000000	-0.062795  
852.500000	0.008454   
853.000000	0.258371   
853.500000	0.380431   
854.000000	0.488537   
854.500000	0.374863   
855.000000	0.234810   
855.500000	0.066681   
856.000000	0.081946   
856.500000	0.093916   
857.000000	0.041424   
857.500000	-0.075651  
858.000000	-0.106393  
858.500000	-0.008409  
859.000000	0.089409   
859.500000	0.155265   
860.000000	0.084196   
860.500000	-0.030386  
861.000000	-0.101598  
861.500000	-0.092992  
862.000000	-0.025969  
862.500000	-0.059924  
863.000000	-0.153136  
863.500000	-0.242310  
864.000000	-0.162984  
864.500000	-0.049871  
865.000000	0.031916   
865.500000	0.039886   
866.000000	0.014818   
866.500000	-0.012136  
867.000000	-0.092931  
867.500000	-0.080439  
868.000000	0.009810   
868.500000	0.070651   
869.000000	-0.018772  
869.500000	-0.104053  
870.000000	-0.107189  
870.500000	-0.087499  
871.000000	-0.117954  
871.500000	-0.089075  
872.000000	0.035719   
872.500000	0.055810   
873.000000	-0.088196  
873.500000	-0.204795  
874.000000	-0.227166  
874.500000	-0.160765  
875.000000	-0.050424  
875.500000	0.097189   
876.000000	0.112704   
876.500000	0.009219   
877.000000	-0.122772  
877.500000	-0.141128  
878.000000	-0.131439  
878.500000	-0.115204  
879.000000	-0.082916  
879.500000	-0.027045  
880.000000	0.001393   
880.500000	-0.004295  
881.000000	-0.014674  
881.500000	-0.047007  
882.000000	-0.108636  
882.500000	-0.242825  
883.000000	-0.322181  
883.500000	-0.254818  
884.000000	-0.085598  
884.500000	-0.050424  
885.000000	-0.104098  
885.500000	-0.190833  
886.000000	-0.072939  
886.500000	0.012272   
887.000000	0.051659   
887.500000	-0.089818  
888.000000	-0.109106  
888.500000	-0.077878  
889.000000	0.054537   
889.500000	0.068734   
890.000000	0.012886   
890.500000	-0.163977  
891.000000	-0.302924  
891.500000	-0.319128  
892.000000	-0.185924  
892.500000	-0.064507  
893.000000	-0.010719  
893.500000	-0.068749  
894.000000	-0.117462  
894.500000	-0.147537  
895.000000	-0.078909  
895.500000	0.027022   
896.000000	0.092143   
896.500000	0.158954   
897.000000	0.253636   
897.500000	0.322234   

