PE FL                   SPECTRUM    ASCII       PEDS        1.60        
  -1
SA9395~1.SP
24/04/12
16:30:32.00
24/04/12
16:30:32.00
Jan

897.500000
1









LS55
405.00
5.00
5.00
SCAN
1
20
100
100
0
400
0
1
0
1
5
ON
450 405 
1 0 0
#HDR
-1
-1
#GR
NM

0.00002384185791015625
0.0
450.000000
0.500000
896
8
280.011780
-0.334734
#DATA
450.000000	-0.000000  
450.500000	-0.024015  
451.000000	-0.006439  
451.500000	-0.036242  
452.000000	-0.058659  
452.500000	0.011977   
453.000000	0.193916   
453.500000	0.303181   
454.000000	0.268143   
454.500000	0.172409   
455.000000	0.145522   
455.500000	0.098196   
456.000000	0.006636   
456.500000	-0.047909  
457.000000	-0.101340  
457.500000	-0.035409  
458.000000	0.103174   
458.500000	0.209454   
459.000000	0.174310   
459.500000	0.179068   
460.000000	0.238674   
460.500000	0.257121   
461.000000	0.061272   
461.500000	-0.086553  
462.000000	-0.043628  
462.500000	0.034151   
463.000000	0.050727   
463.500000	0.011939   
464.000000	-0.046181  
464.500000	-0.070000  
465.000000	-0.080507  
465.500000	-0.037969  
466.000000	-0.052340  
466.500000	-0.069598  
467.000000	-0.135121  
467.500000	-0.064219  
468.000000	0.031742   
468.500000	0.146363   
469.000000	0.088068   
469.500000	0.004954   
470.000000	0.047825   
470.500000	0.160583   
471.000000	0.250356   
471.500000	0.246204   
472.000000	0.244189   
472.500000	0.326969   
473.000000	0.415530   
473.500000	0.443075   
474.000000	0.426287   
474.500000	0.412977   
475.000000	0.337257   
475.500000	0.191431   
476.000000	0.003212   
476.500000	-0.090719  
477.000000	-0.065393  
477.500000	0.051363   
478.000000	0.103712   
478.500000	0.058484   
479.000000	-0.095075  
479.500000	-0.143446  
480.000000	-0.059545  
480.500000	0.118803   
481.000000	0.270954   
481.500000	0.297924   
482.000000	0.291265   
482.500000	0.342719   
483.000000	0.326060   
483.500000	0.132166   
484.000000	-0.051689  
484.500000	0.041393   
485.000000	0.120090   
485.500000	0.033098   
486.000000	-0.164992  
486.500000	-0.074954  
487.000000	0.072553   
487.500000	0.130689   
488.000000	0.047181   
488.500000	-0.078333  
489.000000	-0.202643  
489.500000	-0.223590  
490.000000	0.012765   
490.500000	0.302325   
491.000000	0.418606   
491.500000	0.317674   
492.000000	0.165840   
492.500000	0.130901   
493.000000	0.131287   
493.500000	0.249901   
494.000000	0.232113   
494.500000	0.197492   
495.000000	0.004757   
495.500000	0.014507   
496.000000	0.085575   
496.500000	0.276848   
497.000000	0.271636   
497.500000	0.213833   
498.000000	0.187159   
498.500000	0.250174   
499.000000	0.271106   
499.500000	0.189265   
500.000000	0.211484   
500.500000	0.316386   
501.000000	0.431643   
501.500000	0.489075   
502.000000	0.585992   
502.500000	0.667939   
503.000000	0.629689   
503.500000	0.524962   
504.000000	0.416431   
504.500000	0.469393   
505.000000	0.589537   
505.500000	0.791007   
506.000000	0.943886   
506.500000	0.982015   
507.000000	0.920924   
507.500000	0.951537   
508.000000	1.086515   
508.500000	1.086886   
509.000000	0.948507   
509.500000	0.824969   
510.000000	0.861151   
510.500000	1.023242   
511.000000	1.172000   
511.500000	1.317893   
512.000000	1.283795   
512.500000	1.231848   
513.000000	1.187000   
513.500000	1.235969   
514.000000	1.227106   
514.500000	1.176848   
515.000000	1.328242   
515.500000	1.549000   
516.000000	1.707651   
516.500000	1.619696   
517.000000	1.615863   
517.500000	1.790272   
518.000000	2.093121   
518.500000	2.299734   
519.000000	2.187840   
519.500000	2.034250   
520.000000	1.817522   
520.500000	1.795545   
521.000000	1.809984   
521.500000	2.019416   
522.000000	2.270492   
522.500000	2.526871   
523.000000	2.536340   
523.500000	2.492318   
524.000000	2.627098   
524.500000	2.906409   
525.000000	3.074060   
525.500000	2.985537   
526.000000	2.863446   
526.500000	3.110954   
527.000000	3.570159   
527.500000	3.969818   
528.000000	3.970901   
528.500000	4.095590   
529.000000	4.297090   
529.500000	4.516878   
530.000000	4.379166   
530.500000	4.276113   
531.000000	4.447583   
531.500000	4.983340   
532.000000	5.385651   
532.500000	5.632219   
533.000000	5.687007   
533.500000	5.699704   
534.000000	5.825325   
534.500000	6.120477   
535.000000	6.527484   
535.500000	7.001022   
536.000000	7.369825   
536.500000	7.642795   
537.000000	7.756674   
537.500000	7.872969   
538.000000	8.286151   
538.500000	8.894537   
539.000000	9.215909   
539.500000	9.376856   
540.000000	9.563575   
540.500000	9.879242   
541.000000	10.229060  
541.500000	10.731378  
542.000000	11.429106  
542.500000	11.872143  
543.000000	11.815068  
543.500000	11.557416  
544.000000	11.381522  
544.500000	11.240462  
545.000000	11.143590  
545.500000	11.348613  
546.000000	11.742075  
546.500000	12.166287  
547.000000	12.297560  
547.500000	12.285530  
548.000000	11.881568  
548.500000	11.319386  
549.000000	10.898598  
549.500000	11.132098  
550.000000	11.372530  
550.500000	11.607977  
551.000000	11.428893  
551.500000	11.392083  
552.000000	11.448727  
552.500000	11.959613  
553.000000	12.333636  
553.500000	12.632613  
554.000000	12.477234  
554.500000	12.139325  
555.000000	11.770492  
555.500000	11.463901  
556.000000	11.784196  
556.500000	12.278196  
557.000000	12.834734  
557.500000	13.217719  
558.000000	13.889901  
558.500000	13.997946  
559.000000	13.938666  
559.500000	13.705818  
560.000000	14.092840  
560.500000	14.611863  
561.000000	15.416583  
561.500000	16.031689  
562.000000	16.638151  
562.500000	16.916257  
563.000000	17.264000  
563.500000	17.715962  
564.000000	18.194121  
564.500000	18.508696  
565.000000	18.828795  
565.500000	19.200060  
566.000000	19.675787  
566.500000	19.992696  
567.000000	20.536795  
567.500000	20.957272  
568.000000	21.690363  
568.500000	21.946212  
569.000000	22.596878  
569.500000	23.094856  
570.000000	23.815575  
570.500000	24.124431  
571.000000	24.802121  
571.500000	25.679363  
572.000000	26.661015  
572.500000	26.949318  
573.000000	26.640409  
573.500000	26.081159  
574.000000	26.199992  
574.500000	26.956553  
575.000000	28.073053  
575.500000	28.869969  
576.000000	29.514409  
576.500000	29.977030  
577.000000	30.402651  
577.500000	30.801348  
578.000000	30.962045  
578.500000	31.523295  
579.000000	32.190916  
579.500000	33.120159  
580.000000	33.386621  
580.500000	33.442992  
581.000000	33.830931  
581.500000	34.935962  
582.000000	36.020189  
582.500000	36.470348  
583.000000	36.622856  
583.500000	36.885219  
584.000000	37.787265  
584.500000	38.368371  
585.000000	38.936492  
585.500000	39.671227  
586.000000	41.053159  
586.500000	42.521507  
587.000000	43.868568  
587.500000	44.686750  
588.000000	45.605924  
588.500000	46.561636  
589.000000	47.491083  
589.500000	48.486378  
590.000000	49.345810  
590.500000	49.948333  
591.000000	50.315446  
591.500000	51.209431  
592.000000	52.492606  
592.500000	54.161484  
593.000000	55.456795  
593.500000	56.547272  
594.000000	57.392446  
594.500000	57.988924  
595.000000	58.540143  
595.500000	59.582113  
596.000000	60.945856  
596.500000	62.601515  
597.000000	64.320568  
597.500000	65.855689  
598.000000	67.051196  
598.500000	68.364416  
599.000000	69.301265  
599.500000	70.497272  
600.000000	71.434886  
600.500000	72.771454  
601.000000	73.886393  
601.500000	75.392325  
602.000000	76.577000  
602.500000	78.594621  
603.000000	80.426151  
603.500000	82.307977  
604.000000	83.537106  
604.500000	85.026015  
605.000000	86.430265  
605.500000	87.417007  
606.000000	88.032863  
606.500000	90.134454  
607.000000	93.015833  
607.500000	95.371348  
608.000000	96.032128  
608.500000	97.339249  
609.000000	99.314090  
609.500000	101.869651 
610.000000	103.169121 
610.500000	105.161075 
611.000000	107.733977 
611.500000	110.556992 
612.000000	112.430537 
612.500000	113.041568 
613.000000	114.636924 
613.500000	117.758409 
614.000000	121.622606 
614.500000	123.731030 
615.000000	124.428272 
615.500000	125.118378 
616.000000	127.482128 
616.500000	130.653356 
617.000000	133.122037 
617.500000	135.257772 
618.000000	136.989969 
618.500000	139.887833 
619.000000	143.139568 
619.500000	146.143113 
620.000000	147.692318 
620.500000	149.012477 
621.000000	151.069174 
621.500000	154.262507 
622.000000	157.661689 
622.500000	161.007340 
623.000000	164.040962 
623.500000	166.590984 
624.000000	169.527136 
624.500000	173.404613 
625.000000	177.454977 
625.500000	179.820734 
626.000000	180.893833 
626.500000	182.590659 
627.000000	185.607886 
627.500000	188.847227 
628.000000	192.075916 
628.500000	194.477000 
629.000000	197.015128 
629.500000	200.544583 
630.000000	204.787151 
630.500000	207.865068 
631.000000	209.631772 
631.500000	212.506765 
632.000000	216.374780 
632.500000	220.285431 
633.000000	222.384356 
633.500000	224.615333 
634.000000	225.798037 
634.500000	228.064606 
635.000000	231.386840 
635.500000	236.509143 
636.000000	239.379492 
636.500000	240.332265 
637.000000	240.790803 
637.500000	243.453803 
638.000000	246.577371 
638.500000	247.883787 
639.000000	248.463280 
639.500000	251.176257 
640.000000	256.944333 
640.500000	260.764249 
641.000000	261.178325 
641.500000	259.953727 
642.000000	261.215530 
642.500000	263.566939 
643.000000	266.208878 
643.500000	267.983431 
644.000000	268.573265 
644.500000	268.764022 
645.000000	269.381742 
645.500000	272.542613 
646.000000	275.749189 
646.500000	277.173219 
647.000000	275.301280 
647.500000	274.178969 
648.000000	275.528272 
648.500000	278.247060 
649.000000	279.693409 
649.500000	279.018992 
650.000000	278.826378 
650.500000	279.032053 
651.000000	279.867924 
651.500000	280.011780 
652.000000	279.804295 
652.500000	278.798818 
653.000000	277.337204 
653.500000	276.124787 
654.000000	276.646272 
654.500000	277.569537 
655.000000	277.374712 
655.500000	275.706401 
656.000000	274.628575 
656.500000	272.945181 
657.000000	270.036340 
657.500000	265.998659 
658.000000	264.229409 
658.500000	262.036409 
659.000000	258.841757 
659.500000	254.801037 
660.000000	252.656719 
660.500000	250.860522 
661.000000	250.481537 
661.500000	248.966666 
662.000000	247.346742 
662.500000	244.010818 
663.000000	240.897931 
663.500000	237.674234 
664.000000	235.129242 
664.500000	232.320356 
665.000000	228.773113 
665.500000	223.089439 
666.000000	217.643446 
666.500000	213.386416 
667.000000	210.962454 
667.500000	208.618242 
668.000000	205.231121 
668.500000	200.061348 
669.000000	194.417893 
669.500000	190.867000 
670.000000	189.017477 
670.500000	186.795750 
671.000000	181.266401 
671.500000	175.646053 
672.000000	170.456553 
672.500000	166.241287 
673.000000	161.880530 
673.500000	158.780590 
674.000000	155.849795 
674.500000	152.818439 
675.000000	148.139090 
675.500000	143.603310 
676.000000	139.298000 
676.500000	135.840840 
677.000000	131.963931 
677.500000	128.627219 
678.000000	125.064265 
678.500000	122.024712 
679.000000	119.239924 
679.500000	116.186492 
680.000000	113.183712 
680.500000	110.355583 
681.000000	107.622522 
681.500000	104.296000 
682.000000	100.690196 
682.500000	96.989734  
683.000000	93.943454  
683.500000	91.447416  
684.000000	89.645265  
684.500000	87.112484  
685.000000	84.190651  
685.500000	80.602954  
686.000000	77.900431  
686.500000	75.656560  
687.000000	73.871901  
687.500000	71.489287  
688.000000	68.969280  
688.500000	66.524507  
689.000000	64.611075  
689.500000	63.142431  
690.000000	61.167500  
690.500000	58.712371  
691.000000	55.968318  
691.500000	54.160780  
692.000000	53.856651  
692.500000	53.632712  
693.000000	52.108742  
693.500000	49.493659  
694.000000	47.478636  
694.500000	46.259454  
695.000000	45.478500  
695.500000	44.099643  
696.000000	42.494613  
696.500000	40.614136  
697.000000	38.905636  
697.500000	37.649825  
698.000000	36.709060  
698.500000	35.946181  
699.000000	35.142568  
699.500000	34.104098  
700.000000	32.733659  
700.500000	31.658090  
701.000000	30.933401  
701.500000	30.525598  
702.000000	29.761090  
702.500000	28.735181  
703.000000	27.563015  
703.500000	26.658606  
704.000000	26.332969  
704.500000	26.085992  
705.000000	25.531704  
705.500000	24.831689  
706.000000	24.408098  
706.500000	23.742136  
707.000000	23.031416  
707.500000	22.296227  
708.000000	21.952477  
708.500000	21.511787  
709.000000	20.954310  
709.500000	20.304909  
710.000000	19.587901  
710.500000	19.153681  
711.000000	18.951484  
711.500000	18.753795  
712.000000	17.984090  
712.500000	17.560106  
713.000000	17.365840  
713.500000	17.420204  
714.000000	16.909068  
714.500000	16.541174  
715.000000	15.989386  
715.500000	15.683250  
716.000000	15.167325  
716.500000	14.817151  
717.000000	14.384545  
717.500000	14.305954  
718.000000	14.021636  
718.500000	13.811742  
719.000000	13.520340  
719.500000	13.480969  
720.000000	13.245969  
720.500000	12.862969  
721.000000	12.326196  
721.500000	12.020856  
722.000000	11.760083  
722.500000	11.500522  
723.000000	11.122689  
723.500000	10.614984  
724.000000	10.394954  
724.500000	10.386553  
725.000000	10.587969  
725.500000	10.688333  
726.000000	10.981492  
726.500000	10.567424  
727.000000	9.914174   
727.500000	9.203000   
728.000000	9.284287   
728.500000	9.350954   
729.000000	9.284424   
729.500000	8.843712   
730.000000	8.474371   
730.500000	8.076719   
731.000000	8.191075   
731.500000	8.774901   
732.000000	9.149068   
732.500000	8.894931   
733.000000	8.313015   
733.500000	7.840227   
734.000000	7.517704   
734.500000	7.287840   
735.000000	7.060340   
735.500000	7.109666   
736.000000	7.103946   
736.500000	7.230121   
737.000000	7.151719   
737.500000	7.077030   
738.000000	6.853189   
738.500000	6.619469   
739.000000	6.272598   
739.500000	6.038825   
740.000000	5.986340   
740.500000	6.094522   
741.000000	6.156083   
741.500000	6.102651   
742.000000	6.024136   
742.500000	5.872825   
743.000000	5.787295   
743.500000	5.930037   
744.000000	6.023477   
744.500000	5.897310   
745.000000	5.572636   
745.500000	5.507401   
746.000000	5.748037   
746.500000	5.905121   
747.000000	5.718659   
747.500000	5.502022   
748.000000	5.427325   
748.500000	5.384037   
749.000000	5.317977   
749.500000	5.181189   
750.000000	4.910560   
750.500000	4.544787   
751.000000	4.270424   
751.500000	4.282696   
752.000000	4.403856   
752.500000	4.419757   
753.000000	4.374954   
753.500000	4.474257   
754.000000	4.521590   
754.500000	4.361704   
755.000000	4.138363   
755.500000	4.197825   
756.000000	4.444310   
756.500000	4.662651   
757.000000	4.718916   
757.500000	4.656280   
758.000000	4.377219   
758.500000	4.154848   
759.000000	4.164674   
759.500000	4.316045   
760.000000	4.142856   
760.500000	3.996454   
761.000000	4.041090   
761.500000	4.367833   
762.000000	4.379742   
762.500000	4.109522   
763.000000	3.611803   
763.500000	3.354825   
764.000000	3.574181   
764.500000	4.048863   
765.000000	4.229863   
765.500000	3.813310   
766.000000	3.382969   
766.500000	3.234871   
767.000000	3.466757   
767.500000	3.597090   
768.000000	3.600022   
768.500000	3.550265   
769.000000	3.533106   
769.500000	3.459060   
770.000000	3.318303   
770.500000	3.165840   
771.000000	3.014818   
771.500000	2.938719   
772.000000	3.012878   
772.500000	3.227681   
773.000000	3.337750   
773.500000	3.304454   
774.000000	3.209075   
774.500000	3.197818   
775.000000	3.147772   
775.500000	3.156515   
776.000000	3.163090   
776.500000	3.142954   
777.000000	3.042803   
777.500000	3.022181   
778.000000	3.118901   
778.500000	3.195484   
779.000000	3.196886   
779.500000	3.078386   
780.000000	2.955325   
780.500000	2.928810   
781.000000	3.028424   
781.500000	3.149371   
782.000000	3.105378   
782.500000	3.033712   
783.000000	2.975939   
783.500000	2.894545   
784.000000	2.830871   
784.500000	2.867477   
785.000000	2.990393   
785.500000	2.932053   
786.000000	2.852287   
786.500000	2.861696   
787.000000	2.967984   
787.500000	2.951462   
788.000000	2.936265   
788.500000	2.844325   
789.000000	2.696848   
789.500000	2.476189   
790.000000	2.456363   
790.500000	2.482053   
791.000000	2.555431   
791.500000	2.528750   
792.000000	2.508977   
792.500000	2.475318   
793.000000	2.462651   
793.500000	2.607083   
794.000000	2.647469   
794.500000	2.591674   
795.000000	2.402431   
795.500000	2.368545   
796.000000	2.450219   
796.500000	2.506174   
797.000000	2.438560   
797.500000	2.248371   
798.000000	2.117787   
798.500000	1.959492   
799.000000	2.018962   
799.500000	2.195825   
800.000000	2.417939   
800.500000	2.481954   
801.000000	2.470189   
801.500000	2.368234   
802.000000	2.141765   
802.500000	1.887159   
803.000000	1.843128   
803.500000	1.945431   
804.000000	1.969257   
804.500000	2.026787   
805.000000	2.158477   
805.500000	2.188303   
806.000000	2.060500   
806.500000	1.821446   
807.000000	1.636204   
807.500000	1.464431   
808.000000	1.469045   
808.500000	1.781378   
809.000000	2.102416   
809.500000	2.029333   
810.000000	1.653515   
810.500000	1.584681   
811.000000	1.762742   
811.500000	2.016242   
812.000000	1.889356   
812.500000	1.751621   
813.000000	1.600522   
813.500000	1.583522   
814.000000	1.690946   
814.500000	1.829098   
815.000000	1.708166   
815.500000	1.401787   
816.000000	1.243098   
816.500000	1.262689   
817.000000	1.377272   
817.500000	1.479545   
818.000000	1.528742   
818.500000	1.652363   
819.000000	1.768431   
819.500000	1.988204   
820.000000	2.033984   
820.500000	2.018386   
821.000000	1.881522   
821.500000	1.911704   
822.000000	1.883606   
822.500000	2.086280   
823.000000	2.295356   
823.500000	2.508999   
824.000000	2.570916   
824.500000	2.660121   
825.000000	2.707242   
825.500000	2.633030   
826.000000	2.448348   
826.500000	2.295818   
827.000000	2.322992   
827.500000	2.307787   
828.000000	2.164992   
828.500000	1.917143   
829.000000	1.687318   
829.500000	1.504500   
830.000000	1.371318   
830.500000	1.400189   
831.000000	1.464878   
831.500000	1.468651   
832.000000	1.276545   
832.500000	1.053030   
833.000000	0.911212   
833.500000	0.918522   
834.000000	1.003742   
834.500000	1.053325   
835.000000	1.000871   
835.500000	0.953007   
836.000000	1.004507   
836.500000	1.011424   
837.000000	0.976659   
837.500000	0.935136   
838.000000	1.013371   
838.500000	1.073303   
839.000000	1.029424   
839.500000	0.905159   
840.000000	0.781492   
840.500000	0.776325   
841.000000	0.791666   
841.500000	0.768833   
842.000000	0.592780   
842.500000	0.585083   
843.000000	0.641628   
843.500000	0.661121   
844.000000	0.385204   
844.500000	0.207772   
845.000000	0.271954   
845.500000	0.464492   
846.000000	0.444272   
846.500000	0.315037   
847.000000	0.245166   
847.500000	0.320166   
848.000000	0.404340   
848.500000	0.403939   
849.000000	0.354356   
849.500000	0.313386   
850.000000	0.201454   
850.500000	0.095696   
851.000000	0.031530   
851.500000	0.101537   
852.000000	0.206636   
852.500000	0.250856   
853.000000	0.209575   
853.500000	0.124242   
854.000000	0.002022   
854.500000	-0.013462  
855.000000	0.190795   
855.500000	0.472969   
856.000000	0.606863   
856.500000	0.462189   
857.000000	0.249962   
857.500000	0.166681   
858.000000	0.180310   
858.500000	0.193742   
859.000000	0.147393   
859.500000	0.082181   
860.000000	0.053901   
860.500000	0.061409   
861.000000	-0.005136  
861.500000	-0.040674  
862.000000	-0.031287  
862.500000	0.012484   
863.000000	0.005893   
863.500000	-0.025893  
864.000000	-0.113409  
864.500000	-0.128204  
865.000000	-0.103856  
865.500000	-0.041212  
866.000000	-0.062462  
866.500000	-0.037772  
867.000000	0.005159   
867.500000	0.029636   
868.000000	-0.164856  
868.500000	-0.329333  
869.000000	-0.334734  
869.500000	-0.207340  
870.000000	-0.147825  
870.500000	-0.067659  
871.000000	0.056416   
871.500000	0.146219   
872.000000	0.082924   
872.500000	-0.101750  
873.000000	-0.139901  
873.500000	-0.078356  
874.000000	-0.032833  
874.500000	-0.086348  
875.000000	-0.045416  
875.500000	0.067068   
876.000000	0.152780   
876.500000	0.120681   
877.000000	0.046984   
877.500000	0.021522   
878.000000	0.014477   
878.500000	-0.004553  
879.000000	-0.037772  
879.500000	-0.083075  
880.000000	-0.126833  
880.500000	-0.028446  
881.000000	0.106068   
881.500000	0.205878   
882.000000	0.139045   
882.500000	0.083356   
883.000000	0.023060   
883.500000	0.038386   
884.000000	0.066371   
884.500000	0.128492   
885.000000	0.149196   
885.500000	0.175878   
886.000000	0.302257   
886.500000	0.352363   
887.000000	0.218386   
887.500000	-0.036015  
888.000000	-0.107659  
888.500000	-0.043742  
889.000000	0.028689   
889.500000	-0.003818  
890.000000	-0.029704  
890.500000	0.010916   
891.000000	0.140515   
891.500000	0.221401   
892.000000	0.187257   
892.500000	0.098204   
893.000000	0.025022   
893.500000	-0.027007  
894.000000	-0.108772  
894.500000	-0.107590  
895.000000	0.003068   
895.500000	0.102098   
896.000000	0.096590   
896.500000	-0.051121  
897.000000	-0.142401  
897.500000	-0.190181  

