PE FL                   SPECTRUM    ASCII       PEDS        1.60        
  -1
SAMPLE~3.SP
24/04/12
15:22:05.00
24/04/12
15:22:05.00
Jan

897.500000
1









LS55
405.00
5.00
5.00
SCAN
1
20
100
100
0
400
0
1
0
1
5
ON
450 405 
1 0 0
#HDR
-1
-1
#GR
NM

0.00002384185791015625
0.0
450.000000
0.500000
896
8
404.799719
-0.235818
#DATA
450.000000	0.134000   
450.500000	-0.165939  
451.000000	-0.054068  
451.500000	0.289477   
452.000000	0.351113   
452.500000	0.230250   
453.000000	0.019833   
453.500000	0.039219   
454.000000	0.037439   
454.500000	0.020136   
455.000000	-0.014598  
455.500000	0.135287   
456.000000	0.411340   
456.500000	0.630780   
457.000000	0.636765   
457.500000	0.501068   
458.000000	0.501606   
458.500000	0.533128   
459.000000	0.475568   
459.500000	0.313515   
460.000000	0.265590   
460.500000	0.134545   
461.000000	-0.045280  
461.500000	-0.230689  
462.000000	-0.199189  
462.500000	-0.047772  
463.000000	0.198068   
463.500000	0.362931   
464.000000	0.469621   
464.500000	0.341856   
465.000000	0.182128   
465.500000	0.087530   
466.000000	0.067348   
466.500000	-0.024500  
467.000000	0.019878   
467.500000	0.175446   
468.000000	0.197590   
468.500000	0.113113   
469.000000	-0.008363  
469.500000	0.118075   
470.000000	0.073015   
470.500000	0.026984   
471.000000	-0.008742  
471.500000	0.227212   
472.000000	0.364992   
472.500000	0.395833   
473.000000	0.227424   
473.500000	0.020401   
474.000000	-0.028234  
474.500000	0.094439   
475.000000	0.218628   
475.500000	0.157484   
476.000000	-0.065469  
476.500000	-0.159477  
477.000000	-0.055363  
477.500000	0.137825   
478.000000	0.278174   
478.500000	0.276318   
479.000000	0.214803   
479.500000	0.182984   
480.000000	0.152196   
480.500000	0.066454   
481.000000	-0.006954  
481.500000	-0.056810  
482.000000	0.019545   
482.500000	0.224598   
483.000000	0.405530   
483.500000	0.493393   
484.000000	0.405772   
484.500000	0.266446   
485.000000	0.251462   
485.500000	0.336886   
486.000000	0.386856   
486.500000	0.411750   
487.000000	0.459818   
487.500000	0.482083   
488.000000	0.355113   
488.500000	0.282015   
489.000000	0.292772   
489.500000	0.282916   
490.000000	0.252507   
490.500000	0.253242   
491.000000	0.288212   
491.500000	0.215954   
492.000000	0.100181   
492.500000	0.069977   
493.000000	0.204939   
493.500000	0.329833   
494.000000	0.483250   
494.500000	0.574022   
495.000000	0.577666   
495.500000	0.610560   
496.000000	0.612068   
496.500000	0.553280   
497.000000	0.355553   
497.500000	0.189757   
498.000000	0.203931   
498.500000	0.444742   
499.000000	0.626674   
499.500000	0.778204   
500.000000	0.826242   
500.500000	0.939287   
501.000000	0.847643   
501.500000	0.686984   
502.000000	0.471287   
502.500000	0.542560   
503.000000	0.673166   
503.500000	0.780590   
504.000000	0.676439   
504.500000	0.557265   
505.000000	0.546393   
505.500000	0.590265   
506.000000	0.669696   
506.500000	0.724659   
507.000000	0.828212   
507.500000	0.802613   
508.000000	0.710386   
508.500000	0.544636   
509.000000	0.481212   
509.500000	0.548840   
510.000000	0.696030   
510.500000	0.779348   
511.000000	0.841575   
511.500000	0.964469   
512.000000	1.138189   
512.500000	1.177212   
513.000000	1.079575   
513.500000	1.252643   
514.000000	1.648522   
514.500000	2.089037   
515.000000	2.156750   
515.500000	1.907098   
516.000000	1.583196   
516.500000	1.516212   
517.000000	1.726446   
517.500000	1.967962   
518.000000	2.011333   
518.500000	1.774113   
519.000000	1.706143   
519.500000	1.861750   
520.000000	2.203090   
520.500000	2.274954   
521.000000	2.087977   
521.500000	1.851636   
522.000000	1.952628   
522.500000	2.175590   
523.000000	2.473659   
523.500000	2.542378   
524.000000	2.659719   
524.500000	2.546712   
525.000000	2.527000   
525.500000	2.474007   
526.000000	2.696212   
526.500000	2.933371   
527.000000	3.124924   
527.500000	3.246598   
528.000000	3.319515   
528.500000	3.533750   
529.000000	3.733681   
529.500000	4.097446   
530.000000	4.509469   
530.500000	4.730037   
531.000000	4.556196   
531.500000	4.215060   
532.000000	4.307242   
532.500000	4.827939   
533.000000	5.669348   
533.500000	6.175833   
534.000000	6.426643   
534.500000	6.456439   
535.000000	6.676492   
535.500000	7.002416   
536.000000	7.241015   
536.500000	7.370780   
537.000000	7.617893   
537.500000	7.987651   
538.000000	8.309416   
538.500000	8.395598   
539.000000	8.434598   
539.500000	8.671689   
540.000000	9.281363   
540.500000	10.005500  
541.000000	10.709606  
541.500000	11.184696  
542.000000	11.610446  
542.500000	11.707113  
543.000000	11.630348  
543.500000	11.629666  
544.000000	11.744553  
544.500000	11.817863  
545.000000	11.872636  
545.500000	11.936371  
546.000000	11.941045  
546.500000	12.018295  
547.000000	12.064984  
547.500000	12.226424  
548.000000	12.325977  
548.500000	12.563189  
549.000000	12.672257  
549.500000	12.757893  
550.000000	12.941037  
550.500000	13.207886  
551.000000	13.188545  
551.500000	12.572613  
552.000000	12.248204  
552.500000	12.532878  
553.000000	13.250022  
553.500000	13.734265  
554.000000	13.872295  
554.500000	14.031106  
555.000000	14.014113  
555.500000	13.889265  
556.000000	13.710037  
556.500000	13.845977  
557.000000	14.176606  
557.500000	14.251378  
558.000000	14.418075  
558.500000	14.595196  
559.000000	15.148765  
559.500000	15.513818  
560.000000	16.101333  
560.500000	16.456545  
561.000000	16.537234  
561.500000	16.472181  
562.000000	16.804234  
562.500000	17.721871  
563.000000	18.709189  
563.500000	19.288196  
564.000000	19.608530  
564.500000	19.980553  
565.000000	20.562265  
565.500000	21.039946  
566.000000	21.461863  
566.500000	21.906856  
567.000000	22.465454  
567.500000	22.749409  
568.000000	22.997553  
568.500000	23.678007  
569.000000	25.184083  
569.500000	26.520477  
570.000000	26.974181  
570.500000	26.691098  
571.000000	27.362166  
571.500000	28.791310  
572.000000	30.087348  
572.500000	30.237348  
573.000000	30.299825  
573.500000	30.719287  
574.000000	31.724530  
574.500000	32.524946  
575.000000	32.963250  
575.500000	33.154325  
576.000000	33.869121  
576.500000	35.344212  
577.000000	36.728704  
577.500000	37.065666  
578.000000	36.608462  
578.500000	36.663886  
579.000000	37.563378  
579.500000	38.425477  
580.000000	38.707946  
580.500000	38.603969  
581.000000	38.657803  
581.500000	39.113787  
582.000000	39.958189  
582.500000	41.004772  
583.000000	42.453181  
583.500000	44.026212  
584.000000	45.536356  
584.500000	46.500924  
585.000000	46.921553  
585.500000	47.490204  
586.000000	48.521590  
586.500000	49.974598  
587.000000	50.995681  
587.500000	52.064765  
588.000000	53.180901  
588.500000	54.800037  
589.000000	56.011174  
589.500000	57.663196  
590.000000	59.825242  
590.500000	62.283431  
591.000000	63.370227  
591.500000	63.434348  
592.000000	64.058378  
592.500000	65.859583  
593.000000	67.885696  
593.500000	69.336136  
594.000000	70.431454  
594.500000	71.400356  
595.000000	72.313999  
595.500000	73.151704  
596.000000	74.481128  
596.500000	76.085954  
597.000000	78.001401  
597.500000	79.878840  
598.000000	82.093424  
598.500000	83.815727  
599.000000	85.640007  
599.500000	86.616742  
600.000000	88.056151  
600.500000	89.137053  
601.000000	90.809053  
601.500000	92.522462  
602.000000	94.899833  
602.500000	97.003666  
603.000000	98.893242  
603.500000	100.050106 
604.000000	101.245666 
604.500000	102.566734 
605.000000	104.883454 
605.500000	107.763901 
606.000000	110.968181 
606.500000	113.272856 
607.000000	115.850250 
607.500000	118.715378 
608.000000	121.881969 
608.500000	123.785439 
609.000000	124.927992 
609.500000	126.317431 
610.000000	128.644659 
610.500000	131.664106 
611.000000	134.951674 
611.500000	137.414886 
612.000000	139.688560 
612.500000	142.599681 
613.000000	146.508575 
613.500000	150.358022 
614.000000	152.791166 
614.500000	154.416477 
615.000000	156.311250 
615.500000	159.589689 
616.000000	163.232575 
616.500000	167.109424 
617.000000	169.509522 
617.500000	171.794227 
618.000000	175.162803 
618.500000	178.840113 
619.000000	182.277196 
619.500000	184.895765 
620.000000	188.641787 
620.500000	193.005962 
621.000000	197.365257 
621.500000	200.291954 
622.000000	202.826000 
622.500000	205.355575 
623.000000	208.874825 
623.500000	212.471750 
624.000000	215.449931 
624.500000	218.677696 
625.000000	223.320325 
625.500000	229.022939 
626.000000	235.460863 
626.500000	239.538901 
627.000000	241.527969 
627.500000	242.723833 
628.000000	246.508666 
628.500000	252.788833 
629.000000	259.351045 
629.500000	264.021310 
630.000000	266.533507 
630.500000	269.269121 
631.000000	273.341234 
631.500000	278.882462 
632.000000	283.098174 
632.500000	286.849098 
633.000000	291.575053 
633.500000	298.183416 
634.000000	303.731621 
634.500000	307.690439 
635.000000	310.609227 
635.500000	314.113643 
636.000000	318.483242 
636.500000	322.218477 
637.000000	323.614984 
637.500000	324.431507 
638.000000	328.701265 
638.500000	335.960681 
639.000000	343.755287 
639.500000	347.604825 
640.000000	349.803075 
640.500000	352.307280 
641.000000	355.488878 
641.500000	359.017325 
642.000000	362.028962 
642.500000	365.107128 
643.000000	367.749128 
643.500000	371.160848 
644.000000	373.411424 
644.500000	376.753780 
645.000000	379.792946 
645.500000	383.470371 
646.000000	384.752242 
646.500000	385.164318 
647.000000	385.432984 
647.500000	388.777204 
648.000000	391.303386 
648.500000	392.938704 
649.000000	393.279477 
649.500000	394.925590 
650.000000	396.809530 
650.500000	397.713818 
651.000000	398.202409 
651.500000	398.933575 
652.000000	399.973598 
652.500000	399.956886 
653.000000	400.615856 
653.500000	400.738250 
654.000000	401.125431 
654.500000	401.635878 
655.000000	404.151227 
655.500000	404.799719 
656.000000	402.025393 
656.500000	398.525325 
657.000000	398.450234 
657.500000	399.655075 
658.000000	399.075219 
658.500000	396.037424 
659.000000	393.175803 
659.500000	390.983901 
660.000000	388.358045 
660.500000	385.711196 
661.000000	383.601583 
661.500000	381.624386 
662.000000	380.369568 
662.500000	377.960803 
663.000000	375.137401 
663.500000	371.342780 
664.000000	368.427151 
664.500000	364.817621 
665.000000	362.035166 
665.500000	358.598090 
666.000000	357.328295 
666.500000	354.115363 
667.000000	349.285015 
667.500000	342.727037 
668.000000	337.644477 
668.500000	332.382000 
669.000000	328.013909 
669.500000	323.334674 
670.000000	320.554318 
670.500000	316.610386 
671.000000	312.225886 
671.500000	307.454098 
672.000000	305.173598 
672.500000	300.984515 
673.000000	295.014939 
673.500000	286.571424 
674.000000	280.055878 
674.500000	274.972424 
675.000000	271.547659 
675.500000	266.532363 
676.000000	260.658053 
676.500000	253.729962 
677.000000	248.343924 
677.500000	243.603924 
678.000000	238.825446 
678.500000	233.531727 
679.000000	228.580325 
679.500000	223.574310 
680.000000	217.351303 
680.500000	211.204386 
681.000000	205.032371 
681.500000	199.733219 
682.000000	193.472621 
682.500000	188.252068 
683.000000	183.396606 
683.500000	179.916500 
684.000000	175.298893 
684.500000	170.233765 
685.000000	164.984265 
685.500000	160.407196 
686.000000	156.157151 
686.500000	151.634204 
687.000000	147.055454 
687.500000	142.467325 
688.000000	138.430166 
688.500000	134.163765 
689.000000	129.017674 
689.500000	123.610757 
690.000000	119.646007 
690.500000	117.741507 
691.000000	115.677189 
691.500000	112.711924 
692.000000	108.662901 
692.500000	104.973636 
693.000000	101.401727 
693.500000	98.081613  
694.000000	94.584090  
694.500000	91.517287  
695.000000	88.761280  
695.500000	86.984075  
696.000000	85.483037  
696.500000	83.992613  
697.000000	81.514439  
697.500000	78.341719  
698.000000	75.380196  
698.500000	72.537242  
699.000000	70.067227  
699.500000	67.389636  
700.000000	65.389803  
700.500000	63.311348  
701.000000	61.392409  
701.500000	59.536583  
702.000000	58.699500  
702.500000	57.706598  
703.000000	56.058878  
703.500000	53.968878  
704.000000	51.887704  
704.500000	50.378750  
705.000000	49.492992  
705.500000	48.987310  
706.000000	47.785871  
706.500000	46.461181  
707.000000	45.187901  
707.500000	43.990333  
708.000000	41.764939  
708.500000	39.670500  
709.000000	38.788083  
709.500000	38.820121  
710.000000	38.018007  
710.500000	36.378393  
711.000000	34.788462  
711.500000	33.426424  
712.000000	32.382833  
712.500000	31.453007  
713.000000	30.994795  
713.500000	30.333272  
714.000000	29.842742  
714.500000	29.442469  
715.000000	29.322863  
715.500000	28.794022  
716.000000	27.889083  
716.500000	26.925962  
717.000000	26.309704  
717.500000	26.124545  
718.000000	25.620613  
718.500000	25.025128  
719.000000	24.205946  
719.500000	23.417000  
720.000000	22.612409  
720.500000	22.032810  
721.000000	21.702113  
721.500000	21.481537  
722.000000	21.177462  
722.500000	20.959734  
723.000000	20.420106  
723.500000	19.493424  
724.000000	18.294977  
724.500000	17.723651  
725.000000	17.695393  
725.500000	17.847878  
726.000000	17.565856  
726.500000	16.930386  
727.000000	16.073924  
727.500000	15.267287  
728.000000	14.679825  
728.500000	14.273295  
729.000000	14.190454  
729.500000	14.167106  
730.000000	14.351795  
730.500000	14.198007  
731.000000	13.710174  
731.500000	13.042530  
732.000000	12.952090  
732.500000	12.728553  
733.000000	12.326674  
733.500000	11.726037  
734.000000	11.783568  
734.500000	12.062553  
735.000000	11.991962  
735.500000	11.444795  
736.000000	11.058553  
736.500000	11.083772  
737.000000	11.394393  
737.500000	11.398689  
738.000000	11.084015  
738.500000	10.514386  
739.000000	10.128500  
739.500000	9.764924   
740.000000	9.713219   
740.500000	9.581696   
741.000000	9.432378   
741.500000	9.125280   
742.000000	8.966371   
742.500000	9.167787   
743.000000	9.376946   
743.500000	9.222780   
744.000000	8.604984   
744.500000	7.947151   
745.000000	7.748712   
745.500000	7.994189   
746.000000	8.172833   
746.500000	7.956166   
747.000000	7.643492   
747.500000	7.361522   
748.000000	7.294196   
748.500000	7.221121   
749.000000	7.183151   
749.500000	7.014053   
750.000000	6.867606   
750.500000	6.833583   
751.000000	6.968401   
751.500000	6.901242   
752.000000	6.675787   
752.500000	6.380022   
753.000000	6.078098   
753.500000	5.750560   
754.000000	5.581439   
754.500000	5.610439   
755.000000	5.698143   
755.500000	5.769803   
756.000000	6.048060   
756.500000	6.394818   
757.000000	6.462765   
757.500000	6.067378   
758.000000	5.647689   
758.500000	5.527787   
759.000000	5.603825   
759.500000	5.584522   
760.000000	5.410772   
760.500000	5.121590   
761.000000	4.814750   
761.500000	4.732765   
762.000000	4.868295   
762.500000	4.972712   
763.000000	4.814007   
763.500000	4.671636   
764.000000	4.865962   
764.500000	5.186204   
765.000000	5.140363   
765.500000	4.834000   
766.000000	4.577803   
766.500000	4.643060   
767.000000	4.770704   
767.500000	4.703174   
768.000000	4.383303   
768.500000	4.240696   
769.000000	4.340363   
769.500000	4.475446   
770.000000	4.334310   
770.500000	4.139015   
771.000000	4.072537   
771.500000	4.041249   
772.000000	3.935590   
772.500000	3.764924   
773.000000	3.661068   
773.500000	3.543590   
774.000000	3.457734   
774.500000	3.616651   
775.000000	3.894969   
775.500000	4.054060   
776.000000	4.007121   
776.500000	3.867090   
777.000000	3.665833   
777.500000	3.446386   
778.000000	3.139310   
778.500000	3.049325   
779.000000	3.293015   
779.500000	3.721439   
780.000000	3.920340   
780.500000	3.728909   
781.000000	3.305356   
781.500000	3.107772   
782.000000	3.051303   
782.500000	3.086250   
783.000000	3.083325   
783.500000	3.098537   
784.000000	3.173651   
784.500000	3.252636   
785.000000	3.369159   
785.500000	3.345575   
786.000000	3.281590   
786.500000	3.108219   
787.000000	3.083916   
787.500000	3.077303   
788.000000	3.127242   
788.500000	3.016250   
789.000000	2.890545   
789.500000	2.784227   
790.000000	2.831257   
790.500000	2.861893   
791.000000	2.881840   
791.500000	2.877863   
792.000000	2.877454   
792.500000	2.995590   
793.000000	3.158734   
793.500000	3.273386   
794.000000	3.018613   
794.500000	2.720401   
795.000000	2.578954   
795.500000	2.741295   
796.000000	2.815363   
796.500000	2.774007   
797.000000	2.751848   
797.500000	2.778659   
798.000000	2.701681   
798.500000	2.357257   
799.000000	2.148060   
799.500000	2.134318   
800.000000	2.323848   
800.500000	2.468083   
801.000000	2.523424   
801.500000	2.511674   
802.000000	2.478189   
802.500000	2.463575   
803.000000	2.510515   
803.500000	2.654295   
804.000000	2.804340   
804.500000	2.755477   
805.000000	2.389348   
805.500000	1.951189   
806.000000	1.936704   
806.500000	1.996083   
807.000000	2.045325   
807.500000	2.005060   
808.000000	2.208045   
808.500000	2.187234   
809.000000	1.982590   
809.500000	1.715969   
810.000000	1.800484   
810.500000	2.032318   
811.000000	2.190787   
811.500000	2.228886   
812.000000	2.162409   
812.500000	1.956992   
813.000000	1.663401   
813.500000	1.535068   
814.000000	1.636507   
814.500000	1.753265   
815.000000	1.709507   
815.500000	1.523272   
816.000000	1.594439   
816.500000	1.640613   
817.000000	1.668893   
817.500000	1.562795   
818.000000	1.531340   
818.500000	1.565909   
819.000000	1.874568   
819.500000	2.265553   
820.000000	2.338060   
820.500000	2.199469   
821.000000	2.040681   
821.500000	2.234068   
822.000000	2.291371   
822.500000	2.249962   
823.000000	2.032378   
823.500000	2.017848   
824.000000	2.114318   
824.500000	2.388757   
825.000000	2.583143   
825.500000	2.590681   
826.000000	2.430893   
826.500000	2.346575   
827.000000	2.481742   
827.500000	2.604681   
828.000000	2.451431   
828.500000	2.052053   
829.000000	1.758333   
829.500000	1.613053   
830.000000	1.569583   
830.500000	1.497128   
831.000000	1.549545   
831.500000	1.602401   
832.000000	1.605909   
832.500000	1.439931   
833.000000	1.325962   
833.500000	1.222515   
834.000000	1.230022   
834.500000	1.171174   
835.000000	1.135704   
835.500000	1.059689   
836.000000	0.985946   
836.500000	0.887356   
837.000000	0.892553   
837.500000	0.963303   
838.000000	0.860977   
838.500000	0.607583   
839.000000	0.418765   
839.500000	0.574333   
840.000000	0.896318   
840.500000	1.057166   
841.000000	1.043856   
841.500000	0.970871   
842.000000	0.924909   
842.500000	0.793659   
843.000000	0.719765   
843.500000	0.665727   
844.000000	0.733530   
844.500000	0.785106   
845.000000	0.814189   
845.500000	0.769280   
846.000000	0.727401   
846.500000	0.650143   
847.000000	0.554590   
847.500000	0.460469   
848.000000	0.415909   
848.500000	0.348022   
849.000000	0.226287   
849.500000	0.163765   
850.000000	0.232113   
850.500000	0.321196   
851.000000	0.300515   
851.500000	0.243643   
852.000000	0.241310   
852.500000	0.238106   
853.000000	0.176893   
853.500000	0.059356   
854.000000	0.051886   
854.500000	0.068416   
855.000000	0.125386   
855.500000	0.057795   
856.000000	0.179227   
856.500000	0.266651   
857.000000	0.327363   
857.500000	0.151280   
858.000000	0.080075   
858.500000	0.105840   
859.000000	0.230757   
859.500000	0.283871   
860.000000	0.213022   
860.500000	0.083356   
861.000000	-0.054265  
861.500000	0.017340   
862.000000	0.216659   
862.500000	0.358598   
863.000000	0.370772   
863.500000	0.300810   
864.000000	0.336939   
864.500000	0.303212   
865.000000	0.261651   
865.500000	0.185643   
866.000000	0.169189   
866.500000	0.041651   
867.000000	-0.004219  
867.500000	0.067090   
868.000000	0.165166   
868.500000	0.164060   
869.000000	0.143159   
869.500000	0.211522   
870.000000	0.230984   
870.500000	0.029181   
871.000000	-0.178689  
871.500000	-0.223583  
872.000000	-0.031537  
872.500000	0.157121   
873.000000	0.238113   
873.500000	0.120257   
874.000000	0.025356   
874.500000	-0.066250  
875.000000	-0.054583  
875.500000	-0.065727  
876.000000	-0.067189  
876.500000	-0.068401  
877.000000	0.024568   
877.500000	0.107303   
878.000000	0.119984   
878.500000	0.090606   
879.000000	0.104060   
879.500000	0.137734   
880.000000	0.051249   
880.500000	-0.052378  
881.000000	-0.106750  
881.500000	-0.076303  
882.000000	-0.072143  
882.500000	-0.048340  
883.000000	-0.021378  
883.500000	0.008098   
884.000000	-0.018560  
884.500000	0.015075   
885.000000	0.107712   
885.500000	0.177401   
886.000000	0.165575   
886.500000	0.107689   
887.000000	0.105075   
887.500000	0.151636   
888.000000	0.134166   
888.500000	0.073969   
889.000000	0.043318   
889.500000	0.092977   
890.000000	0.193265   
890.500000	0.123689   
891.000000	-0.084310  
891.500000	-0.235818  
892.000000	-0.058159  
892.500000	0.184151   
893.000000	0.271681   
893.500000	0.118863   
894.000000	0.044590   
894.500000	0.066113   
895.000000	0.106984   
895.500000	0.090977   
896.000000	0.113083   
896.500000	0.177295   
897.000000	0.169719   
897.500000	0.100659   

