PE FL                   SPECTRUM    ASCII       PEDS        1.60        
  -1
SA83C1~1.SP
24/04/12
15:27:47.00
24/04/12
15:27:47.00
Jan

897.500000
1









LS55
405.00
5.00
5.00
SCAN
1
20
100
100
0
400
0
1
0
1
5
ON
450 405 
1 0 0
#HDR
-1
-1
#GR
NM

0.00002384185791015625
0.0
450.000000
0.500000
896
8
402.518348
-0.203984
#DATA
450.000000	0.066999   
450.500000	0.098765   
451.000000	0.167106   
451.500000	0.242666   
452.000000	0.177250   
452.500000	0.044121   
453.000000	-0.028128  
453.500000	0.026954   
454.000000	0.109219   
454.500000	0.151212   
455.000000	0.266613   
455.500000	0.364500   
456.000000	0.401484   
456.500000	0.287000   
457.000000	0.098424   
457.500000	-0.054166  
458.000000	-0.109856  
458.500000	-0.059204  
459.000000	0.027886   
459.500000	0.118174   
460.000000	0.225916   
460.500000	0.306712   
461.000000	0.355333   
461.500000	0.266196   
462.000000	0.239606   
462.500000	0.170363   
463.000000	0.210333   
463.500000	0.252075   
464.000000	0.318219   
464.500000	0.324477   
465.000000	0.374924   
465.500000	0.494954   
466.000000	0.586303   
466.500000	0.452628   
467.000000	0.201333   
467.500000	0.077999   
468.000000	0.201492   
468.500000	0.283151   
469.000000	0.345825   
469.500000	0.324159   
470.000000	0.278166   
470.500000	0.113000   
471.000000	0.046962   
471.500000	0.125068   
472.000000	0.200583   
472.500000	0.155151   
473.000000	0.003727   
473.500000	-0.076719  
474.000000	-0.142242  
474.500000	-0.142659  
475.000000	-0.017492  
475.500000	0.161234   
476.000000	0.222446   
476.500000	0.258416   
477.000000	0.290833   
477.500000	0.336265   
478.000000	0.208598   
478.500000	0.088893   
479.000000	-0.011621  
479.500000	0.072007   
480.000000	-0.021265  
480.500000	0.028833   
481.000000	0.011378   
481.500000	0.153530   
482.000000	0.129363   
482.500000	0.302159   
483.000000	0.316121   
483.500000	0.354984   
484.000000	0.230969   
484.500000	0.335128   
485.000000	0.420333   
485.500000	0.402757   
486.000000	0.281325   
486.500000	0.313803   
487.000000	0.429568   
487.500000	0.475439   
488.000000	0.442628   
488.500000	0.435530   
489.000000	0.385280   
489.500000	0.297734   
490.000000	0.224310   
490.500000	0.284022   
491.000000	0.261689   
491.500000	0.191143   
492.000000	0.128477   
492.500000	0.061522   
493.000000	-0.034356  
493.500000	-0.096325  
494.000000	0.092977   
494.500000	0.291606   
495.000000	0.489689   
495.500000	0.537734   
496.000000	0.524257   
496.500000	0.247500   
497.000000	-0.043045  
497.500000	-0.164083  
498.000000	-0.004818  
498.500000	0.188492   
499.000000	0.333681   
499.500000	0.368356   
500.000000	0.374113   
500.500000	0.344666   
501.000000	0.427765   
501.500000	0.571977   
502.000000	0.720750   
502.500000	0.766318   
503.000000	0.775651   
503.500000	0.843106   
504.000000	0.858787   
504.500000	0.814984   
505.000000	0.727954   
505.500000	0.758393   
506.000000	0.807189   
506.500000	0.885787   
507.000000	0.983803   
507.500000	1.068977   
508.000000	1.155484   
508.500000	1.040795   
509.000000	0.848045   
509.500000	0.620712   
510.000000	0.700575   
510.500000	0.814212   
511.000000	1.029992   
511.500000	1.142628   
512.000000	1.269659   
512.500000	1.165643   
513.000000	1.060204   
513.500000	1.111446   
514.000000	1.325863   
514.500000	1.363318   
515.000000	1.224500   
515.500000	1.211446   
516.000000	1.384454   
516.500000	1.651537   
517.000000	1.794689   
517.500000	1.931000   
518.000000	2.034969   
518.500000	2.079409   
519.000000	1.917659   
519.500000	1.841333   
520.000000	1.748560   
520.500000	1.918159   
521.000000	2.073553   
521.500000	2.330545   
522.000000	2.372348   
522.500000	2.461325   
523.000000	2.485984   
523.500000	2.522780   
524.000000	2.466515   
524.500000	2.507916   
525.000000	2.738825   
525.500000	2.911856   
526.000000	3.125848   
526.500000	3.373015   
527.000000	3.685272   
527.500000	3.715454   
528.000000	3.577371   
528.500000	3.507098   
529.000000	3.736424   
529.500000	3.966250   
530.000000	4.099916   
530.500000	4.081174   
531.000000	4.259598   
531.500000	4.596878   
532.000000	4.961901   
532.500000	5.127386   
533.000000	5.365651   
533.500000	5.667053   
534.000000	5.882068   
534.500000	5.946954   
535.000000	6.060136   
535.500000	6.506022   
536.000000	7.099098   
536.500000	7.621749   
537.000000	7.772878   
537.500000	7.862696   
538.000000	8.190083   
538.500000	8.661083   
539.000000	9.041704   
539.500000	9.306098   
540.000000	9.863878   
540.500000	10.385363  
541.000000	10.664757  
541.500000	10.759613  
542.000000	11.184734  
542.500000	11.274234  
543.000000	11.122219  
543.500000	10.893310  
544.000000	11.358212  
544.500000	11.682409  
545.000000	11.756537  
545.500000	11.596568  
546.000000	11.985371  
546.500000	12.614522  
547.000000	13.081303  
547.500000	13.116446  
548.000000	12.723181  
548.500000	12.524113  
549.000000	12.365992  
549.500000	12.470636  
550.000000	12.448318  
550.500000	12.680787  
551.000000	12.929575  
551.500000	13.067431  
552.000000	12.834484  
552.500000	12.499325  
553.000000	12.371681  
553.500000	12.783356  
554.000000	13.515196  
554.500000	13.747189  
555.000000	13.582825  
555.500000	13.704840  
556.000000	14.542954  
556.500000	15.200863  
557.000000	15.292628  
557.500000	15.161053  
558.000000	15.414022  
558.500000	15.731712  
559.000000	15.904848  
559.500000	15.991416  
560.000000	16.114333  
560.500000	16.095378  
561.000000	16.179242  
561.500000	16.380924  
562.000000	16.685704  
562.500000	17.225113  
563.000000	17.908325  
563.500000	18.616401  
564.000000	18.904143  
564.500000	19.463234  
565.000000	20.187507  
565.500000	20.876719  
566.000000	20.789469  
566.500000	21.252128  
567.000000	22.142848  
567.500000	23.028484  
568.000000	23.005257  
568.500000	22.840219  
569.000000	23.209590  
569.500000	24.242030  
570.000000	25.175318  
570.500000	26.211742  
571.000000	27.393022  
571.500000	28.663181  
572.000000	29.268106  
572.500000	29.560977  
573.000000	29.925621  
573.500000	30.846196  
574.000000	31.092992  
574.500000	31.366575  
575.000000	31.944075  
575.500000	33.098522  
576.000000	33.724106  
576.500000	34.082022  
577.000000	34.142787  
577.500000	34.497113  
578.000000	34.936484  
578.500000	35.655969  
579.000000	36.204727  
579.500000	36.781348  
580.000000	37.462219  
580.500000	38.830378  
581.000000	39.973818  
581.500000	40.554045  
582.000000	40.342522  
582.500000	41.141840  
583.000000	42.569416  
583.500000	43.957462  
584.000000	44.043363  
584.500000	44.312825  
585.000000	45.481742  
585.500000	47.005515  
586.000000	47.901295  
586.500000	48.519833  
587.000000	49.719606  
587.500000	51.198166  
588.000000	52.983939  
588.500000	54.466325  
589.000000	55.477151  
589.500000	56.174825  
590.000000	56.884575  
590.500000	58.241121  
591.000000	59.412583  
591.500000	60.760825  
592.000000	61.873128  
592.500000	63.417598  
593.000000	64.713515  
593.500000	66.104590  
594.000000	67.500818  
594.500000	69.381189  
595.000000	70.893000  
595.500000	71.944022  
596.000000	73.154166  
596.500000	74.701128  
597.000000	76.515477  
597.500000	77.931075  
598.000000	79.202954  
598.500000	80.375984  
599.000000	82.129689  
599.500000	84.123840  
600.000000	86.453196  
600.500000	87.881696  
601.000000	89.153113  
601.500000	90.572962  
602.000000	92.535075  
602.500000	94.195825  
603.000000	96.093310  
603.500000	98.829560  
604.000000	102.571083 
604.500000	105.346628 
605.000000	106.467333 
605.500000	106.583265 
606.000000	107.405916 
606.500000	110.736469 
607.000000	114.856128 
607.500000	117.823969 
608.000000	118.402893 
608.500000	119.120916 
609.000000	120.757863 
609.500000	123.942553 
610.000000	126.645712 
610.500000	129.823553 
611.000000	132.824613 
611.500000	135.503666 
612.000000	137.438712 
612.500000	139.672015 
613.000000	141.641053 
613.500000	144.140151 
614.000000	146.587962 
614.500000	149.931787 
615.000000	153.835848 
615.500000	157.728128 
616.000000	160.170621 
616.500000	161.931106 
617.000000	164.367431 
617.500000	167.949878 
618.000000	172.697174 
618.500000	176.876075 
619.000000	180.333621 
619.500000	182.386712 
620.000000	184.552606 
620.500000	188.327409 
621.000000	193.214901 
621.500000	197.407727 
622.000000	199.433628 
622.500000	201.964901 
623.000000	204.715772 
623.500000	208.986681 
624.000000	212.746227 
624.500000	217.121431 
625.000000	221.031356 
625.500000	225.111560 
626.000000	229.172022 
626.500000	233.631196 
627.000000	238.112939 
627.500000	242.236424 
628.000000	246.502280 
628.500000	251.568022 
629.000000	257.244075 
629.500000	262.395909 
630.000000	265.829363 
630.500000	268.972022 
631.000000	272.652568 
631.500000	276.846727 
632.000000	281.180295 
632.500000	285.150666 
633.000000	289.444863 
633.500000	293.841280 
634.000000	298.977689 
634.500000	303.556287 
635.000000	307.867727 
635.500000	310.923992 
636.000000	313.898507 
636.500000	317.717219 
637.000000	322.681696 
637.500000	327.640901 
638.000000	331.130196 
638.500000	333.742545 
639.000000	336.466878 
639.500000	340.510696 
640.000000	344.223234 
640.500000	350.464825 
641.000000	356.714946 
641.500000	361.451325 
642.000000	362.657234 
642.500000	362.393325 
643.000000	362.783310 
643.500000	365.072772 
644.000000	369.849113 
644.500000	374.345893 
645.000000	378.614810 
645.500000	381.103401 
646.000000	384.252113 
646.500000	386.194121 
647.000000	388.246696 
647.500000	390.380575 
648.000000	391.843166 
648.500000	392.637272 
649.000000	392.829356 
649.500000	393.959659 
650.000000	394.219696 
650.500000	395.890651 
651.000000	397.681719 
651.500000	400.146098 
652.000000	401.343757 
652.500000	401.991333 
653.000000	401.723484 
653.500000	401.247196 
654.000000	402.357462 
654.500000	402.518348 
655.000000	400.895325 
655.500000	397.379992 
656.000000	397.885219 
656.500000	399.362310 
657.000000	399.207787 
657.500000	395.872416 
658.000000	393.747992 
658.500000	392.473174 
659.000000	392.041969 
659.500000	390.888916 
660.000000	390.098659 
660.500000	388.671219 
661.000000	386.003045 
661.500000	383.022393 
662.000000	380.863015 
662.500000	379.719765 
663.000000	377.175250 
663.500000	373.413666 
664.000000	368.963787 
664.500000	366.764727 
665.000000	363.913143 
665.500000	359.778310 
666.000000	354.244893 
666.500000	350.319083 
667.000000	346.202621 
667.500000	342.333295 
668.000000	337.127143 
668.500000	332.182765 
669.000000	327.009636 
669.500000	323.714068 
670.000000	320.202386 
670.500000	315.911575 
671.000000	310.084583 
671.500000	305.068727 
672.000000	299.599810 
672.500000	294.214212 
673.000000	288.617545 
673.500000	283.805704 
674.000000	278.005757 
674.500000	273.050189 
675.000000	269.771772 
675.500000	266.442484 
676.000000	259.679969 
676.500000	251.391522 
677.000000	244.988568 
677.500000	241.202674 
678.000000	236.274393 
678.500000	229.532386 
679.000000	222.396340 
679.500000	217.015106 
680.000000	211.287204 
680.500000	206.056856 
681.000000	201.247583 
681.500000	197.676106 
682.000000	192.764727 
682.500000	186.622803 
683.000000	180.581803 
683.500000	176.362825 
684.000000	172.894166 
684.500000	168.073068 
685.000000	161.823000 
685.500000	155.511977 
686.000000	151.099772 
686.500000	147.217568 
687.000000	142.969174 
687.500000	138.203568 
688.000000	134.646712 
688.500000	131.129454 
689.000000	128.192780 
689.500000	125.015742 
690.000000	121.514053 
690.500000	116.493568 
691.000000	112.469287 
691.500000	109.680848 
692.000000	107.122507 
692.500000	102.526477 
693.000000	97.734075  
693.500000	94.182462  
694.000000	92.331742  
694.500000	91.254143  
695.000000	90.043492  
695.500000	87.164439  
696.000000	82.612113  
696.500000	78.527325  
697.000000	76.192901  
697.500000	74.614787  
698.000000	73.093325  
698.500000	70.750545  
699.000000	68.297530  
699.500000	65.870568  
700.000000	64.198530  
700.500000	62.762590  
701.000000	61.356909  
701.500000	59.210931  
702.000000	57.149545  
702.500000	55.102234  
703.000000	53.527265  
703.500000	52.391090  
704.000000	51.507325  
704.500000	49.955310  
705.000000	47.778431  
705.500000	45.458348  
706.000000	44.011560  
706.500000	43.160037  
707.000000	42.208750  
707.500000	40.974166  
708.000000	40.069000  
708.500000	39.439734  
709.000000	38.971500  
709.500000	38.063719  
710.000000	37.006333  
710.500000	35.772303  
711.000000	35.100477  
711.500000	34.421613  
712.000000	33.770515  
712.500000	32.295340  
713.000000	30.811727  
713.500000	29.742848  
714.000000	29.951757  
714.500000	30.111651  
715.000000	29.705409  
715.500000	28.279689  
716.000000	27.072787  
716.500000	26.151075  
717.000000	25.564583  
717.500000	24.412363  
718.000000	23.495772  
718.500000	23.065446  
719.000000	23.354840  
719.500000	23.407037  
720.000000	22.747969  
720.500000	21.527727  
721.000000	20.454454  
721.500000	20.022348  
722.000000	19.957901  
722.500000	19.773712  
723.000000	19.258310  
723.500000	18.863159  
724.000000	18.278969  
724.500000	17.632954  
725.000000	17.227325  
725.500000	17.331931  
726.000000	17.212757  
726.500000	16.721007  
727.000000	16.073272  
727.500000	15.992143  
728.000000	15.784015  
728.500000	15.501507  
729.000000	15.012431  
729.500000	14.545174  
730.000000	13.885113  
730.500000	13.649643  
731.000000	13.783545  
731.500000	13.922719  
732.000000	13.514098  
732.500000	12.982386  
733.000000	12.496303  
733.500000	12.401696  
734.000000	12.227939  
734.500000	11.831272  
735.000000	11.267545  
735.500000	10.982719  
736.000000	10.879575  
736.500000	10.980946  
737.000000	10.883280  
737.500000	10.678969  
738.000000	10.309462  
738.500000	9.803492   
739.000000	9.435575   
739.500000	9.511015   
740.000000	9.708939   
740.500000	9.708098   
741.000000	9.385053   
741.500000	9.121310   
742.000000	8.919068   
742.500000	8.560159   
743.000000	8.109969   
743.500000	8.134045   
744.000000	8.361113   
744.500000	8.454151   
745.000000	8.071318   
745.500000	7.661613   
746.000000	7.537500   
746.500000	7.625946   
747.000000	7.623151   
747.500000	7.353530   
748.000000	7.108454   
748.500000	7.125575   
749.000000	7.364143   
749.500000	7.270939   
750.000000	6.966371   
750.500000	6.676916   
751.000000	6.677765   
751.500000	6.730924   
752.000000	6.638553   
752.500000	6.442583   
753.000000	6.196174   
753.500000	6.134674   
754.000000	6.123977   
754.500000	6.212477   
755.000000	5.930348   
755.500000	5.664772   
756.000000	5.361265   
756.500000	5.365227   
757.000000	5.300181   
757.500000	5.322310   
758.000000	5.419234   
758.500000	5.394901   
759.000000	5.052772   
759.500000	4.571696   
760.000000	4.552219   
760.500000	4.742818   
761.000000	4.928492   
761.500000	4.904719   
762.000000	4.921734   
762.500000	5.020886   
763.000000	4.968227   
763.500000	4.795666   
764.000000	4.641795   
764.500000	4.729409   
765.000000	4.737333   
765.500000	4.573681   
766.000000	4.355492   
766.500000	4.489575   
767.000000	4.953734   
767.500000	5.201136   
768.000000	4.890356   
768.500000	4.354295   
769.000000	3.996106   
769.500000	4.065810   
770.000000	4.291878   
770.500000	4.551333   
771.000000	4.502295   
771.500000	4.270689   
772.000000	3.915204   
772.500000	3.768901   
773.000000	3.664515   
773.500000	3.568416   
774.000000	3.523848   
774.500000	3.525060   
775.000000	3.543053   
775.500000	3.524090   
776.000000	3.572810   
776.500000	3.579409   
777.000000	3.536325   
777.500000	3.470696   
778.000000	3.523560   
778.500000	3.673007   
779.000000	3.771689   
779.500000	3.682340   
780.000000	3.399924   
780.500000	3.323015   
781.000000	3.506954   
781.500000	3.697333   
782.000000	3.500727   
782.500000	3.231742   
783.000000	3.099151   
783.500000	3.174340   
784.000000	3.215818   
784.500000	3.238015   
785.000000	3.223318   
785.500000	3.131090   
786.000000	3.006583   
786.500000	2.969060   
787.000000	3.119598   
787.500000	3.278454   
788.000000	3.280969   
788.500000	3.030348   
789.000000	2.828916   
789.500000	2.835098   
790.000000	3.071636   
790.500000	3.127560   
791.000000	3.042378   
791.500000	2.815356   
792.000000	2.751810   
792.500000	2.764219   
793.000000	2.937924   
793.500000	3.039469   
794.000000	2.985287   
794.500000	2.760787   
795.000000	2.623901   
795.500000	2.704795   
796.000000	2.874568   
796.500000	2.915143   
797.000000	2.730575   
797.500000	2.427553   
798.000000	2.190280   
798.500000	2.203848   
799.000000	2.380962   
799.500000	2.622409   
800.000000	2.843492   
800.500000	2.829128   
801.000000	2.496431   
801.500000	2.115613   
802.000000	2.155060   
802.500000	2.353643   
803.000000	2.441303   
803.500000	2.225803   
804.000000	2.079825   
804.500000	2.066219   
805.000000	2.303803   
805.500000	2.434000   
806.000000	2.301340   
806.500000	2.000530   
807.000000	1.918401   
807.500000	2.008878   
808.000000	1.983227   
808.500000	1.868803   
809.000000	1.926378   
809.500000	2.124045   
810.000000	2.250378   
810.500000	2.125189   
811.000000	1.920537   
811.500000	1.755325   
812.000000	1.843196   
812.500000	1.803068   
813.000000	1.723969   
813.500000	1.541984   
814.000000	1.576386   
814.500000	1.664075   
815.000000	1.863537   
815.500000	1.999674   
816.000000	1.928090   
816.500000	1.867083   
817.000000	1.882969   
817.500000	2.035734   
818.000000	1.904575   
818.500000	1.895681   
819.000000	1.956075   
819.500000	2.050242   
820.000000	1.797128   
820.500000	1.717098   
821.000000	1.937166   
821.500000	2.322962   
822.000000	2.267181   
822.500000	2.229287   
823.000000	2.172916   
823.500000	2.242378   
824.000000	2.046893   
824.500000	2.031545   
825.000000	2.165189   
825.500000	2.477757   
826.000000	2.632916   
826.500000	2.659015   
827.000000	2.566530   
827.500000	2.355000   
828.000000	2.229863   
828.500000	2.084143   
829.000000	1.900325   
829.500000	1.657765   
830.000000	1.509545   
830.500000	1.397477   
831.000000	1.382833   
831.500000	1.376204   
832.000000	1.494227   
832.500000	1.576636   
833.000000	1.629143   
833.500000	1.523204   
834.000000	1.340613   
834.500000	1.163151   
835.000000	1.092901   
835.500000	1.090484   
836.000000	1.089348   
836.500000	1.107780   
837.000000	1.071113   
837.500000	1.013128   
838.000000	0.929060   
838.500000	0.781833   
839.000000	0.691810   
839.500000	0.712757   
840.000000	0.877939   
840.500000	0.998416   
841.000000	1.022931   
841.500000	0.944999   
842.000000	0.870401   
842.500000	0.809795   
843.000000	0.840553   
843.500000	0.923499   
844.000000	0.921613   
844.500000	0.736075   
845.000000	0.556250   
845.500000	0.508151   
846.000000	0.598909   
846.500000	0.576787   
847.000000	0.502212   
847.500000	0.440287   
848.000000	0.555863   
848.500000	0.580969   
849.000000	0.567431   
849.500000	0.482666   
850.000000	0.415151   
850.500000	0.214484   
851.000000	0.092030   
851.500000	0.075848   
852.000000	0.194810   
852.500000	0.181886   
853.000000	0.221575   
853.500000	0.314212   
854.000000	0.397742   
854.500000	0.244500   
855.000000	0.048022   
855.500000	-0.065393  
856.000000	0.001287   
856.500000	0.098545   
857.000000	0.103750   
857.500000	0.027893   
858.000000	-0.012636  
858.500000	-0.005295  
859.000000	-0.028712  
859.500000	-0.083340  
860.000000	-0.082992  
860.500000	-0.044386  
861.000000	0.054234   
861.500000	0.141712   
862.000000	0.255030   
862.500000	0.226931   
863.000000	0.116106   
863.500000	-0.008068  
864.000000	-0.067136  
864.500000	-0.132924  
865.000000	-0.060492  
865.500000	0.111750   
866.000000	0.193515   
866.500000	0.148189   
867.000000	0.059053   
867.500000	0.063727   
868.000000	0.064469   
868.500000	-0.001265  
869.000000	-0.014984  
869.500000	0.069568   
870.000000	0.163840   
870.500000	0.149719   
871.000000	0.058310   
871.500000	-0.066007  
872.000000	-0.091431  
872.500000	-0.033681  
873.000000	0.020477   
873.500000	0.039568   
874.000000	0.063265   
874.500000	0.193356   
875.000000	0.273151   
875.500000	0.269340   
876.000000	0.120287   
876.500000	-0.009272  
877.000000	-0.075409  
877.500000	-0.081939  
878.000000	-0.068106  
878.500000	-0.064704  
879.000000	0.039856   
879.500000	0.126492   
880.000000	0.135159   
880.500000	-0.014530  
881.000000	-0.097265  
881.500000	-0.078393  
882.000000	0.032507   
882.500000	0.104939   
883.000000	0.103878   
883.500000	0.047181   
884.000000	-0.079189  
884.500000	-0.203984  
885.000000	-0.203022  
885.500000	-0.100689  
886.000000	-0.005325  
886.500000	-0.007780  
887.000000	-0.027507  
887.500000	-0.011507  
888.000000	0.004856   
888.500000	-0.101181  
889.000000	-0.151128  
889.500000	-0.115378  
890.000000	-0.034863  
890.500000	0.010553   
891.000000	0.034295   
891.500000	0.050962   
892.000000	0.004424   
892.500000	-0.061613  
893.000000	-0.077196  
893.500000	-0.024886  
894.000000	-0.049219  
894.500000	-0.081318  
895.000000	-0.073757  
895.500000	-0.059734  
896.000000	-0.032901  
896.500000	-0.065893  
897.000000	-0.059007  
897.500000	-0.063810  

