PE FL                   SPECTRUM    ASCII       PEDS        1.60        
  -1
SAABCD~1.SP
24/04/12
17:09:03.00
24/04/12
17:09:03.00
Jan

897.500000
1









LS55
405.00
5.00
5.00
SCAN
1
20
100
100
0
400
0
1
0
1
5
ON
450 405 
1 0 0
#HDR
-1
-1
#GR
NM

0.00002384185791015625
0.0
450.000000
0.500000
896
8
212.665803
-0.837999
#DATA
450.000000	-0.837999  
450.500000	-0.283000  
451.000000	0.245325   
451.500000	0.456825   
452.000000	0.303734   
452.500000	-0.085340  
453.000000	-0.250757  
453.500000	-0.183886  
454.000000	0.035803   
454.500000	0.011030   
455.000000	-0.103931  
455.500000	-0.212537  
456.000000	-0.072606  
456.500000	0.097136   
457.000000	0.123522   
457.500000	-0.091189  
458.000000	-0.357606  
458.500000	-0.388946  
459.000000	-0.160530  
459.500000	0.060810   
460.000000	0.012446   
460.500000	-0.104803  
461.000000	-0.092401  
461.500000	0.061371   
462.000000	0.192931   
462.500000	0.228886   
463.000000	0.175325   
463.500000	-0.006500  
464.000000	-0.114856  
464.500000	-0.138098  
465.000000	-0.097719  
465.500000	-0.142939  
466.000000	-0.059810  
466.500000	0.015484   
467.000000	0.103750   
467.500000	0.025583   
468.000000	0.021303   
468.500000	-0.021416  
469.000000	0.036151   
469.500000	0.037333   
470.000000	0.206189   
470.500000	0.131393   
471.000000	-0.004757  
471.500000	-0.188204  
472.000000	-0.040477  
472.500000	0.073272   
473.000000	0.024651   
473.500000	-0.156916  
474.000000	-0.102848  
474.500000	0.023772   
475.000000	0.131340   
475.500000	0.190386   
476.000000	0.255075   
476.500000	0.225219   
477.000000	0.126916   
477.500000	0.147416   
478.000000	0.347598   
478.500000	0.351946   
479.000000	0.036954   
479.500000	-0.366507  
480.000000	-0.455212  
480.500000	-0.262780  
481.000000	0.009977   
481.500000	0.093227   
482.000000	0.200166   
482.500000	0.289234   
483.000000	0.331416   
483.500000	0.182287   
484.000000	0.006560   
484.500000	0.058227   
485.000000	0.289522   
485.500000	0.432962   
486.000000	0.304287   
486.500000	0.049833   
487.000000	-0.095356  
487.500000	-0.008446  
488.000000	0.142765   
488.500000	0.255386   
489.000000	0.285977   
489.500000	0.229340   
490.000000	0.097333   
490.500000	0.083621   
491.000000	0.193833   
491.500000	0.289174   
492.000000	0.024113   
492.500000	-0.146439  
493.000000	-0.073522  
493.500000	0.207689   
494.000000	0.224522   
494.500000	0.169757   
495.000000	0.159704   
495.500000	0.322787   
496.000000	0.247598   
496.500000	0.086765   
497.000000	0.056553   
497.500000	0.299674   
498.000000	0.412378   
498.500000	0.274325   
499.000000	0.073325   
499.500000	0.120333   
500.000000	0.238719   
500.500000	0.368431   
501.000000	0.623962   
501.500000	0.921007   
502.000000	0.923833   
502.500000	0.625742   
503.000000	0.449916   
503.500000	0.570833   
504.000000	0.682704   
504.500000	0.615696   
505.000000	0.616409   
505.500000	0.859371   
506.000000	1.012060   
506.500000	0.792045   
507.000000	0.517946   
507.500000	0.529886   
508.000000	0.680962   
508.500000	0.795757   
509.000000	0.985098   
509.500000	1.231621   
510.000000	1.333022   
510.500000	1.218371   
511.000000	1.106113   
511.500000	1.130765   
512.000000	1.243901   
512.500000	1.481818   
513.000000	1.708924   
513.500000	1.806954   
514.000000	1.657295   
514.500000	1.644772   
515.000000	1.770378   
515.500000	2.039545   
516.000000	2.157833   
516.500000	2.279000   
517.000000	2.349356   
517.500000	2.519106   
518.000000	2.609696   
518.500000	2.554045   
519.000000	2.351621   
519.500000	2.285280   
520.000000	2.456765   
520.500000	2.775386   
521.000000	2.957242   
521.500000	2.950212   
522.000000	2.853303   
522.500000	2.743363   
523.000000	2.688765   
523.500000	2.687106   
524.000000	2.934651   
524.500000	3.169007   
525.000000	3.274893   
525.500000	3.220250   
526.000000	3.415651   
526.500000	3.552727   
527.000000	3.612287   
527.500000	3.673992   
528.000000	3.968590   
528.500000	4.327272   
529.000000	4.682106   
529.500000	5.099310   
530.000000	5.437477   
530.500000	5.528159   
531.000000	5.642462   
531.500000	5.969545   
532.000000	6.319575   
532.500000	6.479068   
533.000000	6.745037   
533.500000	7.095636   
534.000000	7.527969   
534.500000	7.792742   
535.000000	8.208098   
535.500000	8.579825   
536.000000	8.826666   
536.500000	8.825515   
537.000000	9.026295   
537.500000	9.451909   
538.000000	10.034522  
538.500000	10.477704  
539.000000	10.789045  
539.500000	10.925969  
540.000000	10.863803  
540.500000	11.101143  
541.000000	11.684007  
541.500000	12.317053  
542.000000	12.561287  
542.500000	12.479621  
543.000000	12.519143  
543.500000	12.539265  
544.000000	12.607227  
544.500000	12.304106  
545.000000	11.888053  
545.500000	11.564128  
546.000000	11.875795  
546.500000	12.426681  
547.000000	12.521696  
547.500000	12.146189  
548.000000	11.755424  
548.500000	11.813696  
549.000000	11.900386  
549.500000	11.841757  
550.000000	11.660772  
550.500000	11.559553  
551.000000	11.642659  
551.500000	11.576219  
552.000000	11.286606  
552.500000	11.280386  
553.000000	11.794234  
553.500000	12.541674  
554.000000	12.795386  
554.500000	12.907318  
555.000000	12.883568  
555.500000	12.995431  
556.000000	12.826651  
556.500000	13.308310  
557.000000	14.051090  
557.500000	14.661984  
558.000000	14.329159  
558.500000	14.198583  
559.000000	14.399257  
559.500000	14.996462  
560.000000	15.490219  
560.500000	15.953121  
561.000000	16.368810  
561.500000	16.560621  
562.000000	16.741636  
562.500000	17.121045  
563.000000	17.716174  
563.500000	18.382189  
564.000000	18.731068  
564.500000	19.123719  
565.000000	19.636598  
565.500000	20.600000  
566.000000	20.972977  
566.500000	20.965780  
567.000000	20.928681  
567.500000	21.528840  
568.000000	22.303962  
568.500000	23.205121  
569.000000	24.062371  
569.500000	24.582992  
570.000000	24.514575  
570.500000	24.377507  
571.000000	24.657492  
571.500000	25.389780  
572.000000	25.989098  
572.500000	26.384333  
573.000000	26.938242  
573.500000	27.386681  
574.000000	27.657878  
574.500000	27.900696  
575.000000	28.547409  
575.500000	29.226181  
576.000000	29.986121  
576.500000	30.261848  
577.000000	30.686477  
577.500000	30.825946  
578.000000	31.319507  
578.500000	31.917893  
579.000000	32.756545  
579.500000	33.162719  
580.000000	33.672719  
580.500000	34.336068  
581.000000	35.132280  
581.500000	36.021598  
582.000000	36.394863  
582.500000	36.511045  
583.000000	36.564772  
583.500000	37.407303  
584.000000	38.905159  
584.500000	40.587090  
585.000000	41.547598  
585.500000	41.891893  
586.000000	42.171871  
586.500000	42.939204  
587.000000	44.348053  
587.500000	45.748560  
588.000000	46.448287  
588.500000	46.684022  
589.000000	47.117272  
589.500000	48.224515  
590.000000	49.779303  
590.500000	50.906681  
591.000000	51.450386  
591.500000	51.702901  
592.000000	52.351462  
592.500000	53.045499  
593.000000	53.716545  
593.500000	54.770643  
594.000000	56.478416  
594.500000	57.900249  
595.000000	58.498431  
595.500000	59.056227  
596.000000	60.265409  
596.500000	61.340484  
597.000000	62.303196  
597.500000	63.630340  
598.000000	65.746499  
598.500000	66.842507  
599.000000	67.105575  
599.500000	67.076863  
600.000000	67.927250  
600.500000	69.399053  
601.000000	71.332204  
601.500000	73.051030  
602.000000	74.475174  
602.500000	75.499098  
603.000000	76.870954  
603.500000	78.112727  
604.000000	79.223409  
604.500000	79.821886  
605.000000	81.591151  
605.500000	83.690363  
606.000000	85.816499  
606.500000	86.921840  
607.000000	87.904992  
607.500000	88.773962  
608.000000	90.624272  
608.500000	92.983151  
609.000000	95.631348  
609.500000	97.175242  
610.000000	98.030318  
610.500000	98.414477  
611.000000	100.013037 
611.500000	102.632121 
612.000000	105.675159 
612.500000	108.100015 
613.000000	109.474136 
613.500000	111.193621 
614.000000	112.834363 
614.500000	115.150886 
615.000000	116.561015 
615.500000	118.392196 
616.000000	119.162825 
616.500000	120.724098 
617.000000	122.764424 
617.500000	125.839780 
618.000000	128.171931 
618.500000	129.600568 
619.000000	130.385015 
619.500000	132.414484 
620.000000	135.325871 
620.500000	137.329159 
621.000000	137.965924 
621.500000	139.465962 
622.000000	143.160962 
622.500000	146.830234 
623.000000	148.670727 
623.500000	149.362333 
624.000000	151.148984 
624.500000	153.619522 
625.000000	156.369310 
625.500000	158.859575 
626.000000	161.028068 
626.500000	163.417621 
627.000000	165.640507 
627.500000	167.799196 
628.000000	168.957787 
628.500000	170.570651 
629.000000	172.827219 
629.500000	175.636303 
630.000000	177.446136 
630.500000	178.608431 
631.000000	179.506227 
631.500000	180.790780 
632.000000	183.360431 
632.500000	185.837022 
633.000000	188.316954 
633.500000	190.140272 
634.000000	192.304227 
634.500000	193.656181 
635.000000	195.031393 
635.500000	196.279348 
636.000000	198.392893 
636.500000	198.941015 
637.000000	199.785257 
637.500000	200.401257 
638.000000	201.603295 
638.500000	201.469833 
639.000000	202.279704 
639.500000	202.570469 
640.000000	203.610613 
640.500000	204.945621 
641.000000	207.017151 
641.500000	208.891310 
642.000000	209.009477 
642.500000	209.134500 
643.000000	209.004151 
643.500000	210.168462 
644.000000	210.346590 
644.500000	211.979106 
645.000000	212.433378 
645.500000	212.665803 
646.000000	210.874439 
646.500000	210.019068 
647.000000	209.476393 
647.500000	209.114606 
648.000000	207.952893 
648.500000	207.269992 
649.000000	207.925553 
649.500000	207.848515 
650.000000	206.684409 
650.500000	204.244818 
651.000000	202.677257 
651.500000	201.634159 
652.000000	201.249098 
652.500000	201.198219 
653.000000	200.905924 
653.500000	200.205765 
654.000000	197.329636 
654.500000	194.951818 
655.000000	192.749666 
655.500000	191.083575 
656.000000	187.847272 
656.500000	185.560765 
657.000000	183.875000 
657.500000	182.038409 
658.000000	178.703318 
658.500000	175.770590 
659.000000	173.892250 
659.500000	171.808280 
660.000000	169.057522 
660.500000	166.229356 
661.000000	163.457113 
661.500000	161.057575 
662.000000	158.714166 
662.500000	156.323022 
663.000000	153.388113 
663.500000	149.962916 
664.000000	145.944121 
664.500000	141.918575 
665.000000	138.113590 
665.500000	134.627666 
666.000000	130.464780 
666.500000	127.236136 
667.000000	125.406257 
667.500000	124.494409 
668.000000	121.562348 
668.500000	117.938174 
669.000000	114.278378 
669.500000	111.961166 
670.000000	108.812848 
670.500000	105.588181 
671.000000	101.993401 
671.500000	99.341560  
672.000000	96.561083  
672.500000	93.908734  
673.000000	90.472409  
673.500000	87.494901  
674.000000	85.092689  
674.500000	83.636954  
675.000000	82.251060  
675.500000	80.250666  
676.000000	77.543810  
676.500000	74.902424  
677.000000	72.789303  
677.500000	70.613969  
678.000000	68.032893  
678.500000	65.231825  
679.000000	62.998628  
679.500000	61.521507  
680.000000	60.268151  
680.500000	58.997333  
681.000000	57.060530  
681.500000	55.036530  
682.000000	53.053257  
682.500000	51.398477  
683.000000	49.584189  
683.500000	47.863810  
684.000000	46.103818  
684.500000	44.642022  
685.000000	43.320083  
685.500000	42.061318  
686.000000	40.966310  
686.500000	39.569242  
687.000000	37.920196  
687.500000	36.196439  
688.000000	35.400295  
688.500000	34.964113  
689.000000	34.707000  
689.500000	33.541151  
690.000000	32.531863  
690.500000	31.425984  
691.000000	30.522340  
691.500000	29.453969  
692.000000	28.484083  
692.500000	27.832772  
693.000000	27.067106  
693.500000	26.157992  
694.000000	24.878856  
694.500000	24.297143  
695.000000	24.018333  
695.500000	23.810030  
696.000000	23.056757  
696.500000	22.320765  
697.000000	21.732325  
697.500000	21.297250  
698.000000	20.637363  
698.500000	20.027590  
699.000000	19.345765  
699.500000	18.818954  
700.000000	18.503977  
700.500000	18.308946  
701.000000	17.948166  
701.500000	17.244068  
702.000000	16.507075  
702.500000	15.817522  
703.000000	15.289030  
703.500000	14.815371  
704.000000	14.294174  
704.500000	14.161916  
705.000000	14.058886  
705.500000	14.020962  
706.000000	13.575037  
706.500000	13.283742  
707.000000	12.997416  
707.500000	12.893106  
708.000000	12.691530  
708.500000	12.459984  
709.000000	12.181121  
709.500000	11.753719  
710.000000	11.527454  
710.500000	11.415227  
711.000000	11.333848  
711.500000	11.271871  
712.000000	11.342477  
712.500000	11.257674  
713.000000	10.982901  
713.500000	10.456363  
714.000000	10.022674  
714.500000	9.679712   
715.000000	9.571696   
715.500000	9.463962   
716.000000	9.302575   
716.500000	9.091136   
717.000000	8.749628   
717.500000	8.515916   
718.000000	8.267446   
718.500000	8.385901   
719.000000	8.061568   
719.500000	7.525954   
720.000000	6.964765   
720.500000	7.256803   
721.000000	7.700568   
721.500000	7.921840   
722.000000	7.658598   
722.500000	7.423227   
723.000000	7.309598   
723.500000	7.247803   
724.000000	7.225295   
724.500000	7.135825   
725.000000	6.898287   
725.500000	6.607083   
726.000000	6.522636   
726.500000	6.690734   
727.000000	6.766954   
727.500000	6.656939   
728.000000	6.442151   
728.500000	6.408719   
729.000000	6.252212   
729.500000	6.006212   
730.000000	5.698530   
730.500000	5.457901   
731.000000	5.266393   
731.500000	5.309545   
732.000000	5.664863   
732.500000	5.968840   
733.000000	5.845765   
733.500000	5.351280   
734.000000	5.033833   
734.500000	4.926643   
735.000000	4.962643   
735.500000	4.728196   
736.000000	4.537234   
736.500000	4.463886   
737.000000	4.832984   
737.500000	5.266212   
738.000000	5.679492   
738.500000	5.678106   
739.000000	5.474022   
739.500000	5.218030   
740.000000	4.964545   
740.500000	4.808659   
741.000000	4.634378   
741.500000	4.632636   
742.000000	4.672393   
742.500000	4.908310   
743.000000	4.932621   
743.500000	4.809181   
744.000000	4.520424   
744.500000	4.569143   
745.000000	4.673121   
745.500000	4.518590   
746.000000	4.154401   
746.500000	4.066833   
747.000000	4.200818   
747.500000	4.462416   
748.000000	4.555333   
748.500000	4.679136   
749.000000	4.529946   
749.500000	4.335750   
750.000000	3.914681   
750.500000	3.838886   
751.000000	3.749242   
751.500000	3.756674   
752.000000	3.623204   
752.500000	3.516371   
753.000000	3.454128   
753.500000	3.462386   
754.000000	3.628757   
754.500000	3.816113   
755.000000	3.898590   
755.500000	3.680090   
756.000000	3.386689   
756.500000	3.326568   
757.000000	3.555083   
757.500000	3.841234   
758.000000	3.863303   
758.500000	3.795128   
759.000000	3.777371   
759.500000	3.741696   
760.000000	3.504174   
760.500000	3.217159   
761.000000	3.137030   
761.500000	3.180492   
762.000000	3.214878   
762.500000	3.151575   
763.000000	3.081469   
763.500000	3.044106   
764.000000	3.091545   
764.500000	3.193280   
765.000000	3.326537   
765.500000	3.550954   
766.000000	3.835015   
766.500000	3.989636   
767.000000	3.818333   
767.500000	3.434833   
768.000000	3.132303   
768.500000	3.034810   
769.000000	3.106977   
769.500000	3.109621   
770.000000	3.108151   
770.500000	3.109833   
771.000000	3.115878   
771.500000	3.074386   
772.000000	3.038795   
772.500000	3.075916   
773.000000	3.113507   
773.500000	3.143553   
774.000000	3.129833   
774.500000	3.122962   
775.000000	3.004015   
775.500000	2.791674   
776.000000	2.655454   
776.500000	2.636484   
777.000000	2.745507   
777.500000	2.874106   
778.000000	3.039181   
778.500000	3.107992   
779.000000	3.100227   
779.500000	3.016863   
780.000000	2.873537   
780.500000	2.645507   
781.000000	2.486674   
781.500000	2.567166   
782.000000	2.808893   
782.500000	2.948780   
783.000000	2.976212   
783.500000	2.887250   
784.000000	2.783772   
784.500000	2.754840   
785.000000	2.840007   
785.500000	2.826560   
786.000000	2.760219   
786.500000	2.608886   
787.000000	2.356295   
787.500000	2.130363   
788.000000	2.207757   
788.500000	2.585507   
789.000000	2.859484   
789.500000	2.769075   
790.000000	2.658689   
790.500000	2.673704   
791.000000	2.735727   
791.500000	2.604424   
792.000000	2.458272   
792.500000	2.236242   
793.000000	2.135045   
793.500000	2.112060   
794.000000	2.365507   
794.500000	2.483401   
795.000000	2.364060   
795.500000	1.977878   
796.000000	1.840931   
796.500000	2.001356   
797.000000	2.314992   
797.500000	2.403106   
798.000000	2.283060   
798.500000	2.074424   
799.000000	2.028204   
799.500000	2.152325   
800.000000	2.220621   
800.500000	2.115393   
801.000000	1.999143   
801.500000	1.969181   
802.000000	1.962537   
802.500000	1.739219   
803.000000	1.542393   
803.500000	1.608840   
804.000000	1.925825   
804.500000	1.955893   
805.000000	1.721545   
805.500000	1.445787   
806.000000	1.444674   
806.500000	1.480530   
807.000000	1.560189   
807.500000	1.563439   
808.000000	1.625780   
808.500000	1.716439   
809.000000	1.788439   
809.500000	1.731386   
810.000000	1.601515   
810.500000	1.537719   
811.000000	1.532431   
811.500000	1.456257   
812.000000	1.270757   
812.500000	1.081977   
813.000000	0.963696   
813.500000	0.962727   
814.000000	1.135962   
814.500000	1.320106   
815.000000	1.442136   
815.500000	1.513803   
816.000000	1.606257   
816.500000	1.742659   
817.000000	1.841916   
817.500000	1.861151   
818.000000	1.679712   
818.500000	1.360583   
819.000000	1.273303   
819.500000	1.420310   
820.000000	1.539325   
820.500000	1.462590   
821.000000	1.492780   
821.500000	1.740651   
822.000000	2.047416   
822.500000	2.114439   
823.000000	2.207863   
823.500000	2.314037   
824.000000	2.315659   
824.500000	2.098568   
825.000000	1.913303   
825.500000	1.824681   
826.000000	1.918840   
826.500000	2.082863   
827.000000	2.055643   
827.500000	1.842015   
828.000000	1.516803   
828.500000	1.533628   
829.000000	1.603840   
829.500000	1.545136   
830.000000	1.293606   
830.500000	1.271590   
831.000000	1.353492   
831.500000	1.341750   
832.000000	1.281833   
832.500000	1.167909   
833.000000	1.091704   
833.500000	0.941348   
834.000000	0.980962   
834.500000	1.088992   
835.000000	1.154174   
835.500000	1.012143   
836.000000	0.937333   
836.500000	0.859212   
837.000000	0.845530   
837.500000	0.839348   
838.000000	0.951674   
838.500000	0.931909   
839.000000	0.880386   
839.500000	0.796704   
840.000000	0.901363   
840.500000	0.934772   
841.000000	0.905356   
841.500000	0.813863   
842.000000	0.784954   
842.500000	0.800537   
843.000000	0.808227   
843.500000	0.743416   
844.000000	0.455295   
844.500000	0.150166   
845.000000	0.042075   
845.500000	0.231840   
846.000000	0.312113   
846.500000	0.218924   
847.000000	0.046356   
847.500000	0.027590   
848.000000	0.054219   
848.500000	0.047060   
849.000000	-0.052924  
849.500000	-0.093962  
850.000000	-0.076734  
850.500000	0.006628   
851.000000	0.018643   
851.500000	-0.006287  
852.000000	-0.037545  
852.500000	0.069916   
853.000000	0.136106   
853.500000	0.163446   
854.000000	0.105810   
854.500000	0.109045   
855.000000	0.132174   
855.500000	0.195060   
856.000000	0.196856   
856.500000	0.220750   
857.000000	0.169113   
857.500000	0.144401   
858.000000	0.113121   
858.500000	0.107787   
859.000000	0.051121   
859.500000	0.059621   
860.000000	0.081151   
860.500000	0.113780   
861.000000	0.062431   
861.500000	0.004757   
862.000000	-0.009318  
862.500000	-0.055590  
863.000000	-0.110522  
863.500000	-0.150939  
864.000000	-0.101113  
864.500000	-0.055030  
865.000000	0.013575   
865.500000	-0.025962  
866.000000	-0.091250  
866.500000	-0.166234  
867.000000	-0.157962  
867.500000	-0.136166  
868.000000	-0.127636  
868.500000	-0.093227  
869.000000	-0.052469  
869.500000	-0.049159  
870.000000	-0.071265  
870.500000	-0.027060  
871.000000	0.038174   
871.500000	0.051583   
872.000000	-0.023265  
872.500000	-0.100318  
873.000000	-0.108696  
873.500000	-0.057121  
874.000000	0.021628   
874.500000	0.046121   
875.000000	0.014689   
875.500000	-0.085227  
876.000000	-0.136825  
876.500000	-0.171446  
877.000000	-0.117098  
877.500000	-0.109318  
878.000000	-0.057310  
878.500000	-0.119250  
879.000000	-0.123575  
879.500000	-0.106272  
880.000000	0.027212   
880.500000	0.178742   
881.000000	0.261318   
881.500000	0.231166   
882.000000	0.075234   
882.500000	-0.045227  
883.000000	-0.106962  
883.500000	-0.016371  
884.000000	0.021113   
884.500000	0.020340   
885.000000	-0.022151  
885.500000	-0.079727  
886.000000	-0.119295  
886.500000	-0.175666  
887.000000	-0.115030  
887.500000	-0.022242  
888.000000	0.072727   
888.500000	0.153083   
889.000000	0.142878   
889.500000	0.014060   
890.000000	-0.207825  
890.500000	-0.236446  
891.000000	-0.122007  
891.500000	0.035575   
892.000000	0.037613   
892.500000	0.047886   
893.000000	0.029196   
893.500000	-0.031757  
894.000000	-0.071227  
894.500000	-0.042969  
895.000000	0.023098   
895.500000	-0.004219  
896.000000	-0.032446  
896.500000	-0.024681  
897.000000	0.093704   
897.500000	-0.005772  

