PE FL                   SPECTRUM    ASCII       PEDS        1.60        
  -1
SA9B81~1.SP
24/04/12
16:14:51.00
24/04/12
16:14:51.00
Jan

897.500000
1









LS55
405.00
5.00
5.00
SCAN
1
20
100
100
0
400
0
1
0
1
5
ON
450 405 
1 0 0
#HDR
-1
-1
#GR
NM

0.00002384185791015625
0.0
450.000000
0.500000
896
8
335.136871
-0.377007
#DATA
450.000000	0.134000   
450.500000	0.193545   
451.000000	0.130969   
451.500000	0.031575   
452.000000	0.110939   
452.500000	0.251499   
453.000000	0.293242   
453.500000	0.137772   
454.000000	-0.001113  
454.500000	-0.231159  
455.000000	-0.377007  
455.500000	-0.326946  
456.000000	0.006795   
456.500000	0.270916   
457.000000	0.276651   
457.500000	0.222795   
458.000000	0.208659   
458.500000	0.244939   
459.000000	0.131098   
459.500000	0.063446   
460.000000	-0.009204  
460.500000	-0.078401  
461.000000	-0.163000  
461.500000	-0.178674  
462.000000	-0.076537  
462.500000	0.123416   
463.000000	0.341803   
463.500000	0.422083   
464.000000	0.276833   
464.500000	-0.030719  
465.000000	-0.159590  
465.500000	0.045674   
466.000000	0.226931   
466.500000	0.330810   
467.000000	0.283818   
467.500000	0.392159   
468.000000	0.518886   
468.500000	0.615962   
469.000000	0.467712   
469.500000	0.264181   
470.000000	0.130856   
470.500000	0.172651   
471.000000	0.266401   
471.500000	0.230666   
472.000000	0.266174   
472.500000	0.209340   
473.000000	0.087007   
473.500000	-0.088757  
474.000000	0.012507   
474.500000	0.073598   
475.000000	0.110416   
475.500000	0.065446   
476.000000	0.223227   
476.500000	0.344765   
477.000000	0.396712   
477.500000	0.286416   
478.000000	0.186772   
478.500000	0.160833   
479.000000	0.215030   
479.500000	0.320409   
480.000000	0.357628   
480.500000	0.312871   
481.000000	0.262424   
481.500000	0.165060   
482.000000	0.117924   
482.500000	0.069712   
483.000000	0.096803   
483.500000	0.042166   
484.000000	0.089628   
484.500000	0.077787   
485.000000	0.095409   
485.500000	0.058446   
486.000000	0.021946   
486.500000	-0.081212  
487.000000	-0.096257  
487.500000	-0.020977  
488.000000	0.268522   
488.500000	0.420409   
489.000000	0.343356   
489.500000	0.102840   
490.000000	0.047856   
490.500000	0.032765   
491.000000	-0.057280  
491.500000	-0.135166  
492.000000	0.046537   
492.500000	0.249674   
493.000000	0.225840   
493.500000	0.074962   
494.000000	0.011757   
494.500000	-0.089113  
495.000000	-0.179000  
495.500000	-0.153015  
496.000000	0.060878   
496.500000	0.371386   
497.000000	0.553878   
497.500000	0.632500   
498.000000	0.526356   
498.500000	0.423954   
499.000000	0.324424   
499.500000	0.309886   
500.000000	0.337083   
500.500000	0.479143   
501.000000	0.683825   
501.500000	0.746901   
502.000000	0.673196   
502.500000	0.455212   
503.000000	0.368484   
503.500000	0.448477   
504.000000	0.649136   
504.500000	0.782212   
505.000000	0.822234   
505.500000	0.735454   
506.000000	0.588719   
506.500000	0.565121   
507.000000	0.755401   
507.500000	1.011734   
508.000000	1.107795   
508.500000	0.963712   
509.000000	0.829424   
509.500000	0.848022   
510.000000	0.911022   
510.500000	0.951249   
511.000000	0.998886   
511.500000	1.132318   
512.000000	1.185787   
512.500000	1.183931   
513.000000	1.195015   
513.500000	1.315704   
514.000000	1.335181   
514.500000	1.225083   
515.000000	1.130045   
515.500000	1.283674   
516.000000	1.676250   
516.500000	1.827030   
517.000000	1.647469   
517.500000	1.426643   
518.000000	1.590901   
518.500000	1.951303   
519.000000	2.238189   
519.500000	2.333909   
520.000000	2.415833   
520.500000	2.398386   
521.000000	2.302212   
521.500000	2.207204   
522.000000	2.166886   
522.500000	2.361545   
523.000000	2.678795   
523.500000	2.917113   
524.000000	2.873090   
524.500000	2.790553   
525.000000	2.800606   
525.500000	2.940446   
526.000000	3.006946   
526.500000	3.110893   
527.000000	3.143083   
527.500000	3.261242   
528.000000	3.341128   
528.500000	3.624075   
529.000000	3.805106   
529.500000	4.111500   
530.000000	4.255219   
530.500000	4.506371   
531.000000	4.832681   
531.500000	5.190787   
532.000000	5.618068   
532.500000	5.546651   
533.000000	5.407893   
533.500000	5.245333   
534.000000	5.605659   
534.500000	5.884280   
535.000000	6.183856   
535.500000	6.312007   
536.000000	6.737939   
536.500000	7.315515   
537.000000	7.765772   
537.500000	8.276424   
538.000000	8.765734   
538.500000	8.958992   
539.000000	8.880537   
539.500000	8.886000   
540.000000	9.329166   
540.500000	10.015174  
541.000000	10.632477  
541.500000	10.998500  
542.000000	11.136083  
542.500000	11.218272  
543.000000	11.533310  
543.500000	11.969962  
544.000000	12.092628  
544.500000	11.961219  
545.000000	11.941886  
545.500000	11.961356  
546.000000	11.923590  
546.500000	11.693666  
547.000000	11.576840  
547.500000	11.400143  
548.000000	11.513939  
548.500000	11.944787  
549.000000	12.404348  
549.500000	12.293651  
550.000000	11.798166  
550.500000	11.804045  
551.000000	12.357128  
551.500000	12.944234  
552.000000	12.910287  
552.500000	12.508500  
553.000000	12.001689  
553.500000	11.795643  
554.000000	11.998189  
554.500000	12.434727  
555.000000	12.832106  
555.500000	13.034719  
556.000000	13.238257  
556.500000	13.470219  
557.000000	13.556007  
557.500000	13.593856  
558.000000	13.762242  
558.500000	14.032128  
559.000000	14.244681  
559.500000	14.394924  
560.000000	14.759340  
560.500000	15.131356  
561.000000	15.438424  
561.500000	15.663924  
562.000000	16.133712  
562.500000	16.836818  
563.000000	17.661727  
563.500000	18.477212  
564.000000	19.298060  
564.500000	19.565962  
565.000000	19.405378  
565.500000	19.063924  
566.000000	19.412916  
566.500000	19.796287  
567.000000	20.377795  
567.500000	20.752590  
568.000000	22.018818  
568.500000	23.292393  
569.000000	24.189909  
569.500000	24.035303  
570.000000	23.629871  
570.500000	23.714333  
571.000000	24.655583  
571.500000	25.860431  
572.000000	26.693333  
572.500000	26.924833  
573.000000	26.923772  
573.500000	27.236689  
574.000000	28.121159  
574.500000	29.074651  
575.000000	30.087340  
575.500000	30.356469  
576.000000	30.372643  
576.500000	30.317757  
577.000000	30.701378  
577.500000	31.256795  
578.000000	31.959590  
578.500000	32.995053  
579.000000	34.147159  
579.500000	34.667931  
580.000000	34.511272  
580.500000	34.619507  
581.000000	35.175674  
581.500000	35.903560  
582.000000	36.649272  
582.500000	37.439492  
583.000000	38.036007  
583.500000	38.347825  
584.000000	39.330340  
584.500000	40.606636  
585.000000	41.533871  
585.500000	41.990878  
586.000000	42.536090  
586.500000	43.761219  
587.000000	45.193984  
587.500000	46.391681  
588.000000	47.110060  
588.500000	48.572060  
589.000000	49.999757  
589.500000	51.231462  
590.000000	51.919189  
590.500000	52.445810  
591.000000	53.332227  
591.500000	54.403575  
592.000000	55.674674  
592.500000	56.686833  
593.000000	57.577954  
593.500000	58.380174  
594.000000	60.033931  
594.500000	61.432757  
595.000000	62.104651  
595.500000	62.877916  
596.000000	64.295151  
596.500000	65.880484  
597.000000	67.257416  
597.500000	68.237931  
598.000000	69.736325  
598.500000	71.563499  
599.000000	73.406234  
599.500000	74.531901  
600.000000	75.109113  
600.500000	75.825151  
601.000000	77.114136  
601.500000	78.581636  
602.000000	79.892522  
602.500000	82.138901  
603.000000	85.117393  
603.500000	88.324204  
604.000000	90.076810  
604.500000	91.400545  
605.000000	92.621386  
605.500000	93.841333  
606.000000	94.886666  
606.500000	95.841878  
607.000000	98.202795  
607.500000	101.113507 
608.000000	104.330159 
608.500000	105.628287 
609.000000	107.131962 
609.500000	108.477598 
610.000000	111.929136 
610.500000	114.983643 
611.000000	117.301068 
611.500000	118.223560 
612.000000	120.229863 
612.500000	122.726037 
613.000000	125.518204 
613.500000	127.571545 
614.000000	129.129704 
614.500000	130.696795 
615.000000	132.465015 
615.500000	135.670143 
616.000000	139.855363 
616.500000	143.904333 
617.000000	146.701818 
617.500000	149.913530 
618.000000	152.930522 
618.500000	155.455030 
619.000000	156.709272 
619.500000	158.462568 
620.000000	161.577257 
620.500000	165.206795 
621.000000	168.166856 
621.500000	170.579613 
622.000000	173.630446 
622.500000	177.471840 
623.000000	181.611553 
623.500000	185.783628 
624.000000	189.405871 
624.500000	191.485856 
625.000000	192.732659 
625.500000	195.340272 
626.000000	200.167848 
626.500000	205.024060 
627.000000	209.330015 
627.500000	213.962962 
628.000000	219.120560 
628.500000	222.718462 
629.000000	224.070946 
629.500000	225.181893 
630.000000	226.796659 
630.500000	229.705401 
631.000000	232.801030 
631.500000	237.678795 
632.000000	242.997007 
632.500000	247.858242 
633.000000	250.660643 
633.500000	252.396803 
634.000000	254.838295 
634.500000	260.112924 
635.000000	266.001901 
635.500000	270.786537 
636.000000	272.605931 
636.500000	275.040484 
637.000000	278.514590 
637.500000	282.994946 
638.000000	284.754424 
638.500000	286.218462 
639.000000	288.239234 
639.500000	290.816628 
640.000000	294.187659 
640.500000	297.641810 
641.000000	301.412280 
641.500000	303.206318 
642.000000	304.596727 
642.500000	306.317371 
643.000000	309.198204 
643.500000	311.727477 
644.000000	313.050696 
644.500000	314.422825 
645.000000	314.701901 
645.500000	316.183977 
646.000000	317.758227 
646.500000	321.122068 
647.000000	324.055689 
647.500000	326.450477 
648.000000	327.501916 
648.500000	328.879257 
649.000000	329.699174 
649.500000	329.376196 
650.000000	328.918992 
650.500000	329.372856 
651.000000	330.323113 
651.500000	331.020371 
652.000000	332.129939 
652.500000	333.960272 
653.000000	335.136871 
653.500000	334.199462 
654.000000	332.044575 
654.500000	331.010893 
655.000000	331.144477 
655.500000	329.750083 
656.000000	326.304909 
656.500000	323.117666 
657.000000	322.180651 
657.500000	322.767393 
658.000000	322.788901 
658.500000	321.364159 
659.000000	319.166575 
659.500000	316.514780 
660.000000	313.614515 
660.500000	310.226053 
661.000000	306.851924 
661.500000	305.046977 
662.000000	304.762840 
662.500000	304.298075 
663.000000	301.473863 
663.500000	297.999007 
664.000000	294.710378 
664.500000	291.448765 
665.000000	286.453310 
665.500000	280.454553 
666.000000	275.412507 
666.500000	271.963878 
667.000000	269.074560 
667.500000	265.558962 
668.000000	262.949015 
668.500000	259.398287 
669.000000	254.828803 
669.500000	248.735863 
670.000000	242.763454 
670.500000	236.769856 
671.000000	230.764234 
671.500000	225.262893 
672.000000	220.865242 
672.500000	218.095469 
673.000000	214.474143 
673.500000	209.746734 
674.000000	203.219613 
674.500000	197.933121 
675.000000	193.717196 
675.500000	190.171416 
676.000000	185.025136 
676.500000	179.361848 
677.000000	174.396340 
677.500000	169.799878 
678.000000	165.071007 
678.500000	160.400257 
679.000000	156.651871 
679.500000	152.789992 
680.000000	148.069075 
680.500000	142.796590 
681.000000	138.574727 
681.500000	135.282492 
682.000000	132.182000 
682.500000	129.447954 
683.000000	126.903378 
683.500000	123.480287 
684.000000	118.738007 
684.500000	113.447098 
685.000000	108.965992 
685.500000	104.969886 
686.000000	102.123931 
686.500000	100.288545 
687.000000	99.376113  
687.500000	96.842196  
688.000000	93.114704  
688.500000	88.839030  
689.000000	85.902446  
689.500000	83.823954  
690.000000	82.659590  
690.500000	81.534583  
691.000000	79.519204  
691.500000	76.163477  
692.000000	72.243969  
692.500000	69.297143  
693.000000	67.007000  
693.500000	64.863166  
694.000000	62.266454  
694.500000	60.465545  
695.000000	58.941378  
695.500000	57.541333  
696.000000	55.440340  
696.500000	53.354484  
697.000000	51.415409  
697.500000	50.040234  
698.000000	49.257492  
698.500000	48.341477  
699.000000	46.957151  
699.500000	45.195121  
700.000000	43.671530  
700.500000	42.581575  
701.000000	41.768742  
701.500000	40.858575  
702.000000	39.449893  
702.500000	37.847257  
703.000000	36.263477  
703.500000	35.236575  
704.000000	34.772628  
704.500000	34.646545  
705.000000	34.459537  
705.500000	33.289492  
706.000000	31.592356  
706.500000	29.883356  
707.000000	28.855363  
707.500000	28.320666  
708.000000	27.850583  
708.500000	27.167689  
709.000000	26.304401  
709.500000	25.555757  
710.000000	24.894053  
710.500000	24.481553  
711.000000	24.201946  
711.500000	23.920636  
712.000000	23.353295  
712.500000	22.331151  
713.000000	21.474204  
713.500000	21.157106  
714.000000	21.297053  
714.500000	21.079757  
715.000000	20.674318  
715.500000	20.100977  
716.000000	19.611946  
716.500000	18.948689  
717.000000	18.454500  
717.500000	18.060000  
718.000000	17.772204  
718.500000	17.196106  
719.000000	16.525969  
719.500000	15.827484  
720.000000	15.783878  
720.500000	16.113310  
721.000000	16.368803  
721.500000	15.874303  
722.000000	15.244924  
722.500000	14.500113  
723.000000	13.902939  
723.500000	13.306393  
724.000000	12.827265  
724.500000	12.817803  
725.000000	13.018734  
725.500000	13.126484  
726.000000	12.549931  
726.500000	12.090916  
727.000000	11.761992  
727.500000	11.762568  
728.000000	11.379984  
728.500000	11.093734  
729.000000	10.889560  
729.500000	10.775553  
730.000000	10.474356  
730.500000	10.188265  
731.000000	10.125795  
731.500000	9.911113   
732.000000	9.715659   
732.500000	9.508234   
733.000000	9.584166   
733.500000	9.558030   
734.000000	9.217348   
734.500000	8.906484   
735.000000	8.781363   
735.500000	8.768583   
736.000000	8.515659   
736.500000	8.377121   
737.000000	8.086704   
737.500000	7.879333   
738.000000	7.690083   
738.500000	7.865053   
739.000000	8.209689   
739.500000	8.280348   
740.000000	8.050068   
740.500000	7.705431   
741.000000	7.534666   
741.500000	7.417984   
742.000000	7.135090   
742.500000	6.797818   
743.000000	6.679530   
743.500000	6.625795   
744.000000	6.314825   
744.500000	6.064742   
745.000000	6.268015   
745.500000	6.909037   
746.000000	6.981128   
746.500000	6.593863   
747.000000	6.022409   
747.500000	5.915659   
748.000000	5.861250   
748.500000	6.061098   
749.000000	6.167613   
749.500000	6.364242   
750.000000	6.104689   
750.500000	5.716045   
751.000000	5.267643   
751.500000	5.210295   
752.000000	5.176734   
752.500000	5.263901   
753.000000	5.226401   
753.500000	5.264098   
754.000000	5.265454   
754.500000	5.037030   
755.000000	4.727962   
755.500000	4.673068   
756.000000	4.918893   
756.500000	5.048613   
757.000000	4.980098   
757.500000	4.803272   
758.000000	4.831772   
758.500000	4.835431   
759.000000	4.870530   
759.500000	5.013068   
760.000000	5.079454   
760.500000	4.915999   
761.000000	4.700765   
761.500000	4.546901   
762.000000	4.469643   
762.500000	4.372075   
763.000000	4.367674   
763.500000	4.321333   
764.000000	4.232863   
764.500000	4.171015   
765.000000	4.158636   
765.500000	4.264318   
766.000000	4.419772   
766.500000	4.428568   
767.000000	4.117522   
767.500000	3.797439   
768.000000	3.668787   
768.500000	3.664431   
769.000000	3.557295   
769.500000	3.465136   
770.000000	3.475189   
770.500000	3.451765   
771.000000	3.340840   
771.500000	3.299318   
772.000000	3.412409   
772.500000	3.554416   
773.000000	3.528560   
773.500000	3.319681   
774.000000	3.104000   
774.500000	3.049310   
775.000000	3.174234   
775.500000	3.325765   
776.000000	3.416628   
776.500000	3.396431   
777.000000	3.280878   
777.500000	3.167871   
778.000000	3.038287   
778.500000	3.034045   
779.000000	3.122280   
779.500000	3.240189   
780.000000	3.155560   
780.500000	3.050939   
781.000000	2.910424   
781.500000	2.854287   
782.000000	2.886439   
782.500000	3.069666   
783.000000	3.229598   
783.500000	3.223606   
784.000000	3.087530   
784.500000	3.015242   
785.000000	3.070757   
785.500000	3.183962   
786.000000	3.211931   
786.500000	3.055734   
787.000000	2.787666   
787.500000	2.640272   
788.000000	2.616204   
788.500000	2.583522   
789.000000	2.519492   
789.500000	2.584303   
790.000000	2.763636   
790.500000	2.883083   
791.000000	2.847848   
791.500000	2.802371   
792.000000	2.746075   
792.500000	2.722007   
793.000000	2.689863   
793.500000	2.743318   
794.000000	2.781045   
794.500000	2.776007   
795.000000	2.700196   
795.500000	2.485863   
796.000000	2.186075   
796.500000	2.054984   
797.000000	2.259507   
797.500000	2.550280   
798.000000	2.604386   
798.500000	2.482166   
799.000000	2.219568   
799.500000	2.006507   
800.000000	1.911719   
800.500000	2.004053   
801.000000	2.088287   
801.500000	2.103606   
802.000000	2.139250   
802.500000	2.267742   
803.000000	2.378477   
803.500000	2.230825   
804.000000	1.983090   
804.500000	1.832750   
805.000000	1.913553   
805.500000	2.013757   
806.000000	1.998575   
806.500000	1.962772   
807.000000	2.048333   
807.500000	2.078272   
808.000000	1.953787   
808.500000	1.738030   
809.000000	1.673212   
809.500000	1.741022   
810.000000	1.797265   
810.500000	1.758000   
811.000000	1.772750   
811.500000	1.956856   
812.000000	2.139356   
812.500000	2.087378   
813.000000	1.785469   
813.500000	1.673477   
814.000000	1.773378   
814.500000	1.936356   
815.000000	1.925712   
815.500000	1.761280   
816.000000	1.533022   
816.500000	1.380530   
817.000000	1.430143   
817.500000	1.592393   
818.000000	1.818212   
818.500000	1.914969   
819.000000	1.954492   
819.500000	1.844143   
820.000000	1.735265   
820.500000	1.746719   
821.000000	1.870333   
821.500000	1.989856   
822.000000	2.045000   
822.500000	2.153378   
823.000000	2.224772   
823.500000	2.272363   
824.000000	2.338431   
824.500000	2.440750   
825.000000	2.468727   
825.500000	2.340166   
826.000000	2.237946   
826.500000	2.289606   
827.000000	2.345886   
827.500000	2.281113   
828.000000	2.052227   
828.500000	1.884219   
829.000000	1.660651   
829.500000	1.560962   
830.000000	1.475416   
830.500000	1.642060   
831.000000	1.733280   
831.500000	1.708818   
832.000000	1.441772   
832.500000	1.143750   
833.000000	0.939939   
833.500000	0.887401   
834.000000	0.942454   
834.500000	1.004136   
835.000000	1.090295   
835.500000	1.100901   
836.000000	1.086931   
836.500000	0.976295   
837.000000	0.922045   
837.500000	0.889181   
838.000000	0.918522   
838.500000	0.905522   
839.000000	0.879893   
839.500000	0.719613   
840.000000	0.631075   
840.500000	0.643333   
841.000000	0.851643   
841.500000	1.013666   
842.000000	1.033113   
842.500000	0.975856   
843.000000	0.934500   
843.500000	0.955651   
844.000000	0.804151   
844.500000	0.654106   
845.000000	0.480174   
845.500000	0.503765   
846.000000	0.396916   
846.500000	0.311977   
847.000000	0.161643   
847.500000	0.165053   
848.000000	0.203651   
848.500000	0.424939   
849.000000	0.522333   
849.500000	0.478924   
850.000000	0.249378   
850.500000	0.144765   
851.000000	0.057371   
851.500000	0.086984   
852.000000	0.125007   
852.500000	0.285878   
853.000000	0.329219   
853.500000	0.243075   
854.000000	0.131469   
854.500000	0.061166   
855.000000	-0.024068  
855.500000	-0.135219  
856.000000	-0.160734  
856.500000	-0.102212  
857.000000	0.020454   
857.500000	0.096181   
858.000000	0.148962   
858.500000	0.114681   
859.000000	0.123901   
859.500000	0.194583   
860.000000	0.342946   
860.500000	0.377204   
861.000000	0.291007   
861.500000	0.074060   
862.000000	-0.131750  
862.500000	-0.186757  
863.000000	-0.077530  
863.500000	0.058568   
864.000000	-0.038909  
864.500000	-0.178431  
865.000000	-0.265795  
865.500000	-0.113204  
866.000000	0.038303   
866.500000	0.164590   
867.000000	0.158984   
867.500000	0.137583   
868.000000	0.038515   
868.500000	0.019992   
869.000000	0.053363   
869.500000	0.130515   
870.000000	0.082522   
870.500000	-0.013666  
871.000000	-0.094189  
871.500000	-0.038977  
872.000000	0.063575   
872.500000	0.069856   
873.000000	-0.087545  
873.500000	-0.294575  
874.000000	-0.225196  
874.500000	0.003068   
875.000000	0.189537   
875.500000	0.118810   
876.000000	0.001007   
876.500000	-0.070916  
877.000000	-0.101303  
877.500000	-0.098409  
878.000000	-0.093840  
878.500000	-0.052712  
879.000000	-0.042250  
879.500000	-0.025553  
880.000000	-0.035507  
880.500000	-0.046954  
881.000000	-0.051613  
881.500000	-0.073484  
882.000000	-0.042636  
882.500000	-0.108325  
883.000000	-0.158939  
883.500000	-0.144090  
884.000000	0.001939   
884.500000	0.084325   
885.000000	0.039643   
885.500000	-0.054424  
886.000000	-0.048234  
886.500000	-0.038030  
887.000000	-0.116083  
887.500000	-0.167303  
888.000000	-0.093590  
888.500000	-0.001916  
889.000000	0.030810   
889.500000	-0.036386  
890.000000	-0.058651  
890.500000	0.044833   
891.000000	0.147810   
891.500000	0.175363   
892.000000	0.033409   
892.500000	-0.062537  
893.000000	-0.042128  
893.500000	0.107727   
894.000000	0.077590   
894.500000	-0.070689  
895.000000	-0.283636  
895.500000	-0.287636  
896.000000	-0.163545  
896.500000	0.040204   
897.000000	0.110242   
897.500000	0.039022   

