PE FL                   SPECTRUM    ASCII       PEDS        1.60        
  -1
SA938D~1.SP
24/04/12
15:59:10.00
24/04/12
15:59:10.00
Jan

897.500000
1









LS55
405.00
5.00
5.00
SCAN
1
20
100
100
0
400
0
1
0
1
5
ON
450 405 
1 0 0
#HDR
-1
-1
#GR
NM

0.00002384185791015625
0.0
450.000000
0.500000
896
8
352.526068
-0.603999
#DATA
450.000000	-0.603999  
450.500000	-0.109363  
451.000000	0.141333   
451.500000	0.190272   
452.000000	0.216931   
452.500000	0.215303   
453.000000	0.199704   
453.500000	0.184174   
454.000000	0.109530   
454.500000	-0.008386  
455.000000	0.019848   
455.500000	0.166848   
456.000000	0.334242   
456.500000	0.388530   
457.000000	0.350007   
457.500000	0.289196   
458.000000	0.160810   
458.500000	0.032454   
459.000000	-0.049348  
459.500000	-0.063295  
460.000000	-0.101553  
460.500000	-0.081250  
461.000000	-0.040265  
461.500000	0.126409   
462.000000	0.174356   
462.500000	0.143151   
463.000000	0.044143   
463.500000	0.083037   
464.000000	0.038469   
464.500000	0.155409   
465.000000	0.244719   
465.500000	0.384454   
466.000000	0.241537   
466.500000	0.075250   
467.000000	-0.086931  
467.500000	-0.032303  
468.000000	0.072318   
468.500000	0.208515   
469.000000	0.204212   
469.500000	0.061431   
470.000000	-0.080712  
470.500000	-0.095477  
471.000000	0.028151   
471.500000	0.235106   
472.000000	0.386446   
472.500000	0.404416   
473.000000	0.347295   
473.500000	0.339772   
474.000000	0.367136   
474.500000	0.325113   
475.000000	0.172363   
475.500000	0.113439   
476.000000	0.139977   
476.500000	0.059946   
477.000000	-0.171583  
477.500000	-0.217689  
478.000000	0.020916   
478.500000	0.287515   
479.000000	0.239810   
479.500000	0.149265   
480.000000	0.273962   
480.500000	0.446303   
481.000000	0.353204   
481.500000	0.215825   
482.000000	0.222893   
482.500000	0.372840   
483.000000	0.392462   
483.500000	0.245204   
484.000000	0.105984   
484.500000	0.090772   
485.000000	0.108356   
485.500000	0.013121   
486.000000	-0.122833  
486.500000	-0.046431  
487.000000	0.131234   
487.500000	0.217553   
488.000000	0.062749   
488.500000	-0.002636  
489.000000	-0.041212  
489.500000	0.001060   
490.000000	-0.118015  
490.500000	-0.019689  
491.000000	0.103984   
491.500000	0.205984   
492.000000	0.093575   
492.500000	0.035333   
493.000000	-0.000454  
493.500000	0.043999   
494.000000	0.152606   
494.500000	0.357242   
495.000000	0.497007   
495.500000	0.426431   
496.000000	0.383340   
496.500000	0.453969   
497.000000	0.548227   
497.500000	0.499878   
498.000000	0.419628   
498.500000	0.339083   
499.000000	0.358189   
499.500000	0.436409   
500.000000	0.597795   
500.500000	0.703992   
501.000000	0.738356   
501.500000	0.646977   
502.000000	0.628212   
502.500000	0.656924   
503.000000	0.744840   
503.500000	0.737128   
504.000000	0.732371   
504.500000	0.828219   
505.000000	0.990143   
505.500000	1.043287   
506.000000	1.005128   
506.500000	0.921492   
507.000000	0.874287   
507.500000	0.911303   
508.000000	0.983090   
508.500000	1.043272   
509.000000	1.002325   
509.500000	0.900651   
510.000000	0.854401   
510.500000	1.096871   
511.000000	1.404962   
511.500000	1.513075   
512.000000	1.163696   
512.500000	0.896068   
513.000000	0.966098   
513.500000	1.426636   
514.000000	1.705787   
514.500000	1.701643   
515.000000	1.403598   
515.500000	1.286954   
516.000000	1.255386   
516.500000	1.348878   
517.000000	1.382371   
517.500000	1.630575   
518.000000	1.973053   
518.500000	2.238780   
519.000000	2.194424   
519.500000	2.125045   
520.000000	2.265924   
520.500000	2.612189   
521.000000	2.897780   
521.500000	2.914136   
522.000000	2.707992   
522.500000	2.624515   
523.000000	2.534265   
523.500000	2.490553   
524.000000	2.473856   
524.500000	2.617590   
525.000000	2.720454   
525.500000	2.820022   
526.000000	2.928083   
526.500000	3.207712   
527.000000	3.361424   
527.500000	3.351969   
528.000000	3.390121   
528.500000	3.735037   
529.000000	4.049340   
529.500000	4.063037   
530.000000	3.877151   
530.500000	4.018053   
531.000000	4.430977   
531.500000	4.712696   
532.000000	4.834590   
532.500000	4.938378   
533.000000	5.188643   
533.500000	5.418469   
534.000000	5.905757   
534.500000	6.435053   
535.000000	7.013265   
535.500000	7.247431   
536.000000	7.504295   
536.500000	7.610575   
537.000000	7.744628   
537.500000	7.690037   
538.000000	7.892901   
538.500000	8.457477   
539.000000	9.344151   
539.500000	10.047568  
540.000000	10.114621  
540.500000	10.143439  
541.000000	10.431348  
541.500000	10.926946  
542.000000	11.028583  
542.500000	11.127250  
543.000000	11.344689  
543.500000	11.735598  
544.000000	11.738174  
544.500000	11.858234  
545.000000	12.289356  
545.500000	12.687287  
546.000000	12.335295  
546.500000	11.570393  
547.000000	10.956719  
547.500000	11.015416  
548.000000	11.456310  
548.500000	11.700583  
549.000000	11.706886  
549.500000	11.780590  
550.000000	12.306916  
550.500000	12.521446  
551.000000	12.221886  
551.500000	11.592454  
552.000000	11.669984  
552.500000	12.048780  
553.000000	12.471045  
553.500000	12.579439  
554.000000	12.706265  
554.500000	12.561060  
555.000000	12.593780  
555.500000	12.847287  
556.000000	13.560015  
556.500000	14.155924  
557.000000	14.347083  
557.500000	14.031492  
558.000000	13.553575  
558.500000	13.590287  
559.000000	14.317393  
559.500000	15.162318  
560.000000	15.294250  
560.500000	15.130515  
561.000000	15.063030  
561.500000	15.716250  
562.000000	16.556242  
562.500000	17.347825  
563.000000	17.636045  
563.500000	17.867545  
564.000000	18.116916  
564.500000	18.537651  
565.000000	18.871196  
565.500000	19.123265  
566.000000	19.542734  
566.500000	19.862742  
567.000000	20.536000  
567.500000	21.082924  
568.000000	21.833712  
568.500000	22.136015  
569.000000	22.461280  
569.500000	23.009765  
570.000000	23.876348  
570.500000	25.214356  
571.000000	26.161689  
571.500000	26.747848  
572.000000	26.675696  
572.500000	26.902969  
573.000000	27.186962  
573.500000	27.889121  
574.000000	28.409742  
574.500000	28.810765  
575.000000	29.276878  
575.500000	30.219704  
576.000000	31.588833  
576.500000	32.917537  
577.000000	33.392954  
577.500000	33.472151  
578.000000	33.455287  
578.500000	33.971348  
579.000000	34.275568  
579.500000	34.509280  
580.000000	34.483909  
580.500000	35.251954  
581.000000	36.340507  
581.500000	37.063613  
582.000000	37.283886  
582.500000	37.750583  
583.000000	38.787227  
583.500000	39.740606  
584.000000	40.027583  
584.500000	40.210522  
585.000000	40.828674  
585.500000	41.704295  
586.000000	42.548666  
586.500000	43.785704  
587.000000	45.345295  
587.500000	46.841007  
588.000000	47.867575  
588.500000	48.433901  
589.000000	49.009939  
589.500000	49.703484  
590.000000	50.568469  
590.500000	52.319977  
591.000000	54.328159  
591.500000	55.898454  
592.000000	56.486651  
592.500000	57.601439  
593.000000	59.095666  
593.500000	60.984000  
594.000000	62.668007  
594.500000	63.691886  
595.000000	64.136219  
595.500000	64.199621  
596.000000	65.430143  
596.500000	66.918409  
597.000000	68.333356  
597.500000	69.499136  
598.000000	71.566484  
598.500000	73.115212  
599.000000	73.584628  
599.500000	74.228181  
600.000000	75.779348  
600.500000	78.536946  
601.000000	81.114537  
601.500000	83.184780  
602.000000	83.942333  
602.500000	85.329871  
603.000000	87.175265  
603.500000	89.131977  
604.000000	89.918893  
604.500000	90.716515  
605.000000	92.755136  
605.500000	95.625803  
606.000000	98.207833  
606.500000	100.267719 
607.000000	101.825954 
607.500000	103.154916 
608.000000	104.271833 
608.500000	106.454659 
609.000000	108.894666 
609.500000	111.967537 
610.000000	113.790818 
610.500000	115.830560 
611.000000	117.957856 
611.500000	121.054833 
612.000000	123.332484 
612.500000	125.509007 
613.000000	127.638287 
613.500000	130.411818 
614.000000	133.221780 
614.500000	136.099446 
615.000000	138.350856 
615.500000	140.520803 
616.000000	141.696916 
616.500000	142.730242 
617.000000	144.449651 
617.500000	148.188234 
618.000000	153.128128 
618.500000	157.952378 
619.000000	161.472803 
619.500000	163.756863 
620.000000	165.401901 
620.500000	166.701000 
621.000000	169.896090 
621.500000	174.705083 
622.000000	180.150666 
622.500000	183.867530 
623.000000	186.117727 
623.500000	187.894053 
624.000000	190.461810 
624.500000	193.346265 
625.000000	197.127962 
625.500000	202.895090 
626.000000	208.974310 
626.500000	212.921446 
627.000000	214.257969 
627.500000	216.278030 
628.000000	220.062212 
628.500000	224.045583 
629.000000	227.741553 
629.500000	231.598181 
630.000000	234.863083 
630.500000	236.691992 
631.000000	239.654136 
631.500000	244.911719 
632.000000	251.753166 
632.500000	256.951272 
633.000000	260.023969 
633.500000	261.583000 
634.000000	264.250416 
634.500000	268.836477 
635.000000	274.031606 
635.500000	276.780401 
636.000000	278.438954 
636.500000	280.897780 
637.000000	285.008439 
637.500000	289.828446 
638.000000	293.624348 
638.500000	296.411257 
639.000000	298.139053 
639.500000	300.793121 
640.000000	303.966234 
640.500000	308.772946 
641.000000	312.667075 
641.500000	315.953030 
642.000000	318.786492 
642.500000	322.534068 
643.000000	326.843795 
643.500000	328.202325 
644.000000	326.734962 
644.500000	326.213393 
645.000000	330.458409 
645.500000	336.990924 
646.000000	341.420416 
646.500000	341.203121 
647.000000	339.469909 
647.500000	339.067553 
648.000000	340.727015 
648.500000	342.430939 
649.000000	344.388484 
649.500000	345.627757 
650.000000	347.305954 
650.500000	347.469878 
651.000000	347.323037 
651.500000	347.061363 
652.000000	349.388196 
652.500000	351.084166 
653.000000	350.431189 
653.500000	347.961015 
654.000000	348.337636 
654.500000	350.775469 
655.000000	352.526068 
655.500000	350.463280 
656.000000	348.031007 
656.500000	346.336325 
657.000000	346.143128 
657.500000	346.047931 
658.000000	344.655939 
658.500000	342.112477 
659.000000	339.291825 
659.500000	337.222765 
660.000000	334.632833 
660.500000	333.203704 
661.000000	331.574401 
661.500000	331.401174 
662.000000	329.630886 
662.500000	327.170848 
663.000000	322.009037 
663.500000	316.728363 
664.000000	312.726439 
664.500000	311.534333 
665.000000	309.669431 
665.500000	305.067416 
666.000000	299.109234 
666.500000	294.160174 
667.000000	290.253272 
667.500000	285.857719 
668.000000	283.302219 
668.500000	281.698037 
669.000000	279.625166 
669.500000	274.613856 
670.000000	268.422272 
670.500000	261.924583 
671.000000	256.510659 
671.500000	251.500189 
672.000000	247.435098 
672.500000	242.804250 
673.000000	238.024340 
673.500000	233.405075 
674.000000	228.856310 
674.500000	223.247765 
675.000000	216.748757 
675.500000	210.967075 
676.000000	206.086477 
676.500000	202.578765 
677.000000	199.214219 
677.500000	195.100386 
678.000000	189.782750 
678.500000	183.798893 
679.000000	178.862992 
679.500000	174.199000 
680.000000	170.268159 
680.500000	165.924030 
681.000000	162.119295 
681.500000	157.206901 
682.000000	151.542045 
682.500000	145.948409 
683.000000	141.603515 
683.500000	137.495386 
684.000000	132.646325 
684.500000	127.698393 
685.000000	123.781530 
685.500000	120.663962 
686.000000	116.975310 
686.500000	113.825333 
687.000000	111.993750 
687.500000	110.449454 
688.000000	106.628651 
688.500000	102.229310 
689.000000	98.874681  
689.500000	96.832242  
690.000000	93.970681  
690.500000	90.290977  
691.000000	87.429689  
691.500000	84.887916  
692.000000	83.205348  
692.500000	80.223742  
693.000000	76.768969  
693.500000	72.619787  
694.000000	70.450333  
694.500000	68.985772  
695.000000	67.883984  
695.500000	65.988227  
696.000000	63.810053  
696.500000	61.510750  
697.000000	59.430227  
697.500000	57.950545  
698.000000	56.659878  
698.500000	54.798242  
699.000000	52.555075  
699.500000	50.158984  
700.000000	48.991166  
700.500000	48.143015  
701.000000	47.260393  
701.500000	45.357181  
702.000000	44.392424  
702.500000	44.384825  
703.000000	44.194015  
703.500000	42.564848  
704.000000	40.188515  
704.500000	38.292946  
705.000000	37.202250  
705.500000	36.396939  
706.000000	35.384015  
706.500000	34.058166  
707.000000	33.289803  
707.500000	32.928621  
708.000000	32.713151  
708.500000	32.164537  
709.000000	31.570666  
709.500000	30.908583  
710.000000	29.846189  
710.500000	28.373575  
711.000000	27.060628  
711.500000	26.443227  
712.000000	26.295121  
712.500000	25.770378  
713.000000	24.855416  
713.500000	23.733833  
714.000000	23.221969  
714.500000	23.058121  
715.000000	22.948000  
715.500000	22.467848  
716.000000	21.560840  
716.500000	20.556636  
717.000000	19.731000  
717.500000	19.478280  
718.000000	19.197810  
718.500000	19.288651  
719.000000	19.194674  
719.500000	18.901143  
720.000000	18.005037  
720.500000	17.173621  
721.000000	16.630181  
721.500000	16.566522  
722.000000	16.096712  
722.500000	15.666439  
723.000000	15.497515  
723.500000	15.787856  
724.000000	15.820712  
724.500000	15.141666  
725.000000	13.988643  
725.500000	13.309242  
726.000000	13.315204  
726.500000	13.141659  
727.000000	12.554780  
727.500000	12.007409  
728.000000	11.984545  
728.500000	12.198401  
729.000000	12.114621  
729.500000	11.929643  
730.000000	11.547810  
730.500000	11.416363  
731.000000	11.277583  
731.500000	11.489924  
732.000000	11.257651  
732.500000	11.027931  
733.000000	10.618522  
733.500000	10.482598  
734.000000	10.311969  
734.500000	10.233416  
735.000000	9.815666   
735.500000	9.285856   
736.000000	8.805037   
736.500000	8.856515   
737.000000	9.118909   
737.500000	9.171734   
738.000000	8.911371   
738.500000	8.468916   
739.000000	8.190446   
739.500000	8.122219   
740.000000	8.089083   
740.500000	7.898893   
741.000000	7.832242   
741.500000	7.848090   
742.000000	7.812537   
742.500000	7.553916   
743.000000	7.213174   
743.500000	7.013371   
744.000000	6.983590   
744.500000	7.115151   
745.000000	7.416439   
745.500000	7.482174   
746.000000	7.114454   
746.500000	6.693818   
747.000000	6.586621   
747.500000	6.737174   
748.000000	6.682628   
748.500000	6.544553   
749.000000	6.482712   
749.500000	6.724787   
750.000000	6.581651   
750.500000	6.339181   
751.000000	5.912446   
751.500000	5.748356   
752.000000	5.519719   
752.500000	5.483015   
753.000000	5.462795   
753.500000	5.552992   
754.000000	5.277484   
754.500000	5.111424   
755.000000	5.043242   
755.500000	5.190696   
756.000000	5.303227   
756.500000	5.264643   
757.000000	5.013757   
757.500000	4.705409   
758.000000	4.570469   
758.500000	4.506825   
759.000000	4.563734   
759.500000	4.664439   
760.000000	4.995643   
760.500000	5.089212   
761.000000	4.909568   
761.500000	4.655053   
762.000000	4.417583   
762.500000	4.425393   
763.000000	4.484454   
763.500000	4.557272   
764.000000	4.472068   
764.500000	4.517553   
765.000000	4.745272   
765.500000	4.983348   
766.000000	4.951803   
766.500000	4.677454   
767.000000	4.403007   
767.500000	4.082560   
768.000000	3.797318   
768.500000	3.703734   
769.000000	3.964590   
769.500000	4.448636   
770.000000	4.665136   
770.500000	4.404742   
771.000000	3.920833   
771.500000	3.574946   
772.000000	3.563878   
772.500000	3.558833   
773.000000	3.555553   
773.500000	3.355204   
774.000000	3.277439   
774.500000	3.220787   
775.000000	3.293234   
775.500000	3.259196   
776.000000	3.255954   
776.500000	3.266454   
777.000000	3.361863   
777.500000	3.513151   
778.000000	3.543022   
778.500000	3.426499   
779.000000	3.299787   
779.500000	3.362825   
780.000000	3.365189   
780.500000	3.197265   
781.000000	3.011053   
781.500000	3.044689   
782.000000	3.164787   
782.500000	3.146234   
783.000000	3.053356   
783.500000	2.987378   
784.000000	2.965530   
784.500000	2.808280   
785.000000	2.708666   
785.500000	2.678613   
786.000000	2.835977   
786.500000	2.929621   
787.000000	2.955075   
787.500000	2.924439   
788.000000	3.029818   
788.500000	3.153696   
789.000000	3.185560   
789.500000	3.120946   
790.000000	3.045325   
790.500000	3.036863   
791.000000	2.956893   
791.500000	2.829484   
792.000000	2.730628   
792.500000	2.875916   
793.000000	2.911787   
793.500000	2.761378   
794.000000	2.525075   
794.500000	2.679431   
795.000000	2.975151   
795.500000	3.078636   
796.000000	2.807636   
796.500000	2.528386   
797.000000	2.449181   
797.500000	2.584909   
798.000000	2.616340   
798.500000	2.535742   
799.000000	2.455492   
799.500000	2.620962   
800.000000	2.704696   
800.500000	2.536469   
801.000000	2.306234   
801.500000	2.401469   
802.000000	2.645424   
802.500000	2.707022   
803.000000	2.481992   
803.500000	2.074340   
804.000000	1.752795   
804.500000	1.777712   
805.000000	2.083356   
805.500000	2.448053   
806.000000	2.435075   
806.500000	2.480007   
807.000000	2.476522   
807.500000	2.406795   
808.000000	1.926174   
808.500000	1.745325   
809.000000	1.882575   
809.500000	2.190757   
810.000000	2.077333   
810.500000	1.777174   
811.000000	1.538401   
811.500000	1.627257   
812.000000	1.781856   
812.500000	1.815727   
813.000000	1.662340   
813.500000	1.483916   
814.000000	1.375128   
814.500000	1.412462   
815.000000	1.465045   
815.500000	1.515371   
816.000000	1.689848   
816.500000	1.899871   
817.000000	2.039492   
817.500000	1.897765   
818.000000	1.765106   
818.500000	1.704916   
819.000000	1.858606   
819.500000	1.832045   
820.000000	1.804924   
820.500000	1.656401   
821.000000	1.766287   
821.500000	1.999212   
822.000000	2.216825   
822.500000	2.236939   
823.000000	2.329356   
823.500000	2.603136   
824.000000	2.796280   
824.500000	2.705159   
825.000000	2.351090   
825.500000	2.128007   
826.000000	2.085113   
826.500000	2.383378   
827.000000	2.486969   
827.500000	2.378613   
828.000000	2.066984   
828.500000	2.047318   
829.000000	2.018689   
829.500000	1.968295   
830.000000	1.626909   
830.500000	1.337053   
831.000000	1.167477   
831.500000	1.202840   
832.000000	1.293386   
832.500000	1.313446   
833.000000	1.191446   
833.500000	1.114583   
834.000000	1.017825   
834.500000	0.935037   
835.000000	0.873143   
835.500000	0.950439   
836.000000	1.048340   
836.500000	1.116939   
837.000000	1.040909   
837.500000	0.958621   
838.000000	0.888090   
838.500000	0.860196   
839.000000	0.749113   
839.500000	0.672227   
840.000000	0.657189   
840.500000	0.720401   
841.000000	0.713401   
841.500000	0.589560   
842.000000	0.557553   
842.500000	0.573143   
843.000000	0.661189   
843.500000	0.705689   
844.000000	0.786833   
844.500000	0.748568   
845.000000	0.710522   
845.500000	0.713462   
846.000000	0.657984   
846.500000	0.563583   
847.000000	0.358022   
847.500000	0.276962   
848.000000	0.242424   
848.500000	0.208378   
849.000000	0.108643   
849.500000	0.092560   
850.000000	0.122363   
850.500000	0.188712   
851.000000	0.198000   
851.500000	0.142977   
852.000000	0.100446   
852.500000	0.114492   
853.000000	0.137553   
853.500000	0.140196   
854.000000	0.149272   
854.500000	0.187280   
855.000000	0.245992   
855.500000	0.188128   
856.000000	0.156416   
856.500000	0.107780   
857.000000	0.061204   
857.500000	-0.078060  
858.000000	-0.118348  
858.500000	-0.120590  
859.000000	-0.091787  
859.500000	-0.101015  
860.000000	-0.065651  
860.500000	-0.117166  
861.000000	-0.146613  
861.500000	-0.056075  
862.000000	0.151318   
862.500000	0.225386   
863.000000	0.169712   
863.500000	0.048545   
864.000000	-0.049037  
864.500000	-0.115742  
865.000000	-0.177530  
865.500000	-0.158280  
866.000000	-0.087121  
866.500000	0.033250   
867.000000	0.127424   
867.500000	0.178765   
868.000000	0.093446   
868.500000	-0.033863  
869.000000	-0.123750  
869.500000	-0.087113  
870.000000	0.004068   
870.500000	0.048909   
871.000000	-0.017424  
871.500000	-0.065757  
872.000000	-0.104295  
872.500000	-0.042954  
873.000000	0.015787   
873.500000	0.022893   
874.000000	-0.075916  
874.500000	-0.121378  
875.000000	-0.097212  
875.500000	-0.013174  
876.000000	-0.025022  
876.500000	-0.077136  
877.000000	-0.134515  
877.500000	-0.091265  
878.000000	-0.017333  
878.500000	0.076848   
879.000000	0.033113   
879.500000	-0.025454  
880.000000	-0.131795  
880.500000	-0.207780  
881.000000	-0.179280  
881.500000	-0.043265  
882.000000	0.128250   
882.500000	0.155772   
883.000000	0.085530   
883.500000	-0.029106  
884.000000	-0.013265  
884.500000	-0.047090  
885.000000	-0.062863  
885.500000	-0.124704  
886.000000	-0.079757  
886.500000	-0.021537  
887.000000	-0.026265  
887.500000	-0.104462  
888.000000	-0.158946  
888.500000	-0.081219  
889.000000	0.028818   
889.500000	0.120484   
890.000000	0.062954   
890.500000	-0.018537  
891.000000	-0.049825  
891.500000	0.054856   
892.000000	0.073962   
892.500000	-0.032068  
893.000000	-0.142750  
893.500000	-0.135681  
894.000000	-0.036469  
894.500000	0.038242   
895.000000	0.026818   
895.500000	-0.021803  
896.000000	-0.074015  
896.500000	-0.092060  
897.000000	-0.068666  
897.500000	-0.022401  

