PE FL                   SPECTRUM    ASCII       PEDS        1.60        
  -1
SA8BA5~1.SP
24/04/12
15:37:46.00
24/04/12
15:37:46.00
Jan

897.500000
1









LS55
405.00
5.00
5.00
SCAN
1
20
100
100
0
400
0
1
0
1
5
ON
450 405 
1 0 0
#HDR
-1
-1
#GR
NM

0.00002384185791015625
0.0
450.000000
0.500000
896
8
386.961916
-0.372310
#DATA
450.000000	0.402000   
450.500000	0.489287   
451.000000	0.448090   
451.500000	0.222916   
452.000000	0.119462   
452.500000	0.103954   
453.000000	0.227825   
453.500000	0.267643   
454.000000	0.197598   
454.500000	0.100227   
455.000000	0.101795   
455.500000	0.083712   
456.000000	-0.046916  
456.500000	-0.112000  
457.000000	-0.036098  
457.500000	-0.013962  
458.000000	-0.149681  
458.500000	-0.360583  
459.000000	-0.372310  
459.500000	-0.261484  
460.000000	-0.047833  
460.500000	0.161621   
461.000000	0.211878   
461.500000	0.103666   
462.000000	-0.096727  
462.500000	-0.093227  
463.000000	-0.024295  
463.500000	0.071742   
464.000000	0.064962   
464.500000	0.191492   
465.000000	0.218333   
465.500000	0.202250   
466.000000	-0.046689  
466.500000	-0.128159  
467.000000	-0.100765  
467.500000	0.117787   
468.000000	0.207946   
468.500000	0.281113   
469.000000	0.286719   
469.500000	0.394000   
470.000000	0.402022   
470.500000	0.275856   
471.000000	0.173022   
471.500000	0.205984   
472.000000	0.269325   
472.500000	0.199492   
473.000000	0.096992   
473.500000	0.107613   
474.000000	0.326439   
474.500000	0.363969   
475.000000	0.266606   
475.500000	0.095007   
476.000000	0.230719   
476.500000	0.511295   
477.000000	0.665196   
477.500000	0.465825   
478.000000	0.173674   
478.500000	-0.034310  
479.000000	-0.140090  
479.500000	-0.148363  
480.000000	-0.142257  
480.500000	-0.077484  
481.000000	0.037696   
481.500000	0.155234   
482.000000	0.281363   
482.500000	0.270318   
483.000000	0.207174   
483.500000	0.064704   
484.000000	0.019750   
484.500000	-0.008113  
485.000000	0.158893   
485.500000	0.306553   
486.000000	0.445098   
486.500000	0.486545   
487.000000	0.475257   
487.500000	0.336704   
488.000000	0.119136   
488.500000	0.077878   
489.000000	0.206295   
489.500000	0.445772   
490.000000	0.512439   
490.500000	0.558310   
491.000000	0.528689   
491.500000	0.447484   
492.000000	0.344651   
492.500000	0.345962   
493.000000	0.423386   
493.500000	0.553310   
494.000000	0.594772   
494.500000	0.626272   
495.000000	0.589340   
495.500000	0.570272   
496.000000	0.492015   
496.500000	0.477712   
497.000000	0.386674   
497.500000	0.345878   
498.000000	0.311053   
498.500000	0.399507   
499.000000	0.524530   
499.500000	0.580742   
500.000000	0.574083   
500.500000	0.507984   
501.000000	0.550704   
501.500000	0.578901   
502.000000	0.646810   
502.500000	0.611803   
503.000000	0.639742   
503.500000	0.718681   
504.000000	0.834636   
504.500000	0.813454   
505.000000	0.705659   
505.500000	0.738659   
506.000000	0.864189   
506.500000	1.023378   
507.000000	1.017560   
507.500000	0.931704   
508.000000	0.860174   
508.500000	0.907825   
509.000000	1.063818   
509.500000	1.222212   
510.000000	1.122500   
510.500000	0.929651   
511.000000	0.864469   
511.500000	1.092893   
512.000000	1.403068   
512.500000	1.459712   
513.000000	1.231424   
513.500000	1.019757   
514.000000	1.236500   
514.500000	1.396825   
515.000000	1.477174   
515.500000	1.349500   
516.000000	1.397143   
516.500000	1.524621   
517.000000	1.704659   
517.500000	1.885628   
518.000000	1.989219   
518.500000	1.953636   
519.000000	1.781325   
519.500000	1.808174   
520.000000	1.967143   
520.500000	2.185750   
521.000000	2.277439   
521.500000	2.204795   
522.000000	2.189553   
522.500000	2.303227   
523.000000	2.539401   
523.500000	2.779772   
524.000000	2.997742   
524.500000	3.081666   
525.000000	2.959712   
525.500000	2.825446   
526.000000	2.818431   
526.500000	3.062901   
527.000000	3.287416   
527.500000	3.403992   
528.000000	3.294674   
528.500000	3.398909   
529.000000	3.661810   
529.500000	4.181553   
530.000000	4.515863   
530.500000	4.929575   
531.000000	5.261272   
531.500000	5.489075   
532.000000	5.477689   
532.500000	5.425749   
533.000000	5.511356   
533.500000	5.661007   
534.000000	5.965431   
534.500000	5.894893   
535.000000	6.019893   
535.500000	6.314810   
536.000000	7.188863   
536.500000	7.744871   
537.000000	7.845916   
537.500000	7.750143   
538.000000	8.045090   
538.500000	8.699469   
539.000000	9.557931   
539.500000	10.187068  
540.000000	10.334628  
540.500000	9.966015   
541.000000	9.977416   
541.500000	10.211795  
542.000000	10.716378  
542.500000	10.809886  
543.000000	11.186977  
543.500000	11.567250  
544.000000	11.956295  
544.500000	11.864090  
545.000000	11.762159  
545.500000	11.910015  
546.000000	12.028242  
546.500000	12.013189  
547.000000	11.752522  
547.500000	11.736356  
548.000000	11.892924  
548.500000	12.210863  
549.000000	12.542477  
549.500000	12.827560  
550.000000	12.735863  
550.500000	12.340780  
551.000000	12.039484  
551.500000	12.209681  
552.000000	12.798621  
552.500000	13.048166  
553.000000	12.904181  
553.500000	12.727280  
554.000000	13.012280  
554.500000	13.093909  
555.000000	12.881424  
555.500000	12.501833  
556.000000	12.642492  
556.500000	12.852250  
557.000000	13.244106  
557.500000	13.832795  
558.000000	14.553492  
558.500000	14.986015  
559.000000	15.122568  
559.500000	15.405590  
560.000000	15.771651  
560.500000	15.875272  
561.000000	15.850833  
561.500000	16.050113  
562.000000	16.707363  
562.500000	17.347257  
563.000000	17.851386  
563.500000	18.114893  
564.000000	18.670962  
564.500000	18.879469  
565.000000	19.005833  
565.500000	19.159000  
566.000000	19.971363  
566.500000	20.744704  
567.000000	21.305212  
567.500000	21.518439  
568.000000	22.231348  
568.500000	23.507651  
569.000000	24.668424  
569.500000	25.067007  
570.000000	25.174772  
570.500000	25.559401  
571.000000	26.120886  
571.500000	26.361318  
572.000000	26.662409  
572.500000	27.128537  
573.000000	28.071628  
573.500000	28.584083  
574.000000	29.290818  
574.500000	29.482924  
575.000000	29.860409  
575.500000	30.239227  
576.000000	31.633045  
576.500000	33.143856  
577.000000	34.178333  
577.500000	34.335424  
578.000000	34.349431  
578.500000	34.955151  
579.000000	35.579037  
579.500000	36.400530  
580.000000	36.945856  
580.500000	37.758969  
581.000000	38.175401  
581.500000	38.369090  
582.000000	38.193272  
582.500000	38.593931  
583.000000	39.367068  
583.500000	40.704121  
584.000000	41.875977  
584.500000	43.249007  
585.000000	44.336340  
585.500000	44.909810  
586.000000	45.244515  
586.500000	46.867340  
587.000000	48.957507  
587.500000	50.570909  
588.000000	50.962840  
588.500000	51.614946  
589.000000	52.353810  
589.500000	53.289734  
590.000000	53.749568  
590.500000	55.237015  
591.000000	57.010712  
591.500000	58.671022  
592.000000	59.753106  
592.500000	60.821318  
593.000000	62.536068  
593.500000	64.287143  
594.000000	65.672522  
594.500000	66.315931  
595.000000	67.059022  
595.500000	67.906083  
596.000000	69.460765  
596.500000	70.910416  
597.000000	72.342689  
597.500000	73.554727  
598.000000	75.003409  
598.500000	77.180030  
599.000000	79.466143  
599.500000	81.192492  
600.000000	82.547749  
600.500000	84.832136  
601.000000	87.028227  
601.500000	88.796393  
602.000000	89.063000  
602.500000	90.127121  
603.000000	91.791204  
603.500000	94.420287  
604.000000	96.234075  
604.500000	98.500893  
605.000000	100.489848 
605.500000	102.924651 
606.000000	103.912848 
606.500000	105.120484 
607.000000	106.865530 
607.500000	110.193712 
608.000000	112.855340 
608.500000	114.727113 
609.000000	116.143462 
609.500000	118.414000 
610.000000	121.125015 
610.500000	123.962500 
611.000000	127.331977 
611.500000	130.987007 
612.000000	134.066696 
612.500000	134.532257 
613.000000	134.553242 
613.500000	135.806037 
614.000000	140.393113 
614.500000	145.602128 
615.000000	149.579628 
615.500000	151.454181 
616.000000	153.819515 
616.500000	157.569636 
617.000000	161.191280 
617.500000	163.328446 
618.000000	165.687196 
618.500000	168.987280 
619.000000	171.996174 
619.500000	173.424643 
620.000000	175.690128 
620.500000	179.688939 
621.000000	185.402272 
621.500000	189.831636 
622.000000	193.730522 
622.500000	196.534318 
623.000000	199.540060 
623.500000	201.630234 
624.000000	203.528757 
624.500000	205.005916 
625.000000	208.536924 
625.500000	213.561378 
626.000000	218.368174 
626.500000	223.351500 
627.000000	228.501143 
627.500000	234.234143 
628.000000	237.685462 
628.500000	239.979931 
629.000000	242.331696 
629.500000	247.309037 
630.000000	253.462416 
630.500000	258.300984 
631.000000	261.278303 
631.500000	263.478757 
632.000000	268.104159 
632.500000	271.816098 
633.000000	275.138583 
633.500000	278.230416 
634.000000	283.741750 
634.500000	289.345393 
635.000000	294.075000 
635.500000	297.729204 
636.000000	301.028363 
636.500000	304.338045 
637.000000	307.050386 
637.500000	310.865924 
638.000000	314.463590 
638.500000	320.383151 
639.000000	325.056962 
639.500000	328.550772 
640.000000	331.150886 
640.500000	333.870553 
641.000000	336.533507 
641.500000	338.662825 
642.000000	342.269878 
642.500000	345.338265 
643.000000	348.098454 
643.500000	349.242537 
644.000000	353.623318 
644.500000	358.627583 
645.000000	361.909363 
645.500000	362.387272 
646.000000	362.536477 
646.500000	364.596174 
647.000000	367.410530 
647.500000	369.914121 
648.000000	371.683325 
648.500000	373.842287 
649.000000	374.492818 
649.500000	375.497068 
650.000000	377.008000 
650.500000	378.700734 
651.000000	379.849462 
651.500000	380.747075 
652.000000	381.692242 
652.500000	383.523181 
653.000000	385.187378 
653.500000	386.799924 
654.000000	386.657689 
654.500000	386.961916 
655.000000	385.581492 
655.500000	384.724272 
656.000000	381.105878 
656.500000	379.553795 
657.000000	378.643560 
657.500000	379.062257 
658.000000	378.378712 
658.500000	376.782250 
659.000000	374.500871 
659.500000	373.050045 
660.000000	373.348840 
660.500000	373.190598 
661.000000	371.135810 
661.500000	368.331507 
662.000000	364.524022 
662.500000	362.518795 
663.000000	359.853469 
663.500000	358.438681 
664.000000	354.413984 
664.500000	350.368856 
665.000000	345.869916 
665.500000	342.374212 
666.000000	337.802507 
666.500000	334.587234 
667.000000	333.374833 
667.500000	330.562962 
668.000000	324.388060 
668.500000	317.898075 
669.000000	315.153000 
669.500000	314.022106 
670.000000	309.952121 
670.500000	302.406325 
671.000000	294.917704 
671.500000	289.195015 
672.000000	284.817068 
672.500000	280.495030 
673.000000	276.469734 
673.500000	271.953613 
674.000000	266.135939 
674.500000	257.931689 
675.000000	250.896090 
675.500000	245.887439 
676.000000	242.476575 
676.500000	236.590219 
677.000000	230.100689 
677.500000	223.461219 
678.000000	219.480166 
678.500000	214.866295 
679.000000	210.747250 
679.500000	205.535045 
680.000000	200.600053 
680.500000	195.415090 
681.000000	190.104090 
681.500000	183.448689 
682.000000	176.656712 
682.500000	170.934212 
683.000000	166.993696 
683.500000	163.052090 
684.000000	158.900750 
684.500000	154.409909 
685.000000	150.247901 
685.500000	145.334060 
686.000000	141.113856 
686.500000	137.872439 
687.000000	134.676916 
687.500000	130.634166 
688.000000	125.259628 
688.500000	119.356166 
689.000000	114.364643 
689.500000	111.578795 
690.000000	109.610583 
690.500000	106.713310 
691.000000	103.367219 
691.500000	101.352712 
692.000000	100.396575 
692.500000	97.586113  
693.000000	92.790030  
693.500000	88.254719  
694.000000	85.513696  
694.500000	83.645272  
695.000000	82.062007  
695.500000	79.743893  
696.000000	77.274280  
696.500000	74.059734  
697.000000	71.921409  
697.500000	70.007871  
698.000000	68.770734  
698.500000	66.242583  
699.000000	64.076833  
699.500000	61.717515  
700.000000	60.356227  
700.500000	58.324295  
701.000000	56.514356  
701.500000	54.738568  
702.000000	53.468803  
702.500000	51.658219  
703.000000	49.333840  
703.500000	47.551196  
704.000000	46.918962  
704.500000	46.537878  
705.000000	45.369507  
705.500000	43.793833  
706.000000	42.310446  
706.500000	41.229098  
707.000000	40.149537  
707.500000	38.964545  
708.000000	37.706174  
708.500000	36.661606  
709.000000	35.786303  
709.500000	35.286750  
710.000000	34.842424  
710.500000	34.204348  
711.000000	32.955643  
711.500000	31.553568  
712.000000	30.400598  
712.500000	29.798015  
713.000000	29.403053  
713.500000	28.900212  
714.000000	28.385734  
714.500000	27.552325  
715.000000	26.775143  
715.500000	25.854196  
716.000000	25.402303  
716.500000	24.997946  
717.000000	24.690772  
717.500000	23.986378  
718.000000	23.472143  
718.500000	22.615909  
719.000000	21.813075  
719.500000	20.917446  
720.000000	20.691840  
720.500000	20.334659  
721.000000	19.924651  
721.500000	19.030090  
722.000000	18.359090  
722.500000	17.731939  
723.000000	17.511515  
723.500000	17.307886  
724.000000	17.030363  
724.500000	16.478075  
725.000000	16.103143  
725.500000	15.980560  
726.000000	15.753696  
726.500000	15.335181  
727.000000	15.095704  
727.500000	15.122318  
728.000000	14.849977  
728.500000	14.228984  
729.000000	13.267810  
729.500000	12.747803  
730.000000	12.338977  
730.500000	12.256545  
731.000000	12.190007  
731.500000	12.459386  
732.000000	12.571454  
732.500000	12.434712  
733.000000	11.942196  
733.500000	11.516295  
734.000000	11.432621  
734.500000	11.374265  
735.000000	11.088234  
735.500000	10.639204  
736.000000	10.684780  
736.500000	10.691318  
737.000000	10.511492  
737.500000	9.944098   
738.000000	9.741075   
738.500000	9.817871   
739.000000	9.846257   
739.500000	9.588772   
740.000000	9.337613   
740.500000	9.029371   
741.000000	8.733272   
741.500000	8.578613   
742.000000	8.627553   
742.500000	8.956621   
743.000000	9.149424   
743.500000	8.826219   
744.000000	8.072757   
744.500000	7.621590   
745.000000	7.684689   
745.500000	7.983295   
746.000000	7.628181   
746.500000	7.155363   
747.000000	6.837651   
747.500000	6.980696   
748.000000	7.195250   
748.500000	7.324583   
749.000000	7.199613   
749.500000	6.871143   
750.000000	6.464015   
750.500000	6.300265   
751.000000	6.516931   
751.500000	6.769295   
752.000000	6.762704   
752.500000	6.375204   
753.000000	5.879007   
753.500000	5.629545   
754.000000	5.533166   
754.500000	5.717356   
755.000000	5.899939   
755.500000	6.117015   
756.000000	6.063507   
756.500000	5.990878   
757.000000	5.629545   
757.500000	5.186234   
758.000000	4.732969   
758.500000	4.686795   
759.000000	4.910568   
759.500000	5.130393   
760.000000	5.241878   
760.500000	5.347818   
761.000000	5.386515   
761.500000	5.167333   
762.000000	4.815068   
762.500000	4.808916   
763.000000	4.887954   
763.500000	4.870136   
764.000000	4.576568   
764.500000	4.462886   
765.000000	4.582681   
765.500000	4.855227   
766.000000	5.001325   
766.500000	4.811825   
767.000000	4.423553   
767.500000	4.138196   
768.000000	4.237363   
768.500000	4.557772   
769.000000	4.745446   
769.500000	4.628636   
770.000000	4.178303   
770.500000	3.834939   
771.000000	3.749462   
771.500000	3.968015   
772.000000	3.946780   
772.500000	3.758000   
773.000000	3.611022   
773.500000	3.595560   
774.000000	3.598037   
774.500000	3.409780   
775.000000	3.243189   
775.500000	3.137893   
776.000000	3.278386   
776.500000	3.345590   
777.000000	3.516250   
777.500000	3.630765   
778.000000	3.755931   
778.500000	3.549863   
779.000000	3.274871   
779.500000	3.137401   
780.000000	3.345659   
780.500000	3.454803   
781.000000	3.417939   
781.500000	3.259181   
782.000000	3.238984   
782.500000	3.138871   
783.000000	3.112977   
783.500000	3.082386   
784.000000	3.192159   
784.500000	3.154371   
785.000000	3.132848   
785.500000	3.121272   
786.000000	3.052333   
786.500000	2.973227   
787.000000	2.798439   
787.500000	2.694734   
788.000000	2.566356   
788.500000	2.639196   
789.000000	2.743166   
789.500000	2.965825   
790.000000	3.041659   
790.500000	3.062500   
791.000000	2.976477   
791.500000	2.905166   
792.000000	2.888992   
792.500000	2.947386   
793.000000	3.027022   
793.500000	3.073257   
794.000000	3.025303   
794.500000	2.872356   
795.000000	2.680515   
795.500000	2.576681   
796.000000	2.450742   
796.500000	2.407477   
797.000000	2.355840   
797.500000	2.466371   
798.000000	2.532287   
798.500000	2.681446   
799.000000	2.665765   
799.500000	2.702598   
800.000000	2.523666   
800.500000	2.452977   
801.000000	2.337219   
801.500000	2.363515   
802.000000	2.297742   
802.500000	2.390734   
803.000000	2.354280   
803.500000	2.192507   
804.000000	1.920553   
804.500000	1.990181   
805.000000	2.310424   
805.500000	2.458439   
806.000000	2.266106   
806.500000	2.117045   
807.000000	2.216749   
807.500000	2.340318   
808.000000	2.256916   
808.500000	2.194454   
809.000000	2.223909   
809.500000	2.193250   
810.000000	2.035659   
810.500000	1.877363   
811.000000	1.886712   
811.500000	1.833583   
812.000000	1.798060   
812.500000	1.708143   
813.000000	1.742507   
813.500000	1.693295   
814.000000	1.664030   
814.500000	1.572492   
815.000000	1.521492   
815.500000	1.538090   
816.000000	1.609628   
816.500000	1.724712   
817.000000	1.808189   
817.500000	1.876022   
818.000000	1.897037   
818.500000	1.957242   
819.000000	1.996212   
819.500000	1.939128   
820.000000	1.861613   
820.500000	1.925174   
821.000000	2.162257   
821.500000	2.338356   
822.000000	2.422189   
822.500000	2.348628   
823.000000	2.340348   
823.500000	2.311098   
824.000000	2.327492   
824.500000	2.372113   
825.000000	2.556530   
825.500000	2.689840   
826.000000	2.576931   
826.500000	2.184151   
827.000000	1.988840   
827.500000	2.098348   
828.000000	2.119606   
828.500000	1.892181   
829.000000	1.646113   
829.500000	1.539568   
830.000000	1.462454   
830.500000	1.273992   
831.000000	1.093257   
831.500000	1.079712   
832.000000	1.078810   
832.500000	1.119931   
833.000000	1.096893   
833.500000	1.009825   
834.000000	0.870469   
834.500000	0.847196   
835.000000	0.859212   
835.500000	0.882666   
836.000000	0.874719   
836.500000	0.950348   
837.000000	1.068863   
837.500000	1.085318   
838.000000	1.029272   
838.500000	0.973886   
839.000000	0.926287   
839.500000	0.816439   
840.000000	0.677719   
840.500000	0.672734   
841.000000	0.795424   
841.500000	0.927454   
842.000000	0.892075   
842.500000	0.841181   
843.000000	0.860681   
843.500000	0.836636   
844.000000	0.697787   
844.500000	0.544848   
845.000000	0.568477   
845.500000	0.556810   
846.000000	0.554939   
846.500000	0.581166   
847.000000	0.670742   
847.500000	0.488401   
848.000000	0.183598   
848.500000	0.068886   
849.000000	0.234022   
849.500000	0.403659   
850.000000	0.365568   
850.500000	0.336166   
851.000000	0.346742   
851.500000	0.370462   
852.000000	0.182977   
852.500000	-0.082037  
853.000000	-0.198803  
853.500000	-0.026166  
854.000000	0.193628   
854.500000	0.155803   
855.000000	0.091507   
855.500000	0.102446   
856.000000	0.253772   
856.500000	0.274590   
857.000000	0.266219   
857.500000	0.218840   
858.000000	0.174848   
858.500000	0.033560   
859.000000	-0.114143  
859.500000	-0.171045  
860.000000	-0.134393  
860.500000	-0.052424  
861.000000	0.045969   
861.500000	0.085166   
862.000000	0.126984   
862.500000	0.175515   
863.000000	0.275568   
863.500000	0.332765   
864.000000	0.277030   
864.500000	0.076083   
865.000000	-0.137636  
865.500000	-0.258916  
866.000000	-0.201386  
866.500000	-0.055659  
867.000000	0.040363   
867.500000	-0.045606  
868.000000	-0.184878  
868.500000	-0.243113  
869.000000	-0.078681  
869.500000	0.144977   
870.000000	0.322780   
870.500000	0.323712   
871.000000	0.215613   
871.500000	0.058651   
872.000000	-0.031750  
872.500000	-0.048401  
873.000000	0.001651   
873.500000	0.024113   
874.000000	0.028977   
874.500000	-0.027204  
875.000000	-0.038712  
875.500000	-0.029272  
876.000000	0.058340   
876.500000	0.092765   
877.000000	0.053916   
877.500000	-0.064212  
878.000000	-0.184825  
878.500000	-0.147946  
879.000000	-0.024348  
879.500000	0.158340   
880.000000	0.248575   
880.500000	0.295757   
881.000000	0.264037   
881.500000	0.167810   
882.000000	0.037992   
882.500000	0.067446   
883.000000	0.201469   
883.500000	0.240628   
884.000000	0.116939   
884.500000	-0.030098  
885.000000	-0.089787  
885.500000	-0.091545  
886.000000	-0.131681  
886.500000	-0.118757  
887.000000	-0.103704  
887.500000	-0.155522  
888.000000	-0.244878  
888.500000	-0.231492  
889.000000	-0.106803  
889.500000	0.000712   
890.000000	0.012340   
890.500000	-0.024666  
891.000000	0.030045   
891.500000	0.084393   
892.000000	0.048931   
892.500000	-0.156659  
893.000000	-0.318000  
893.500000	-0.313378  
894.000000	-0.178840  
894.500000	0.004371   
895.000000	0.107000   
895.500000	0.142992   
896.000000	0.035212   
896.500000	0.057083   
897.000000	0.144568   
897.500000	0.215924   

