PE FL                   SPECTRUM    ASCII       PEDS        1.60        
  -1
SA93B5~1.SP
24/04/12
16:36:15.00
24/04/12
16:36:15.00
Jan

897.500000
1









LS55
405.00
5.00
5.00
SCAN
1
20
100
100
0
400
0
1
0
1
5
ON
450 405 
1 0 0
#HDR
-1
-1
#GR
NM

0.00002384185791015625
0.0
450.000000
0.500000
896
8
262.788272
-0.340257
#DATA
450.000000	0.137000   
450.500000	0.248515   
451.000000	0.376833   
451.500000	0.430901   
452.000000	0.272257   
452.500000	0.108121   
453.000000	0.045795   
453.500000	0.177310   
454.000000	0.236446   
454.500000	0.146318   
455.000000	-0.058234  
455.500000	-0.227878  
456.000000	-0.313356  
456.500000	-0.340257  
457.000000	-0.299484  
457.500000	-0.163265  
458.000000	0.002560   
458.500000	0.105454   
459.000000	0.105939   
459.500000	0.058727   
460.000000	-0.057795  
460.500000	-0.124734  
461.000000	-0.122257  
461.500000	0.005818   
462.000000	0.025401   
462.500000	-0.005378  
463.000000	-0.126492  
463.500000	-0.134916  
464.000000	-0.162121  
464.500000	0.028787   
465.000000	0.104219   
465.500000	0.126068   
466.000000	-0.009022  
466.500000	0.023098   
467.000000	0.098621   
467.500000	0.187856   
468.000000	0.097045   
468.500000	0.170007   
469.000000	0.306075   
469.500000	0.453386   
470.000000	0.394325   
470.500000	0.268015   
471.000000	0.128083   
471.500000	0.136765   
472.000000	0.107151   
472.500000	0.074060   
473.000000	0.086477   
473.500000	0.051825   
474.000000	-0.013537  
474.500000	-0.150356  
475.000000	-0.146568  
475.500000	-0.032272  
476.000000	0.112583   
476.500000	0.070189   
477.000000	0.102318   
477.500000	0.048477   
478.000000	0.093393   
478.500000	-0.018484  
479.000000	-0.008196  
479.500000	-0.012803  
480.000000	0.100174   
480.500000	0.081628   
481.000000	0.095787   
481.500000	0.133651   
482.000000	0.243939   
482.500000	0.306992   
483.000000	0.225257   
483.500000	0.156431   
484.000000	0.199643   
484.500000	0.263272   
485.000000	0.305757   
485.500000	0.275348   
486.000000	0.272931   
486.500000	0.272537   
487.000000	0.274712   
487.500000	0.223136   
488.000000	0.126659   
488.500000	0.027856   
489.000000	-0.041204  
489.500000	0.028924   
490.000000	0.010825   
490.500000	-0.006166  
491.000000	-0.123984  
491.500000	-0.135719  
492.000000	-0.156007  
492.500000	-0.025053  
493.000000	0.185598   
493.500000	0.458303   
494.000000	0.442590   
494.500000	0.257189   
495.000000	0.182484   
495.500000	0.331340   
496.000000	0.382098   
496.500000	0.331204   
497.000000	0.321007   
497.500000	0.357689   
498.000000	0.199257   
498.500000	0.010613   
499.000000	0.070257   
499.500000	0.327090   
500.000000	0.393810   
500.500000	0.353174   
501.000000	0.336174   
501.500000	0.386439   
502.000000	0.293007   
502.500000	0.366090   
503.000000	0.499901   
503.500000	0.693386   
504.000000	0.643863   
504.500000	0.689522   
505.000000	0.785924   
505.500000	0.897628   
506.000000	0.857757   
506.500000	0.800212   
507.000000	0.724840   
507.500000	0.709522   
508.000000	0.771037   
508.500000	0.805984   
509.000000	0.816340   
509.500000	0.843378   
510.000000	0.906878   
510.500000	1.000590   
511.000000	1.077287   
511.500000	1.262189   
512.000000	1.339530   
512.500000	1.302507   
513.000000	1.131128   
513.500000	1.094825   
514.000000	1.108636   
514.500000	1.333022   
515.000000	1.505530   
515.500000	1.648810   
516.000000	1.852553   
516.500000	2.110590   
517.000000	2.231053   
517.500000	2.114439   
518.000000	1.926234   
518.500000	1.722954   
519.000000	1.777530   
519.500000	1.960325   
520.000000	2.333871   
520.500000	2.516977   
521.000000	2.613106   
521.500000	2.605401   
522.000000	2.472992   
522.500000	2.251575   
523.000000	2.223560   
523.500000	2.565931   
524.000000	2.894295   
524.500000	3.090045   
525.000000	3.065962   
525.500000	3.083121   
526.000000	3.135621   
526.500000	3.189545   
527.000000	3.265689   
527.500000	3.383204   
528.000000	3.683212   
528.500000	4.025045   
529.000000	4.325045   
529.500000	4.575227   
530.000000	4.779393   
530.500000	4.988295   
531.000000	5.118386   
531.500000	5.392696   
532.000000	5.654689   
532.500000	5.869560   
533.000000	5.991765   
533.500000	6.091590   
534.000000	6.309189   
534.500000	6.300992   
535.000000	6.346886   
535.500000	6.501992   
536.000000	7.105583   
536.500000	7.655128   
537.000000	8.155022   
537.500000	8.424886   
538.000000	8.876356   
538.500000	9.263045   
539.000000	9.576151   
539.500000	9.758613   
540.000000	10.188515  
540.500000	10.577356  
541.000000	10.870553  
541.500000	10.785939  
542.000000	10.936977  
542.500000	11.183939  
543.000000	11.442886  
543.500000	11.302280  
544.000000	11.099151  
544.500000	10.958007  
545.000000	11.127719  
545.500000	11.436606  
546.000000	11.672878  
546.500000	11.439613  
547.000000	10.980295  
547.500000	11.017674  
548.000000	11.549621  
548.500000	11.884946  
549.000000	11.606106  
549.500000	11.476969  
550.000000	11.728000  
550.500000	12.122628  
551.000000	11.924356  
551.500000	11.723719  
552.000000	11.672257  
552.500000	11.708136  
553.000000	11.366856  
553.500000	11.035704  
554.000000	11.185954  
554.500000	11.719515  
555.000000	12.159750  
555.500000	12.134924  
556.000000	12.315803  
556.500000	12.569840  
557.000000	12.906787  
557.500000	12.867113  
558.000000	12.989234  
558.500000	13.260727  
559.000000	13.697681  
559.500000	13.957833  
560.000000	14.260060  
560.500000	14.746840  
561.000000	15.566681  
561.500000	16.375757  
562.000000	16.841863  
562.500000	16.927712  
563.000000	16.984515  
563.500000	17.240681  
564.000000	17.822477  
564.500000	18.491121  
565.000000	19.223696  
565.500000	19.621477  
566.000000	19.568303  
566.500000	19.892886  
567.000000	20.704621  
567.500000	21.570022  
568.000000	21.522477  
568.500000	21.570204  
569.000000	22.406560  
569.500000	23.849053  
570.000000	24.458598  
570.500000	24.430363  
571.000000	24.472174  
571.500000	25.009681  
572.000000	25.656143  
572.500000	25.891795  
573.000000	26.032287  
573.500000	26.284333  
574.000000	26.546984  
574.500000	26.766598  
575.000000	27.134037  
575.500000	27.828780  
576.000000	28.945143  
576.500000	29.594242  
577.000000	30.058931  
577.500000	30.438000  
578.000000	30.858166  
578.500000	30.519568  
579.000000	30.111113  
579.500000	30.278469  
580.000000	31.775151  
580.500000	33.260909  
581.000000	34.136159  
581.500000	34.381378  
582.000000	34.856704  
582.500000	35.559749  
583.000000	36.404553  
583.500000	36.997674  
584.000000	37.668431  
584.500000	38.273325  
585.000000	38.705227  
585.500000	39.579901  
586.000000	40.989727  
586.500000	42.753909  
587.000000	43.707166  
587.500000	43.979068  
588.000000	44.558886  
588.500000	46.017151  
589.000000	47.316272  
589.500000	47.597863  
590.000000	46.976439  
590.500000	46.893409  
591.000000	48.011522  
591.500000	50.313651  
592.000000	52.101689  
592.500000	53.182469  
593.000000	53.948537  
593.500000	55.390901  
594.000000	56.342803  
594.500000	56.566553  
595.000000	56.910083  
595.500000	58.290863  
596.000000	60.482651  
596.500000	61.818954  
597.000000	62.370053  
597.500000	62.604363  
598.000000	64.044537  
598.500000	66.501227  
599.000000	68.930363  
599.500000	70.202000  
600.000000	70.859136  
600.500000	72.000500  
601.000000	73.020962  
601.500000	73.580734  
602.000000	73.589416  
602.500000	74.467272  
603.000000	76.020500  
603.500000	78.110765  
604.000000	80.303492  
604.500000	82.078401  
605.000000	83.051795  
605.500000	83.600022  
606.000000	85.024219  
606.500000	86.810136  
607.000000	88.562742  
607.500000	89.960681  
608.000000	91.817863  
608.500000	93.685242  
609.000000	95.445022  
609.500000	97.225916  
610.000000	99.526333  
610.500000	102.167128 
611.000000	105.123742 
611.500000	107.250136 
612.000000	107.920696 
612.500000	107.766727 
613.000000	108.744045 
613.500000	111.317909 
614.000000	114.144734 
614.500000	116.484681 
615.000000	118.501863 
615.500000	121.327045 
616.000000	124.407007 
616.500000	127.002734 
617.000000	128.437166 
617.500000	130.119356 
618.000000	132.672272 
618.500000	136.002053 
619.000000	138.440507 
619.500000	139.482750 
620.000000	140.311795 
620.500000	142.412242 
621.000000	145.645113 
621.500000	149.263810 
622.000000	152.722189 
622.500000	155.398340 
623.000000	157.539196 
623.500000	159.542765 
624.000000	161.838954 
624.500000	164.170477 
625.000000	166.777742 
625.500000	170.115174 
626.000000	173.827325 
626.500000	176.384651 
627.000000	177.404325 
627.500000	178.435128 
628.000000	181.608712 
628.500000	186.743606 
629.000000	193.039689 
629.500000	197.574333 
630.000000	199.558462 
630.500000	199.606515 
631.000000	200.144742 
631.500000	202.766924 
632.000000	205.983265 
632.500000	207.650318 
633.000000	207.915901 
633.500000	209.740613 
634.000000	213.658083 
634.500000	217.445946 
635.000000	219.816810 
635.500000	221.148356 
636.000000	223.544174 
636.500000	226.325189 
637.000000	228.935007 
637.500000	231.445075 
638.000000	233.564757 
638.500000	234.731462 
639.000000	235.310371 
639.500000	236.400500 
640.000000	237.446765 
640.500000	240.000128 
641.000000	243.814568 
641.500000	248.045969 
642.000000	250.306356 
642.500000	249.668750 
643.000000	249.546507 
643.500000	251.811325 
644.000000	255.564848 
644.500000	257.468022 
645.000000	257.603901 
645.500000	256.529075 
646.000000	256.723818 
646.500000	256.874409 
647.000000	256.857659 
647.500000	256.368075 
648.000000	256.846553 
648.500000	258.548954 
649.000000	259.636356 
649.500000	259.802840 
650.000000	260.161136 
650.500000	261.864325 
651.000000	262.788272 
651.500000	261.970037 
652.000000	260.157227 
652.500000	259.159780 
653.000000	258.761659 
653.500000	258.916439 
654.000000	258.005659 
654.500000	255.803318 
655.000000	253.241863 
655.500000	252.033484 
656.000000	250.144492 
656.500000	248.253189 
657.000000	246.829515 
657.500000	247.405787 
658.000000	247.505272 
658.500000	245.246696 
659.000000	241.331992 
659.500000	237.319469 
660.000000	235.097916 
660.500000	234.359659 
661.000000	232.839007 
661.500000	229.246530 
662.000000	225.017901 
662.500000	221.670522 
663.000000	218.661659 
663.500000	216.439696 
664.000000	213.914409 
664.500000	211.691378 
665.000000	208.748242 
665.500000	205.917765 
666.000000	202.483295 
666.500000	198.511924 
667.000000	194.259924 
667.500000	190.998462 
668.000000	188.044075 
668.500000	184.603121 
669.000000	179.915681 
669.500000	175.210000 
670.000000	170.766840 
670.500000	167.129484 
671.000000	162.768446 
671.500000	158.587704 
672.000000	153.976825 
672.500000	150.531363 
673.000000	146.884992 
673.500000	144.336250 
674.000000	141.110750 
674.500000	137.245545 
675.000000	132.550000 
675.500000	129.123681 
676.000000	126.859636 
676.500000	123.444833 
677.000000	119.012931 
677.500000	115.165090 
678.000000	113.449939 
678.500000	111.680825 
679.000000	108.372537 
679.500000	103.745121 
680.000000	99.249583  
680.500000	96.621499  
681.000000	94.799712  
681.500000	92.952727  
682.000000	90.209250  
682.500000	87.458128  
683.000000	84.669871  
683.500000	81.918196  
684.000000	79.194037  
684.500000	77.091666  
685.000000	75.574098  
685.500000	73.949931  
686.000000	71.500734  
686.500000	68.423295  
687.000000	64.968287  
687.500000	62.585287  
688.000000	61.281772  
688.500000	60.221515  
689.000000	58.580962  
689.500000	56.444462  
690.000000	54.473553  
690.500000	52.975833  
691.000000	51.638734  
691.500000	49.911053  
692.000000	48.124674  
692.500000	46.365287  
693.000000	44.695000  
693.500000	43.215439  
694.000000	41.729651  
694.500000	40.171007  
695.000000	38.887909  
695.500000	38.327515  
696.000000	38.340409  
696.500000	37.601325  
697.000000	35.760878  
697.500000	33.697295  
698.000000	32.803992  
698.500000	32.539348  
699.000000	32.105719  
699.500000	30.743871  
700.000000	29.244969  
700.500000	28.302287  
701.000000	28.145151  
701.500000	27.794106  
702.000000	26.837537  
702.500000	25.718454  
703.000000	24.925030  
703.500000	24.056712  
704.000000	22.916045  
704.500000	22.081863  
705.000000	21.794189  
705.500000	21.834250  
706.000000	21.524075  
706.500000	21.090484  
707.000000	20.480446  
707.500000	20.183257  
708.000000	20.063674  
708.500000	19.918189  
709.000000	19.388106  
709.500000	18.488310  
710.000000	17.839333  
710.500000	17.377704  
711.000000	17.166454  
711.500000	16.783030  
712.000000	16.360075  
712.500000	16.028045  
713.000000	16.040431  
713.500000	16.042227  
714.000000	15.832795  
714.500000	15.404113  
715.000000	14.964174  
715.500000	14.646204  
716.000000	14.247734  
716.500000	13.570060  
717.000000	12.657250  
717.500000	12.048340  
718.000000	11.863515  
718.500000	12.004537  
719.000000	11.823431  
719.500000	11.666909  
720.000000	11.414954  
720.500000	11.309727  
721.000000	10.875734  
721.500000	10.345992  
722.000000	9.997757   
722.500000	10.009454  
723.000000	10.144553  
723.500000	10.052492  
724.000000	9.974151   
724.500000	9.769257   
725.000000	9.478037   
725.500000	8.905643   
726.000000	8.558825   
726.500000	8.627553   
727.000000	8.722000   
727.500000	8.668401   
728.000000	8.426530   
728.500000	8.148204   
729.000000	7.806893   
729.500000	7.672689   
730.000000	7.823060   
730.500000	8.209492   
731.000000	8.231204   
731.500000	7.711212   
732.000000	6.929931   
732.500000	6.582181   
733.000000	6.728249   
733.500000	7.357590   
734.000000	7.737727   
734.500000	7.769439   
735.000000	7.240856   
735.500000	6.687196   
736.000000	6.370325   
736.500000	6.162696   
737.000000	5.972803   
737.500000	5.773901   
738.000000	5.931295   
738.500000	6.056424   
739.000000	6.306545   
739.500000	6.345719   
740.000000	6.333045   
740.500000	5.958469   
741.000000	5.697265   
741.500000	5.694666   
742.000000	6.011386   
742.500000	6.233878   
743.000000	6.154356   
743.500000	5.942462   
744.000000	5.842727   
744.500000	5.854287   
745.000000	5.724363   
745.500000	5.382636   
746.000000	4.997575   
746.500000	4.789719   
747.000000	4.628484   
747.500000	4.536840   
748.000000	4.702500   
748.500000	5.199318   
749.000000	5.530946   
749.500000	5.444901   
750.000000	4.997106   
750.500000	4.581886   
751.000000	4.366113   
751.500000	4.367750   
752.000000	4.399348   
752.500000	4.469909   
753.000000	4.553174   
753.500000	4.840522   
754.000000	4.945893   
754.500000	4.840886   
755.000000	4.378075   
755.500000	4.240348   
756.000000	4.156568   
756.500000	4.322409   
757.000000	4.279742   
757.500000	4.267643   
758.000000	4.051098   
758.500000	3.954681   
759.000000	3.824045   
759.500000	3.883780   
760.000000	3.954856   
760.500000	4.087340   
761.000000	3.990393   
761.500000	3.876424   
762.000000	3.743727   
762.500000	3.799734   
763.000000	3.705242   
763.500000	3.573954   
764.000000	3.525962   
764.500000	3.718742   
765.000000	4.028560   
765.500000	4.136621   
766.000000	3.932409   
766.500000	3.477727   
767.000000	3.225818   
767.500000	3.250310   
768.000000	3.387765   
768.500000	3.462621   
769.000000	3.573500   
769.500000	3.702234   
770.000000	3.522719   
770.500000	3.224151   
771.000000	3.021303   
771.500000	3.168719   
772.000000	3.241015   
772.500000	3.193098   
773.000000	3.050090   
773.500000	3.039992   
774.000000	3.070878   
774.500000	3.117484   
775.000000	3.140825   
775.500000	3.124560   
776.000000	2.998719   
776.500000	2.890780   
777.000000	2.958393   
777.500000	3.115984   
778.000000	3.124515   
778.500000	3.055454   
779.000000	3.206719   
779.500000	3.463113   
780.000000	3.429030   
780.500000	3.111780   
781.000000	2.917810   
781.500000	3.056606   
782.000000	3.153772   
782.500000	3.007537   
783.000000	2.845568   
783.500000	2.973530   
784.000000	3.086500   
784.500000	3.136325   
785.000000	3.087000   
785.500000	3.198227   
786.000000	3.084310   
786.500000	2.900257   
787.000000	2.629621   
787.500000	2.705333   
788.000000	2.777416   
788.500000	2.926651   
789.000000	2.917727   
789.500000	2.826477   
790.000000	2.665848   
790.500000	2.527772   
791.000000	2.500265   
791.500000	2.492007   
792.000000	2.647053   
792.500000	2.759659   
793.000000	2.757128   
793.500000	2.553628   
794.000000	2.526287   
794.500000	2.579409   
795.000000	2.708848   
795.500000	2.650174   
796.000000	2.638848   
796.500000	2.473598   
797.000000	2.355303   
797.500000	2.227871   
798.000000	2.342348   
798.500000	2.462477   
799.000000	2.478522   
799.500000	2.285606   
800.000000	2.063189   
800.500000	1.887393   
801.000000	1.853901   
801.500000	1.863628   
802.000000	1.941598   
802.500000	1.993719   
803.000000	2.034181   
803.500000	1.902712   
804.000000	1.749621   
804.500000	1.713568   
805.000000	1.736075   
805.500000	1.720643   
806.000000	1.565446   
806.500000	1.590939   
807.000000	1.788219   
807.500000	2.099401   
808.000000	2.281325   
808.500000	2.377219   
809.000000	2.179568   
809.500000	1.813348   
810.000000	1.535340   
810.500000	1.606901   
811.000000	1.887848   
811.500000	2.164166   
812.000000	2.122772   
812.500000	1.793818   
813.000000	1.359265   
813.500000	1.172750   
814.000000	1.313507   
814.500000	1.555053   
815.000000	1.598000   
815.500000	1.444409   
816.000000	1.402674   
816.500000	1.671696   
817.000000	1.992272   
817.500000	2.051598   
818.000000	1.844303   
818.500000	1.743553   
819.000000	1.789113   
819.500000	1.852636   
820.000000	1.842977   
820.500000	1.940803   
821.000000	2.095439   
821.500000	2.199833   
822.000000	2.283681   
822.500000	2.397310   
823.000000	2.548803   
823.500000	2.600295   
824.000000	2.516242   
824.500000	2.441068   
825.000000	2.468492   
825.500000	2.425272   
826.000000	2.338159   
826.500000	2.147439   
827.000000	1.968431   
827.500000	1.858901   
828.000000	1.912295   
828.500000	1.961469   
829.000000	1.962962   
829.500000	1.733325   
830.000000	1.458810   
830.500000	1.195378   
831.000000	1.080477   
831.500000	1.061280   
832.000000	1.100515   
832.500000	0.975287   
833.000000	0.879575   
833.500000	0.867893   
834.000000	1.016424   
834.500000	1.032750   
835.000000	0.968712   
835.500000	0.881992   
836.000000	0.980393   
836.500000	1.040916   
837.000000	0.990742   
837.500000	0.824893   
838.000000	0.743893   
838.500000	0.828909   
839.000000	0.935007   
839.500000	0.957977   
840.000000	0.909962   
840.500000	0.847128   
841.000000	0.763727   
841.500000	0.630840   
842.000000	0.551651   
842.500000	0.579409   
843.000000	0.616795   
843.500000	0.610757   
844.000000	0.440757   
844.500000	0.264000   
845.000000	0.088840   
845.500000	0.163045   
846.000000	0.369280   
846.500000	0.526272   
847.000000	0.402787   
847.500000	0.191454   
848.000000	0.204022   
848.500000	0.308181   
849.000000	0.320500   
849.500000	0.129075   
850.000000	0.153287   
850.500000	0.276250   
851.000000	0.325257   
851.500000	0.168250   
852.000000	0.220037   
852.500000	0.274840   
853.000000	0.355136   
853.500000	0.233537   
854.000000	0.308121   
854.500000	0.358810   
855.000000	0.473916   
855.500000	0.447416   
856.000000	0.370287   
856.500000	0.141060   
857.000000	-0.068901  
857.500000	-0.123212  
858.000000	-0.058136  
858.500000	0.008212   
859.000000	-0.044431  
859.500000	-0.130128  
860.000000	-0.199053  
860.500000	-0.171704  
861.000000	-0.065893  
861.500000	0.039431   
862.000000	0.092295   
862.500000	0.049545   
863.000000	0.053310   
863.500000	0.116143   
864.000000	0.169015   
864.500000	0.134492   
865.000000	0.090757   
865.500000	0.052484   
866.000000	0.009280   
866.500000	0.036522   
867.000000	0.125393   
867.500000	0.167015   
868.000000	0.094628   
868.500000	0.011068   
869.000000	0.068590   
869.500000	0.121295   
870.000000	0.092946   
870.500000	-0.044219  
871.000000	-0.136871  
871.500000	-0.118318  
872.000000	-0.013810  
872.500000	0.037803   
873.000000	-0.052045  
873.500000	-0.155318  
874.000000	-0.168977  
874.500000	-0.072060  
875.000000	0.017113   
875.500000	0.041022   
876.000000	0.029363   
876.500000	-0.009613  
877.000000	0.003492   
877.500000	0.014560   
878.000000	0.041287   
878.500000	-0.038325  
879.000000	-0.099492  
879.500000	-0.158469  
880.000000	-0.092734  
880.500000	-0.017106  
881.000000	0.125030   
881.500000	0.189962   
882.000000	0.119530   
882.500000	0.002484   
883.000000	-0.040795  
883.500000	0.047060   
884.000000	0.068242   
884.500000	-0.035810  
885.000000	-0.201409  
885.500000	-0.219280  
886.000000	-0.126560  
886.500000	-0.036651  
887.000000	0.014848   
887.500000	0.014143   
888.000000	0.072878   
888.500000	0.031098   
889.000000	-0.022166  
889.500000	-0.044742  
890.000000	0.024871   
890.500000	0.018727   
891.000000	-0.017992  
891.500000	-0.037757  
892.000000	0.001590   
892.500000	0.030189   
893.000000	0.014750   
893.500000	-0.025318  
894.000000	-0.113121  
894.500000	-0.258772  
895.000000	-0.330431  
895.500000	-0.261977  
896.000000	-0.070204  
896.500000	0.050280   
897.000000	0.067833   
897.500000	0.001939   

