PE FL                   SPECTRUM    ASCII       PEDS        1.60        
  -1
SA9399~1.SP
24/04/12
15:47:45.00
24/04/12
15:47:45.00
Jan

897.500000
1









LS55
405.00
5.00
5.00
SCAN
1
20
100
100
0
400
0
1
0
1
5
ON
450 405 
1 0 0
#HDR
-1
-1
#GR
NM

0.00002384185791015625
0.0
450.000000
0.500000
896
8
371.615545
-0.387409
#DATA
450.000000	-0.269000  
450.500000	-0.278969  
451.000000	-0.099196  
451.500000	0.131931   
452.000000	0.289212   
452.500000	0.220674   
453.000000	0.108174   
453.500000	0.060363   
454.000000	0.188295   
454.500000	0.184560   
455.000000	0.096068   
455.500000	-0.011083  
456.000000	0.104742   
456.500000	0.219757   
457.000000	0.213030   
457.500000	0.093068   
458.000000	0.089674   
458.500000	0.265280   
459.000000	0.403803   
459.500000	0.437977   
460.000000	0.236424   
460.500000	0.070431   
461.000000	0.046174   
461.500000	0.235363   
462.000000	0.400643   
462.500000	0.496053   
463.000000	0.512151   
463.500000	0.468590   
464.000000	0.377765   
464.500000	0.279750   
465.000000	0.260772   
465.500000	0.337734   
466.000000	0.362242   
466.500000	0.315931   
467.000000	0.183727   
467.500000	0.117333   
468.000000	0.132515   
468.500000	0.171719   
469.000000	0.197878   
469.500000	0.239083   
470.000000	0.342189   
470.500000	0.414863   
471.000000	0.428053   
471.500000	0.307303   
472.000000	0.129659   
472.500000	0.012272   
473.000000	0.097166   
473.500000	0.221787   
474.000000	0.318780   
474.500000	0.251742   
475.000000	0.239424   
475.500000	0.178818   
476.000000	0.241931   
476.500000	0.436954   
477.000000	0.686674   
477.500000	0.698462   
478.000000	0.506280   
478.500000	0.400939   
479.000000	0.360886   
479.500000	0.356477   
480.000000	0.191469   
480.500000	0.184280   
481.000000	0.259462   
481.500000	0.439454   
482.000000	0.451962   
482.500000	0.383795   
483.000000	0.199522   
483.500000	0.067287   
484.000000	-0.107409  
484.500000	-0.234833  
485.000000	-0.174462  
485.500000	0.101681   
486.000000	0.255772   
486.500000	0.139704   
487.000000	0.022136   
487.500000	0.198462   
488.000000	0.372598   
488.500000	0.305469   
489.000000	0.112530   
489.500000	0.088901   
490.000000	0.177628   
490.500000	0.297189   
491.000000	0.430068   
491.500000	0.629681   
492.000000	0.616537   
492.500000	0.477204   
493.000000	0.277742   
493.500000	0.285500   
494.000000	0.238750   
494.500000	0.264500   
495.000000	0.197795   
495.500000	0.288590   
496.000000	0.375265   
496.500000	0.542962   
497.000000	0.606537   
497.500000	0.608083   
498.000000	0.501431   
498.500000	0.401454   
499.000000	0.335053   
499.500000	0.353015   
500.000000	0.385500   
500.500000	0.439227   
501.000000	0.473287   
501.500000	0.543515   
502.000000	0.515174   
502.500000	0.496477   
503.000000	0.518462   
503.500000	0.698696   
504.000000	0.835181   
504.500000	0.858734   
505.000000	0.748643   
505.500000	0.603060   
506.000000	0.528371   
506.500000	0.615113   
507.000000	0.851681   
507.500000	1.035522   
508.000000	1.127257   
508.500000	1.002765   
509.000000	0.864606   
509.500000	0.749742   
510.000000	0.883075   
510.500000	1.078462   
511.000000	1.318265   
511.500000	1.326984   
512.000000	1.367734   
512.500000	1.299143   
513.000000	1.402780   
513.500000	1.446628   
514.000000	1.591643   
514.500000	1.512924   
515.000000	1.425522   
515.500000	1.319340   
516.000000	1.464484   
516.500000	1.478931   
517.000000	1.390098   
517.500000	1.399666   
518.000000	1.752424   
518.500000	2.257454   
519.000000	2.511265   
519.500000	2.541590   
520.000000	2.437340   
520.500000	2.338030   
521.000000	2.212750   
521.500000	2.190022   
522.000000	2.256621   
522.500000	2.197984   
523.000000	2.075946   
523.500000	1.995545   
524.000000	2.214424   
524.500000	2.525590   
525.000000	2.790484   
525.500000	2.849060   
526.000000	2.911621   
526.500000	3.071787   
527.000000	3.263053   
527.500000	3.322931   
528.000000	3.303742   
528.500000	3.323863   
529.000000	3.541515   
529.500000	3.820878   
530.000000	3.984121   
530.500000	4.189651   
531.000000	4.463166   
531.500000	4.855886   
532.000000	4.890424   
532.500000	4.931931   
533.000000	5.011151   
533.500000	5.497787   
534.000000	5.747477   
534.500000	6.073999   
535.000000	6.278803   
535.500000	6.651537   
536.000000	6.825681   
536.500000	7.323833   
537.000000	7.927492   
537.500000	8.371037   
538.000000	8.484939   
538.500000	8.307409   
539.000000	8.283022   
539.500000	8.311916   
540.000000	9.013954   
540.500000	9.766068   
541.000000	10.682568  
541.500000	10.915196  
542.000000	11.147189  
542.500000	11.193757  
543.000000	11.450212  
543.500000	11.655893  
544.000000	11.787189  
544.500000	11.700742  
545.000000	11.588719  
545.500000	11.663984  
546.000000	11.798060  
546.500000	11.817174  
547.000000	11.689893  
547.500000	11.799121  
548.000000	12.152454  
548.500000	12.240840  
549.000000	12.024356  
549.500000	11.761196  
550.000000	11.906000  
550.500000	11.995363  
551.000000	12.057295  
551.500000	11.928386  
552.000000	12.231219  
552.500000	12.381750  
553.000000	12.567234  
553.500000	12.542113  
554.000000	12.600613  
554.500000	12.690575  
555.000000	12.833265  
555.500000	13.049818  
556.000000	13.228575  
556.500000	13.461727  
557.000000	13.397000  
557.500000	13.381946  
558.000000	13.860325  
558.500000	14.709439  
559.000000	15.275234  
559.500000	14.982719  
560.000000	14.900810  
560.500000	15.240075  
561.000000	15.916075  
561.500000	16.039090  
562.000000	16.162386  
562.500000	16.418068  
563.000000	16.963227  
563.500000	17.466060  
564.000000	17.878181  
564.500000	18.008750  
565.000000	18.354886  
565.500000	19.027318  
566.000000	19.969060  
566.500000	20.383340  
567.000000	20.514795  
567.500000	20.921143  
568.000000	21.817159  
568.500000	22.855810  
569.000000	23.711803  
569.500000	24.732454  
570.000000	25.327537  
570.500000	25.508598  
571.000000	25.127727  
571.500000	25.339522  
572.000000	26.102469  
572.500000	27.768424  
573.000000	29.320939  
573.500000	30.177204  
574.000000	30.268674  
574.500000	30.164537  
575.000000	30.647356  
575.500000	31.587659  
576.000000	32.659984  
576.500000	33.068939  
577.000000	32.909522  
577.500000	32.623015  
578.000000	33.189522  
578.500000	34.489454  
579.000000	35.566037  
579.500000	36.016962  
580.000000	36.128863  
580.500000	36.789924  
581.000000	37.839469  
581.500000	38.640462  
582.000000	38.960825  
582.500000	39.135886  
583.000000	39.535871  
583.500000	40.066037  
584.000000	41.007909  
584.500000	42.253871  
585.000000	43.582159  
585.500000	44.439090  
586.000000	44.978916  
586.500000	46.076174  
587.000000	47.504143  
587.500000	48.650166  
588.000000	48.742363  
588.500000	49.062984  
589.000000	50.431757  
589.500000	52.452507  
590.000000	53.630810  
590.500000	54.093053  
591.000000	54.280075  
591.500000	54.936984  
592.000000	56.469598  
592.500000	58.760416  
593.000000	60.866257  
593.500000	62.541446  
594.000000	63.756810  
594.500000	64.754856  
595.000000	65.351219  
595.500000	65.852272  
596.000000	67.288424  
596.500000	69.633242  
597.000000	71.706196  
597.500000	72.951810  
598.000000	73.567227  
598.500000	74.504712  
599.000000	75.771613  
599.500000	77.587090  
600.000000	79.239015  
600.500000	80.734924  
601.000000	82.456378  
601.500000	84.247371  
602.000000	86.725393  
602.500000	88.427863  
603.000000	89.855037  
603.500000	91.020462  
604.000000	92.924439  
604.500000	94.754651  
605.000000	96.460333  
605.500000	98.545992  
606.000000	100.570477 
606.500000	102.746409 
607.000000	103.814060 
607.500000	105.220598 
608.000000	106.360212 
608.500000	108.967166 
609.000000	112.003871 
609.500000	115.636613 
610.000000	118.056363 
610.500000	119.544962 
611.000000	120.939803 
611.500000	123.139886 
612.000000	125.631931 
612.500000	128.116295 
613.000000	131.149484 
613.500000	134.407159 
614.000000	137.911946 
614.500000	140.354893 
615.000000	142.384553 
615.500000	144.113174 
616.000000	146.606840 
616.500000	149.347931 
617.000000	152.685401 
617.500000	155.678393 
618.000000	159.897712 
618.500000	163.323628 
619.000000	166.600401 
619.500000	168.682772 
620.000000	172.374431 
620.500000	176.652250 
621.000000	180.672227 
621.500000	183.345401 
622.000000	186.164280 
622.500000	188.978022 
623.000000	191.421871 
623.500000	194.204484 
624.000000	196.630401 
624.500000	199.009787 
625.000000	201.646719 
625.500000	205.608386 
626.000000	210.555795 
626.500000	215.582446 
627.000000	220.532007 
627.500000	225.468356 
628.000000	229.020522 
628.500000	231.753742 
629.000000	234.170371 
629.500000	237.985090 
630.000000	242.351310 
630.500000	246.602636 
631.000000	250.222681 
631.500000	254.077848 
632.000000	258.745469 
632.500000	262.437090 
633.000000	265.650575 
633.500000	268.835568 
634.000000	273.545272 
634.500000	277.370977 
635.000000	280.720159 
635.500000	284.639545 
636.000000	288.958090 
636.500000	293.124113 
637.000000	296.871090 
637.500000	301.047651 
638.000000	304.852212 
638.500000	307.714204 
639.000000	310.341295 
639.500000	314.246159 
640.000000	318.506098 
640.500000	321.988234 
641.000000	324.981424 
641.500000	327.984265 
642.000000	330.812583 
642.500000	333.972537 
643.000000	337.215159 
643.500000	341.642863 
644.000000	343.983151 
644.500000	345.197583 
645.000000	345.397257 
645.500000	347.464962 
646.000000	350.002962 
646.500000	353.680659 
647.000000	356.434098 
647.500000	358.979545 
648.000000	360.345924 
648.500000	361.832280 
649.000000	362.947174 
649.500000	363.979068 
650.000000	364.937401 
650.500000	366.073765 
651.000000	367.730037 
651.500000	369.563674 
652.000000	371.264962 
652.500000	371.522568 
653.000000	371.615545 
653.500000	371.185636 
654.000000	370.703022 
654.500000	368.343886 
655.000000	365.860856 
655.500000	364.335772 
656.000000	364.572356 
656.500000	364.100515 
657.000000	363.753818 
657.500000	364.161272 
658.000000	365.176492 
658.500000	364.259848 
659.000000	361.302636 
659.500000	357.368136 
660.000000	354.042704 
660.500000	351.003106 
661.000000	347.824992 
661.500000	344.610431 
662.000000	341.848310 
662.500000	340.339590 
663.000000	339.467939 
663.500000	337.287484 
664.000000	333.261007 
664.500000	328.825992 
665.000000	324.964871 
665.500000	322.250636 
666.000000	319.565136 
666.500000	316.890590 
667.000000	313.740234 
667.500000	310.707909 
668.000000	306.808954 
668.500000	302.686196 
669.000000	297.547227 
669.500000	292.868833 
670.000000	287.514181 
670.500000	282.195643 
671.000000	276.700530 
671.500000	272.038621 
672.000000	267.776666 
672.500000	263.924242 
673.000000	258.774515 
673.500000	252.488833 
674.000000	245.884409 
674.500000	240.126015 
675.000000	234.626378 
675.500000	228.957651 
676.000000	223.491545 
676.500000	218.409704 
677.000000	213.206757 
677.500000	207.416113 
678.000000	201.843651 
678.500000	196.705227 
679.000000	192.147969 
679.500000	187.656037 
680.000000	184.456469 
680.500000	181.816083 
681.000000	177.931015 
681.500000	171.072575 
682.000000	163.944242 
682.500000	158.608363 
683.000000	155.240575 
683.500000	150.896098 
684.000000	146.387083 
684.500000	142.412295 
685.000000	139.637098 
685.500000	135.982757 
686.000000	131.844106 
686.500000	127.385704 
687.000000	123.279803 
687.500000	119.467234 
688.000000	116.383553 
688.500000	112.957060 
689.000000	109.292833 
689.500000	105.799121 
690.000000	103.052659 
690.500000	100.138651 
691.000000	96.508674  
691.500000	93.153136  
692.000000	91.000962  
692.500000	88.434757  
693.000000	86.023075  
693.500000	83.360901  
694.000000	81.175515  
694.500000	77.967984  
695.000000	75.237106  
695.500000	72.426734  
696.000000	70.530643  
696.500000	68.121318  
697.000000	66.229045  
697.500000	64.213734  
698.000000	61.757363  
698.500000	59.182522  
699.000000	57.434348  
699.500000	56.628037  
700.000000	55.484954  
700.500000	53.113803  
701.000000	50.170469  
701.500000	48.210431  
702.000000	47.975227  
702.500000	48.105386  
703.000000	47.391749  
703.500000	45.523560  
704.000000	43.594704  
704.500000	41.816030  
705.000000	40.409015  
705.500000	39.169234  
706.000000	38.519189  
706.500000	37.962340  
707.000000	37.056098  
707.500000	35.679848  
708.000000	34.093628  
708.500000	33.267628  
709.000000	32.992303  
709.500000	32.937651  
710.000000	31.789113  
710.500000	30.723613  
711.000000	29.501257  
711.500000	28.848113  
712.000000	27.757606  
712.500000	27.007848  
713.000000	26.374083  
713.500000	26.231287  
714.000000	26.257386  
714.500000	25.954143  
715.000000	24.774863  
715.500000	23.161075  
716.000000	22.361363  
716.500000	22.263371  
717.000000	22.373871  
717.500000	21.996446  
718.000000	21.452015  
718.500000	20.596871  
719.000000	19.820000  
719.500000	19.193295  
720.000000	18.956325  
720.500000	18.449553  
721.000000	18.230431  
721.500000	18.483401  
722.000000	18.858189  
722.500000	18.327810  
723.000000	17.130742  
723.500000	16.142401  
724.000000	15.728075  
724.500000	15.403924  
725.000000	14.861659  
725.500000	14.421590  
726.000000	14.081878  
726.500000	13.758598  
727.000000	13.394893  
727.500000	13.227924  
728.000000	12.942075  
728.500000	12.705204  
729.000000	12.481598  
729.500000	12.646219  
730.000000	12.815583  
730.500000	12.951848  
731.000000	12.798545  
731.500000	12.378409  
732.000000	11.824666  
732.500000	11.364522  
733.000000	11.088772  
733.500000	10.699280  
734.000000	10.337189  
734.500000	10.294780  
735.000000	10.388446  
735.500000	10.513840  
736.000000	10.234507  
736.500000	9.965757   
737.000000	9.514810   
737.500000	9.436174   
738.000000	9.249651   
738.500000	9.218984   
739.000000	9.193863   
739.500000	9.266401   
740.000000	9.150469   
740.500000	8.772250   
741.000000	8.330568   
741.500000	8.065704   
742.000000	7.944446   
742.500000	7.780386   
743.000000	7.808348   
743.500000	7.948727   
744.000000	7.884181   
744.500000	7.633136   
745.000000	7.516795   
745.500000	7.709234   
746.000000	7.691606   
746.500000	7.387590   
747.000000	7.128810   
747.500000	7.247083   
748.000000	7.345681   
748.500000	7.126219   
749.000000	6.659136   
749.500000	6.339333   
750.000000	6.184575   
750.500000	6.235295   
751.000000	6.337090   
751.500000	6.316840   
752.000000	6.161636   
752.500000	5.862098   
753.000000	5.773484   
753.500000	5.844265   
754.000000	6.279393   
754.500000	6.266090   
755.000000	6.076022   
755.500000	5.514030   
756.000000	5.362931   
756.500000	5.377871   
757.000000	5.526318   
757.500000	5.511265   
758.000000	5.446871   
758.500000	5.500833   
759.000000	5.326924   
759.500000	5.136969   
760.000000	4.809462   
760.500000	4.792840   
761.000000	4.797893   
761.500000	4.937128   
762.000000	4.799242   
762.500000	4.846462   
763.000000	4.916893   
763.500000	5.157863   
764.000000	4.982174   
764.500000	4.784795   
765.000000	4.536325   
765.500000	4.572333   
766.000000	4.314280   
766.500000	4.106416   
767.000000	3.920780   
767.500000	4.064303   
768.000000	4.101750   
768.500000	4.186348   
769.000000	4.201446   
769.500000	4.197757   
770.000000	3.932356   
770.500000	3.608469   
771.000000	3.559704   
771.500000	3.789166   
772.000000	3.861257   
772.500000	3.728560   
773.000000	3.653060   
773.500000	3.730000   
774.000000	3.614727   
774.500000	3.441954   
775.000000	3.344530   
775.500000	3.443431   
776.000000	3.411401   
776.500000	3.436727   
777.000000	3.462893   
777.500000	3.433810   
778.000000	3.293530   
778.500000	3.182212   
779.000000	3.163287   
779.500000	3.142795   
780.000000	3.183280   
780.500000	3.155257   
781.000000	3.193575   
781.500000	3.190643   
782.000000	3.306090   
782.500000	3.276727   
783.000000	3.163674   
783.500000	2.991060   
784.000000	3.004265   
784.500000	3.043939   
785.000000	3.072659   
785.500000	3.013696   
786.000000	2.951780   
786.500000	2.927621   
787.000000	3.009356   
787.500000	3.112219   
788.000000	3.149575   
788.500000	3.103583   
789.000000	3.097856   
789.500000	3.160598   
790.000000	3.184916   
790.500000	3.069212   
791.000000	2.948621   
791.500000	2.855416   
792.000000	2.742681   
792.500000	2.713984   
793.000000	2.689424   
793.500000	2.632674   
794.000000	2.489439   
794.500000	2.576583   
795.000000	2.615939   
795.500000	2.646901   
796.000000	2.524833   
796.500000	2.629378   
797.000000	2.639340   
797.500000	2.554204   
798.000000	2.405121   
798.500000	2.485765   
799.000000	2.540166   
799.500000	2.481621   
800.000000	2.330636   
800.500000	2.272098   
801.000000	2.365651   
801.500000	2.521522   
802.000000	2.401477   
802.500000	2.186212   
803.000000	2.016803   
803.500000	2.037727   
804.000000	1.944174   
804.500000	1.887545   
805.000000	1.941848   
805.500000	2.012712   
806.000000	1.839045   
806.500000	1.599174   
807.000000	1.642719   
807.500000	1.718363   
808.000000	1.775242   
808.500000	1.769045   
809.000000	1.836363   
809.500000	1.784659   
810.000000	1.709636   
810.500000	1.740734   
811.000000	1.982484   
811.500000	2.260189   
812.000000	2.290689   
812.500000	2.077121   
813.000000	1.659469   
813.500000	1.372750   
814.000000	1.224742   
814.500000	1.398030   
815.000000	1.577325   
815.500000	1.760356   
816.000000	1.701757   
816.500000	1.695159   
817.000000	1.829659   
817.500000	1.906962   
818.000000	1.748931   
818.500000	1.466219   
819.000000	1.505280   
819.500000	1.823803   
820.000000	2.218462   
820.500000	2.354901   
821.000000	2.366507   
821.500000	2.432462   
822.000000	2.503643   
822.500000	2.656416   
823.000000	2.670053   
823.500000	2.664219   
824.000000	2.474924   
824.500000	2.351704   
825.000000	2.318113   
825.500000	2.461674   
826.000000	2.520969   
826.500000	2.577696   
827.000000	2.451840   
827.500000	2.241765   
828.000000	1.946053   
828.500000	1.858007   
829.000000	1.776643   
829.500000	1.787750   
830.000000	1.616575   
830.500000	1.477780   
831.000000	1.302780   
831.500000	1.102939   
832.000000	0.834803   
832.500000	0.690946   
833.000000	0.755318   
833.500000	0.931795   
834.000000	1.096492   
834.500000	1.249371   
835.000000	1.351090   
835.500000	1.333795   
836.000000	1.115742   
836.500000	1.025613   
837.000000	0.994977   
837.500000	0.960446   
838.000000	0.822780   
838.500000	0.841143   
839.000000	0.970977   
839.500000	1.077515   
840.000000	1.074030   
840.500000	0.976310   
841.000000	0.927765   
841.500000	0.798234   
842.000000	0.729333   
842.500000	0.586765   
843.000000	0.610287   
843.500000	0.559780   
844.000000	0.662318   
844.500000	0.552772   
845.000000	0.576272   
845.500000	0.526348   
846.000000	0.599318   
846.500000	0.458250   
847.000000	0.354121   
847.500000	0.287515   
848.000000	0.439174   
848.500000	0.518181   
849.000000	0.469674   
849.500000	0.293871   
850.000000	0.095318   
850.500000	0.014159   
851.000000	0.077401   
851.500000	0.226522   
852.000000	0.212992   
852.500000	0.114030   
853.000000	0.062181   
853.500000	0.227242   
854.000000	0.329280   
854.500000	0.394712   
855.000000	0.311734   
855.500000	0.220992   
856.000000	0.034977   
856.500000	-0.017325  
857.000000	0.021022   
857.500000	0.091628   
858.000000	0.065628   
858.500000	-0.010954  
859.000000	-0.193856  
859.500000	-0.387409  
860.000000	-0.365818  
860.500000	-0.087651  
861.000000	0.202227   
861.500000	0.203136   
862.000000	0.003712   
862.500000	-0.106613  
863.000000	-0.123333  
863.500000	-0.069742  
864.000000	-0.035871  
864.500000	0.003621   
865.000000	0.067833   
865.500000	0.110083   
866.000000	0.100977   
866.500000	0.013810   
867.000000	-0.068053  
867.500000	-0.076272  
868.000000	-0.008636  
868.500000	-0.037242  
869.000000	-0.076666  
869.500000	-0.049204  
870.000000	0.094969   
870.500000	0.182424   
871.000000	0.152462   
871.500000	0.021234   
872.000000	-0.070719  
872.500000	-0.065409  
873.000000	0.005439   
873.500000	0.059704   
874.000000	0.053537   
874.500000	0.032272   
875.000000	0.068060   
875.500000	0.139431   
876.000000	0.158924   
876.500000	0.063946   
877.000000	-0.026962  
877.500000	-0.034363  
878.000000	0.024204   
878.500000	0.016742   
879.000000	-0.020651  
879.500000	0.018893   
880.000000	0.108560   
880.500000	0.122227   
881.000000	0.010507   
881.500000	-0.121371  
882.000000	-0.123151  
882.500000	-0.095825  
883.000000	-0.058621  
883.500000	-0.072030  
884.000000	-0.034507  
884.500000	0.017015   
885.000000	0.075931   
885.500000	0.098439   
886.000000	0.095712   
886.500000	0.157484   
887.000000	0.215636   
887.500000	0.225772   
888.000000	0.084909   
888.500000	-0.001886  
889.000000	0.004598   
889.500000	0.117818   
890.000000	0.185840   
890.500000	0.142363   
891.000000	-0.003250  
891.500000	-0.089893  
892.000000	-0.029969  
892.500000	0.083045   
893.000000	0.142893   
893.500000	0.140628   
894.000000	0.169136   
894.500000	0.153878   
895.000000	0.141310   
895.500000	0.124454   
896.000000	0.107954   
896.500000	0.003613   
897.000000	-0.050030  
897.500000	-0.044613  

