PE FL                   SPECTRUM    ASCII       PEDS        1.60        
  -1
SAA39D~1.SP
24/04/12
16:59:04.00
24/04/12
16:59:04.00
Jan

897.500000
1









LS55
405.00
5.00
5.00
SCAN
1
20
100
100
0
400
0
1
0
1
5
ON
450 405 
1 0 0
#HDR
-1
-1
#GR
NM

0.00002384185791015625
0.0
450.000000
0.500000
896
8
219.334090
-0.417371
#DATA
450.000000	-0.401000  
450.500000	0.105136   
451.000000	0.221075   
451.500000	0.021916   
452.000000	-0.108909  
452.500000	-0.188848  
453.000000	-0.100189  
453.500000	0.038795   
454.000000	0.195613   
454.500000	-0.026568  
455.000000	-0.202613  
455.500000	-0.223954  
456.000000	0.042568   
456.500000	0.176212   
457.000000	0.238507   
457.500000	0.140113   
458.000000	-0.018393  
458.500000	-0.189560  
459.000000	-0.194143  
459.500000	-0.007515  
460.000000	0.089166   
460.500000	0.088068   
461.000000	0.006007   
461.500000	-0.047439  
462.000000	-0.175143  
462.500000	-0.260522  
463.000000	-0.237606  
463.500000	-0.099416  
464.000000	0.006977   
464.500000	-0.131045  
465.000000	-0.235340  
465.500000	-0.196810  
466.000000	0.062924   
466.500000	0.120424   
467.000000	0.065628   
467.500000	-0.026515  
468.000000	0.054901   
468.500000	0.052325   
469.000000	0.017378   
469.500000	0.072318   
470.000000	0.216030   
470.500000	0.319500   
471.000000	0.312219   
471.500000	0.245666   
472.000000	0.202674   
472.500000	0.174060   
473.000000	0.187787   
473.500000	0.180234   
474.000000	0.127393   
474.500000	0.103969   
475.000000	0.145204   
475.500000	0.202007   
476.000000	0.212651   
476.500000	0.097613   
477.000000	-0.048068  
477.500000	-0.167015  
478.000000	-0.122606  
478.500000	-0.065962  
479.000000	0.076151   
479.500000	0.084939   
480.000000	0.056454   
480.500000	-0.262750  
481.000000	-0.417371  
481.500000	-0.259886  
482.000000	0.161833   
482.500000	0.300795   
483.000000	0.165424   
483.500000	-0.009143  
484.000000	-0.079772  
484.500000	-0.055893  
485.000000	-0.033416  
485.500000	0.083765   
486.000000	0.150962   
486.500000	0.183560   
487.000000	0.181628   
487.500000	0.255507   
488.000000	0.350106   
488.500000	0.183500   
489.000000	-0.163651  
489.500000	-0.373060  
490.000000	-0.225409  
490.500000	0.073545   
491.000000	0.259909   
491.500000	0.355833   
492.000000	0.269409   
492.500000	0.083113   
493.000000	-0.182916  
493.500000	-0.212643  
494.000000	-0.134984  
494.500000	-0.065143  
495.000000	0.025386   
495.500000	0.154159   
496.000000	0.341696   
496.500000	0.338303   
497.000000	0.252704   
497.500000	0.151810   
498.000000	0.230287   
498.500000	0.280151   
499.000000	0.207757   
499.500000	0.041765   
500.000000	-0.055545  
500.500000	-0.075204  
501.000000	-0.034530  
501.500000	0.093719   
502.000000	0.363037   
502.500000	0.637098   
503.000000	0.865007   
503.500000	0.823742   
504.000000	0.742219   
504.500000	0.636833   
505.000000	0.680037   
505.500000	0.725590   
506.000000	0.816181   
506.500000	0.783356   
507.000000	0.747431   
507.500000	0.621462   
508.000000	0.699606   
508.500000	0.829772   
509.000000	0.995462   
509.500000	0.980810   
510.000000	1.013583   
510.500000	0.951454   
511.000000	0.999393   
511.500000	1.075030   
512.000000	1.370022   
512.500000	1.630568   
513.000000	1.790553   
513.500000	1.698742   
514.000000	1.687143   
514.500000	1.594712   
515.000000	1.711363   
515.500000	1.791371   
516.000000	2.047204   
516.500000	2.164431   
517.000000	2.364962   
517.500000	2.415378   
518.000000	2.464984   
518.500000	2.169878   
519.000000	1.994257   
519.500000	2.096446   
520.000000	2.527666   
520.500000	2.655863   
521.000000	2.420750   
521.500000	2.091174   
522.000000	2.191204   
522.500000	2.559325   
523.000000	2.850893   
523.500000	2.887643   
524.000000	2.851181   
524.500000	2.890568   
525.000000	2.949287   
525.500000	2.949840   
526.000000	2.978477   
526.500000	3.172666   
527.000000	3.529931   
527.500000	3.823068   
528.000000	3.924166   
528.500000	3.895742   
529.000000	4.101022   
529.500000	4.419606   
530.000000	4.582439   
530.500000	4.573893   
531.000000	4.675431   
531.500000	5.066553   
532.000000	5.582893   
532.500000	6.112545   
533.000000	6.560234   
533.500000	7.126340   
534.000000	7.465356   
534.500000	7.862068   
535.000000	8.083446   
535.500000	8.351409   
536.000000	8.349424   
536.500000	8.444000   
537.000000	8.454204   
537.500000	9.021734   
538.000000	9.635310   
538.500000	10.125037  
539.000000	10.179878  
539.500000	10.371681  
540.000000	10.783030  
540.500000	11.353340  
541.000000	11.927068  
541.500000	12.296143  
542.000000	12.598189  
542.500000	12.377340  
543.000000	12.097159  
543.500000	11.796681  
544.000000	11.926424  
544.500000	11.893954  
545.000000	12.015227  
545.500000	12.034818  
546.000000	12.171795  
546.500000	12.133575  
547.000000	12.113128  
547.500000	11.970219  
548.000000	11.769886  
548.500000	11.373810  
549.000000	11.164848  
549.500000	11.177909  
550.000000	11.344545  
550.500000	11.521446  
551.000000	11.666522  
551.500000	11.561742  
552.000000	11.184212  
552.500000	10.982780  
553.000000	11.310621  
553.500000	12.025469  
554.000000	12.604143  
554.500000	12.945242  
555.000000	12.971893  
555.500000	12.875689  
556.000000	12.596848  
556.500000	12.468674  
557.000000	12.859022  
557.500000	13.568825  
558.000000	14.184212  
558.500000	14.667886  
559.000000	15.068310  
559.500000	15.051454  
560.000000	14.650712  
560.500000	14.598106  
561.000000	15.128969  
561.500000	16.036848  
562.000000	16.338401  
562.500000	16.523886  
563.000000	16.843189  
563.500000	17.653250  
564.000000	18.376984  
564.500000	18.991719  
565.000000	19.193500  
565.500000	19.327439  
566.000000	19.679901  
566.500000	20.488689  
567.000000	21.390053  
567.500000	21.906765  
568.000000	21.969431  
568.500000	21.810780  
569.000000	21.760696  
569.500000	22.129333  
570.000000	23.010840  
570.500000	24.164628  
571.000000	24.732931  
571.500000	24.767916  
572.000000	24.654439  
572.500000	25.197045  
573.000000	25.919022  
573.500000	26.485659  
574.000000	26.327583  
574.500000	25.942636  
575.000000	26.081962  
575.500000	26.878863  
576.000000	27.932424  
576.500000	29.029174  
577.000000	29.779954  
577.500000	30.168954  
578.000000	30.098446  
578.500000	30.590575  
579.000000	31.161537  
579.500000	31.641780  
580.000000	31.634060  
580.500000	31.942431  
581.000000	32.902962  
581.500000	34.247954  
582.000000	35.764946  
582.500000	36.852037  
583.000000	37.430727  
583.500000	37.513916  
584.000000	37.939886  
584.500000	38.792962  
585.000000	39.916022  
585.500000	40.653249  
586.000000	40.595340  
586.500000	40.994795  
587.000000	41.785583  
587.500000	43.144143  
588.000000	44.042931  
588.500000	45.548181  
589.000000	46.741037  
589.500000	47.799537  
590.000000	48.258704  
590.500000	49.761878  
591.000000	51.333106  
591.500000	52.484590  
592.000000	52.507643  
592.500000	52.752750  
593.000000	53.197219  
593.500000	54.306295  
594.000000	54.960651  
594.500000	56.170590  
595.000000	56.996439  
595.500000	57.732636  
596.000000	57.931030  
596.500000	58.859962  
597.000000	60.838924  
597.500000	62.889553  
598.000000	64.182363  
598.500000	65.113424  
599.000000	65.964196  
599.500000	66.514128  
600.000000	67.026818  
600.500000	68.774303  
601.000000	70.896007  
601.500000	72.848053  
602.000000	73.372219  
602.500000	74.138333  
603.000000	75.301727  
603.500000	77.150499  
604.000000	78.526287  
604.500000	78.948053  
605.000000	79.380833  
605.500000	80.819522  
606.000000	83.675749  
606.500000	86.195477  
607.000000	87.942810  
607.500000	88.872954  
608.000000	89.727833  
608.500000	90.292787  
609.000000	91.326303  
609.500000	93.546371  
610.000000	96.539946  
610.500000	99.116522  
611.000000	99.771689  
611.500000	99.829689  
612.000000	101.281772 
612.500000	104.565181 
613.000000	107.550204 
613.500000	109.237757 
614.000000	110.188204 
614.500000	110.932734 
615.000000	112.271409 
615.500000	114.245598 
616.000000	117.531507 
616.500000	120.815560 
617.000000	122.453075 
617.500000	122.922037 
618.000000	122.885121 
618.500000	124.624015 
619.000000	128.231719 
619.500000	133.107515 
620.000000	135.738598 
620.500000	136.467689 
621.000000	136.542742 
621.500000	138.024742 
622.000000	140.959393 
622.500000	144.021181 
623.000000	147.397136 
623.500000	149.878431 
624.000000	151.801106 
624.500000	153.149734 
625.000000	155.222939 
625.500000	157.033242 
626.000000	158.155803 
626.500000	159.045363 
627.000000	161.224090 
627.500000	164.395083 
628.000000	167.748189 
628.500000	170.597303 
629.000000	172.928977 
629.500000	174.606939 
630.000000	177.529174 
630.500000	180.231886 
631.000000	182.358325 
631.500000	181.954416 
632.000000	182.846386 
632.500000	184.335454 
633.000000	187.881060 
633.500000	190.398659 
634.000000	193.965325 
634.500000	196.836000 
635.000000	198.846984 
635.500000	198.494628 
636.000000	197.652666 
636.500000	198.093727 
637.000000	200.908227 
637.500000	204.097075 
638.000000	206.414583 
638.500000	208.634340 
639.000000	210.007113 
639.500000	209.903106 
640.000000	209.265295 
640.500000	210.421212 
641.000000	212.995871 
641.500000	215.328810 
642.000000	216.165931 
642.500000	216.858151 
643.000000	217.407181 
643.500000	218.073750 
644.000000	218.891000 
644.500000	219.334090 
645.000000	218.878143 
645.500000	218.001681 
646.000000	217.935106 
646.500000	218.874083 
647.000000	218.932590 
647.500000	218.214651 
648.000000	217.806303 
648.500000	217.758409 
649.000000	217.077212 
649.500000	216.105886 
650.000000	215.490053 
650.500000	215.446818 
651.000000	215.053916 
651.500000	214.940833 
652.000000	215.143848 
652.500000	215.376356 
653.000000	214.205916 
653.500000	211.472840 
654.000000	207.641651 
654.500000	204.659636 
655.000000	202.866613 
655.500000	202.259992 
656.000000	201.686992 
656.500000	201.370977 
657.000000	200.615590 
657.500000	198.670621 
658.000000	195.311356 
658.500000	191.666462 
659.000000	189.048424 
659.500000	187.477462 
660.000000	186.340015 
660.500000	183.518901 
661.000000	179.886303 
661.500000	175.851265 
662.000000	173.095772 
662.500000	171.055734 
663.000000	168.873295 
663.500000	165.383674 
664.000000	160.879060 
664.500000	157.061628 
665.000000	154.342386 
665.500000	152.013151 
666.000000	148.941787 
666.500000	145.892901 
667.000000	142.447416 
667.500000	138.719045 
668.000000	134.941727 
668.500000	131.686568 
669.000000	129.437893 
669.500000	127.179462 
670.000000	124.219537 
670.500000	120.274227 
671.000000	116.681280 
671.500000	113.364893 
672.000000	109.983500 
672.500000	106.021280 
673.000000	102.993954 
673.500000	100.710621 
674.000000	98.163234  
674.500000	94.947946  
675.000000	92.525583  
675.500000	90.883772  
676.000000	89.175446  
676.500000	85.830310  
677.000000	81.839909  
677.500000	78.561954  
678.000000	76.954962  
678.500000	76.302825  
679.000000	74.729060  
679.500000	71.932098  
680.000000	68.904901  
680.500000	66.646371  
681.000000	65.043060  
681.500000	63.642666  
682.000000	61.596431  
682.500000	59.229590  
683.000000	56.990128  
683.500000	55.274113  
684.000000	54.089454  
684.500000	53.029196  
685.000000	51.016068  
685.500000	48.231477  
686.000000	45.967477  
686.500000	45.189295  
687.000000	44.996371  
687.500000	43.870386  
688.000000	42.198977  
688.500000	40.555242  
689.000000	39.420083  
689.500000	38.207257  
690.000000	37.614636  
690.500000	36.665227  
691.000000	35.849136  
691.500000	34.557098  
692.000000	33.798522  
692.500000	32.653272  
693.000000	31.731621  
693.500000	30.510242  
694.000000	29.255484  
694.500000	28.186530  
695.000000	27.789545  
695.500000	27.758878  
696.000000	26.998272  
696.500000	25.791757  
697.000000	24.427893  
697.500000	23.974469  
698.000000	23.554992  
698.500000	23.174962  
699.000000	22.402613  
699.500000	21.696977  
700.000000	21.208189  
700.500000	20.624712  
701.000000	19.744568  
701.500000	18.782371  
702.000000	18.190083  
702.500000	18.010984  
703.000000	18.283454  
703.500000	18.298545  
704.000000	17.877772  
704.500000	16.960340  
705.000000	15.808007  
705.500000	14.990893  
706.000000	14.683219  
706.500000	15.002083  
707.000000	15.531106  
707.500000	15.565553  
708.000000	15.043075  
708.500000	14.274053  
709.000000	13.704280  
709.500000	13.328818  
710.000000	12.956469  
710.500000	12.483780  
711.000000	12.276325  
711.500000	12.318719  
712.000000	12.502136  
712.500000	12.356007  
713.000000	11.912666  
713.500000	11.313098  
714.000000	11.116878  
714.500000	11.078515  
715.000000	10.979484  
715.500000	10.362750  
716.000000	10.023212  
716.500000	9.863977   
717.000000	10.160196  
717.500000	10.331787  
718.000000	10.461386  
718.500000	10.026015  
719.000000	9.639181   
719.500000	9.365484   
720.000000	9.344750   
720.500000	9.123053   
721.000000	8.891037   
721.500000	8.880477   
722.000000	8.971204   
722.500000	8.907295   
723.000000	8.639212   
723.500000	8.326575   
724.000000	7.973696   
724.500000	7.659734   
725.000000	7.588530   
725.500000	7.640181   
726.000000	7.706250   
726.500000	7.476651   
727.000000	7.033151   
727.500000	6.484757   
728.000000	6.260590   
728.500000	6.323621   
729.000000	6.422060   
729.500000	6.346431   
730.000000	6.241174   
730.500000	6.435166   
731.000000	6.607250   
731.500000	6.595439   
732.000000	6.157583   
732.500000	5.893159   
733.000000	5.901469   
733.500000	6.424227   
734.000000	6.711621   
734.500000	6.587265   
735.000000	5.915492   
735.500000	5.517969   
736.000000	5.352537   
736.500000	5.553000   
737.000000	5.715242   
737.500000	5.755060   
738.000000	5.645325   
738.500000	5.613037   
739.000000	5.641454   
739.500000	5.344363   
740.000000	4.995454   
740.500000	4.860386   
741.000000	5.228931   
741.500000	5.380439   
742.000000	5.350249   
742.500000	5.141393   
743.000000	5.019068   
743.500000	4.664227   
744.000000	4.219681   
744.500000	3.917689   
745.000000	4.135810   
745.500000	4.487242   
746.000000	4.631818   
746.500000	4.373045   
747.000000	4.251598   
747.500000	4.355818   
748.000000	4.653742   
748.500000	4.671848   
749.000000	4.533787   
749.500000	4.247446   
750.000000	4.249946   
750.500000	4.438924   
751.000000	4.669757   
751.500000	4.476416   
752.000000	4.007363   
752.500000	3.660704   
753.000000	3.646053   
753.500000	3.800431   
754.000000	3.825204   
754.500000	3.891840   
755.000000	3.920530   
755.500000	3.985196   
756.000000	3.759537   
756.500000	3.667795   
757.000000	3.630045   
757.500000	3.726878   
758.000000	3.518401   
758.500000	3.330984   
759.000000	3.259431   
759.500000	3.485984   
760.000000	3.651886   
760.500000	3.656856   
761.000000	3.557893   
761.500000	3.490954   
762.000000	3.561568   
762.500000	3.577477   
763.000000	3.552946   
763.500000	3.389393   
764.000000	3.445643   
764.500000	3.617931   
765.000000	3.755606   
765.500000	3.492265   
766.000000	3.106045   
766.500000	2.915234   
767.000000	2.991242   
767.500000	3.097174   
768.000000	3.251000   
768.500000	3.432621   
769.000000	3.589780   
769.500000	3.540333   
770.000000	3.459045   
770.500000	3.322954   
771.000000	3.242439   
771.500000	3.069098   
772.000000	3.073757   
772.500000	3.062734   
773.000000	3.070568   
773.500000	3.035666   
774.000000	3.028560   
774.500000	3.034303   
775.000000	3.045454   
775.500000	3.127454   
776.000000	3.126318   
776.500000	3.038727   
777.000000	2.863295   
777.500000	2.803083   
778.000000	2.763227   
778.500000	2.794598   
779.000000	2.800363   
779.500000	2.806772   
780.000000	2.756477   
780.500000	2.807106   
781.000000	2.931416   
781.500000	3.030007   
782.000000	2.978810   
782.500000	2.888492   
783.000000	2.816151   
783.500000	2.788522   
784.000000	2.893916   
784.500000	2.977219   
785.000000	2.854818   
785.500000	2.518030   
786.000000	2.353583   
786.500000	2.537628   
787.000000	2.854893   
787.500000	2.937015   
788.000000	2.811151   
788.500000	2.511825   
789.000000	2.323651   
789.500000	2.324886   
790.000000	2.596333   
790.500000	2.751507   
791.000000	2.668818   
791.500000	2.434446   
792.000000	2.467007   
792.500000	2.485484   
793.000000	2.476416   
793.500000	2.365924   
794.000000	2.414060   
794.500000	2.378750   
795.000000	2.370901   
795.500000	2.307765   
796.000000	2.427469   
796.500000	2.271704   
797.000000	2.126401   
797.500000	2.078863   
798.000000	2.148734   
798.500000	1.985431   
799.000000	1.765992   
799.500000	1.801386   
800.000000	2.174128   
800.500000	2.437575   
801.000000	2.314113   
801.500000	2.090045   
802.000000	1.871651   
802.500000	1.793363   
803.000000	1.768469   
803.500000	1.780954   
804.000000	1.763242   
804.500000	1.629037   
805.000000	1.473409   
805.500000	1.501363   
806.000000	1.784386   
806.500000	1.928151   
807.000000	1.995628   
807.500000	1.933310   
808.000000	2.023537   
808.500000	1.985030   
809.000000	1.827196   
809.500000	1.682628   
810.000000	1.663068   
810.500000	1.622272   
811.000000	1.471780   
811.500000	1.541196   
812.000000	1.581598   
812.500000	1.812037   
813.000000	1.774106   
813.500000	1.688863   
814.000000	1.466030   
814.500000	1.375060   
815.000000	1.396000   
815.500000	1.532431   
816.000000	1.658795   
816.500000	1.782075   
817.000000	1.838628   
817.500000	1.709318   
818.000000	1.499250   
818.500000	1.454537   
819.000000	1.495575   
819.500000	1.687666   
820.000000	1.650984   
820.500000	1.664098   
821.000000	1.616825   
821.500000	1.816840   
822.000000	1.898401   
822.500000	2.094287   
823.000000	2.142037   
823.500000	2.304431   
824.000000	2.226022   
824.500000	2.259462   
825.000000	2.292325   
825.500000	2.489022   
826.000000	2.409977   
826.500000	2.306371   
827.000000	2.117090   
827.500000	2.024431   
828.000000	1.925166   
828.500000	1.798477   
829.000000	1.613886   
829.500000	1.278454   
830.000000	1.112689   
830.500000	1.146742   
831.000000	1.433166   
831.500000	1.430318   
832.000000	1.217287   
832.500000	0.862250   
833.000000	0.749022   
833.500000	0.856727   
834.000000	1.036477   
834.500000	1.149916   
835.000000	1.107121   
835.500000	1.004742   
836.000000	0.902090   
836.500000	0.884189   
837.000000	0.881742   
837.500000	0.822886   
838.000000	0.759681   
838.500000	0.817545   
839.000000	0.945507   
839.500000	0.916651   
840.000000	0.799977   
840.500000	0.725969   
841.000000	0.710659   
841.500000	0.630583   
842.000000	0.476204   
842.500000	0.385409   
843.000000	0.485666   
843.500000	0.680371   
844.000000	0.736674   
844.500000	0.644515   
845.000000	0.513446   
845.500000	0.549136   
846.000000	0.597833   
846.500000	0.479666   
847.000000	0.311992   
847.500000	0.266984   
848.000000	0.339787   
848.500000	0.353840   
849.000000	0.422446   
849.500000	0.474492   
850.000000	0.488333   
850.500000	0.308924   
851.000000	0.088575   
851.500000	0.010507   
852.000000	0.010371   
852.500000	0.052590   
853.000000	0.140113   
853.500000	0.324439   
854.000000	0.363303   
854.500000	0.211143   
855.000000	-0.001219  
855.500000	-0.010825  
856.000000	0.051803   
856.500000	0.012681   
857.000000	-0.049484  
857.500000	-0.015416  
858.000000	0.070386   
858.500000	0.088689   
859.000000	0.045242   
859.500000	0.015598   
860.000000	0.044583   
860.500000	0.096909   
861.000000	0.178166   
861.500000	0.184151   
862.000000	0.107681   
862.500000	0.014984   
863.000000	-0.011969  
863.500000	0.027507   
864.000000	0.050871   
864.500000	0.096606   
865.000000	0.137901   
865.500000	0.174598   
866.000000	0.120356   
866.500000	0.096393   
867.000000	0.099401   
867.500000	0.180340   
868.000000	0.199893   
868.500000	0.234712   
869.000000	0.191674   
869.500000	0.138045   
870.000000	0.017196   
870.500000	0.046204   
871.000000	0.135598   
871.500000	0.199280   
872.000000	0.068462   
872.500000	-0.041401  
873.000000	-0.087143  
873.500000	-0.018606  
874.000000	-0.007636  
874.500000	0.018962   
875.000000	-0.078924  
875.500000	-0.174939  
876.000000	-0.289378  
876.500000	-0.136106  
877.000000	0.029310   
877.500000	0.162234   
878.000000	0.099257   
878.500000	-0.006007  
879.000000	-0.109212  
879.500000	-0.113787  
880.000000	-0.012704  
880.500000	0.085265   
881.000000	0.107280   
881.500000	0.029803   
882.000000	-0.000553  
882.500000	0.016696   
883.000000	0.017613   
883.500000	-0.041659  
884.000000	-0.065992  
884.500000	-0.052371  
885.000000	-0.016204  
885.500000	-0.080446  
886.000000	-0.124780  
886.500000	-0.042507  
887.000000	0.168439   
887.500000	0.245674   
888.000000	0.175212   
888.500000	0.040568   
889.000000	-0.015484  
889.500000	-0.042984  
890.000000	-0.056636  
890.500000	-0.084651  
891.000000	-0.080818  
891.500000	-0.084727  
892.000000	-0.025621  
892.500000	-0.007787  
893.000000	-0.035689  
893.500000	-0.071416  
894.000000	-0.047575  
894.500000	0.009015   
895.000000	0.072931   
895.500000	0.098462   
896.000000	0.038886   
896.500000	-0.064204  
897.000000	-0.098954  
897.500000	-0.054727  

