PE FL                   SPECTRUM    ASCII       PEDS        1.60        
  -1
SA9B89~1.SP
24/04/12
15:46:20.00
24/04/12
15:46:20.00
Jan

897.500000
1









LS55
405.00
5.00
5.00
SCAN
1
20
100
100
0
400
0
1
0
1
5
ON
450 405 
1 0 0
#HDR
-1
-1
#GR
NM

0.00002384185791015625
0.0
450.000000
0.500000
896
8
373.601090
-0.278356
#DATA
450.000000	0.303999   
450.500000	0.101712   
451.000000	-0.155068  
451.500000	-0.251621  
452.000000	0.016045   
452.500000	0.306901   
453.000000	0.399537   
453.500000	0.241204   
454.000000	0.262992   
454.500000	0.263606   
455.000000	0.214530   
455.500000	-0.087371  
456.000000	-0.177204  
456.500000	-0.135674  
457.000000	0.032462   
457.500000	0.082886   
458.000000	-0.001113  
458.500000	0.050901   
459.000000	0.241598   
459.500000	0.380060   
460.000000	0.164492   
460.500000	-0.091704  
461.000000	-0.147772  
461.500000	0.029371   
462.000000	0.062477   
462.500000	0.089530   
463.000000	0.179840   
463.500000	0.370174   
464.000000	0.363128   
464.500000	0.193022   
465.000000	0.037446   
465.500000	0.098765   
466.000000	0.246643   
466.500000	0.381992   
467.000000	0.321462   
467.500000	0.132484   
468.000000	-0.052416  
468.500000	-0.091984  
469.000000	-0.082621  
469.500000	0.003803   
470.000000	0.104272   
470.500000	0.233333   
471.000000	0.248386   
471.500000	0.169000   
472.000000	0.137212   
472.500000	0.058045   
473.000000	-0.039000  
473.500000	-0.140128  
474.000000	-0.085810  
474.500000	0.052749   
475.000000	0.166098   
475.500000	0.248439   
476.000000	0.327106   
476.500000	0.356962   
477.000000	0.283371   
477.500000	0.201250   
478.000000	0.205553   
478.500000	0.276393   
479.000000	0.382545   
479.500000	0.388462   
480.000000	0.352666   
480.500000	0.198371   
481.000000	0.064484   
481.500000	0.016689   
482.000000	0.125053   
482.500000	0.227962   
483.000000	0.245643   
483.500000	0.138045   
484.000000	-0.024113  
484.500000	-0.076856  
485.000000	0.043734   
485.500000	0.181795   
486.000000	0.174598   
486.500000	0.142909   
487.000000	0.175984   
487.500000	0.233909   
488.000000	0.210136   
488.500000	0.100818   
489.000000	0.153651   
489.500000	0.231439   
490.000000	0.333590   
490.500000	0.327712   
491.000000	0.344590   
491.500000	0.317250   
492.000000	0.401969   
492.500000	0.376204   
493.000000	0.343583   
493.500000	0.244219   
494.000000	0.195992   
494.500000	0.131992   
495.000000	0.225977   
495.500000	0.332181   
496.000000	0.492128   
496.500000	0.412462   
497.000000	0.308000   
497.500000	0.151757   
498.000000	0.155583   
498.500000	0.251636   
499.000000	0.473128   
499.500000	0.613530   
500.000000	0.620287   
500.500000	0.620765   
501.000000	0.701106   
501.500000	0.826136   
502.000000	0.811060   
502.500000	0.851719   
503.000000	0.841712   
503.500000	0.748462   
504.000000	0.438348   
504.500000	0.340886   
505.000000	0.557098   
505.500000	0.892621   
506.000000	0.957265   
506.500000	0.863719   
507.000000	0.800886   
507.500000	0.868446   
508.000000	0.926227   
508.500000	0.943537   
509.000000	0.858681   
509.500000	0.860553   
510.000000	0.920303   
510.500000	1.138431   
511.000000	1.217234   
511.500000	1.143030   
512.000000	1.001090   
512.500000	1.106007   
513.000000	1.333113   
513.500000	1.511348   
514.000000	1.552545   
514.500000	1.446439   
515.000000	1.410606   
515.500000	1.415530   
516.000000	1.582575   
516.500000	1.713818   
517.000000	1.728833   
517.500000	1.662219   
518.000000	1.743416   
518.500000	1.919113   
519.000000	2.163196   
519.500000	2.354712   
520.000000	2.379628   
520.500000	2.313825   
521.000000	2.347537   
521.500000	2.452151   
522.000000	2.528500   
522.500000	2.434818   
523.000000	2.400015   
523.500000	2.436409   
524.000000	2.550772   
524.500000	2.537492   
525.000000	2.593348   
525.500000	2.742992   
526.000000	3.020098   
526.500000	3.201143   
527.000000	3.246765   
527.500000	3.178121   
528.000000	3.245727   
528.500000	3.464734   
529.000000	3.679409   
529.500000	3.747340   
530.000000	3.901992   
530.500000	4.175742   
531.000000	4.494537   
531.500000	4.664553   
532.000000	4.864992   
532.500000	5.197356   
533.000000	5.683621   
533.500000	6.125553   
534.000000	6.300454   
534.500000	6.340893   
535.000000	6.398249   
535.500000	6.735454   
536.000000	7.074659   
536.500000	7.245310   
537.000000	7.494098   
537.500000	8.036371   
538.000000	8.709492   
538.500000	9.266765   
539.000000	9.681371   
539.500000	9.866219   
540.000000	9.883848   
540.500000	9.861325   
541.000000	9.982590   
541.500000	10.371098  
542.000000	10.912878  
542.500000	11.291507  
543.000000	11.502674  
543.500000	11.600090  
544.000000	11.850522  
544.500000	11.696265  
545.000000	11.390325  
545.500000	11.233325  
546.000000	11.882696  
546.500000	12.260325  
547.000000	12.076712  
547.500000	11.666666  
548.000000	12.061174  
548.500000	12.703757  
549.000000	13.039257  
549.500000	12.722356  
550.000000	12.299015  
550.500000	11.866106  
551.000000	11.795750  
551.500000	11.982196  
552.000000	12.483560  
552.500000	12.429696  
553.000000	12.332393  
553.500000	11.975719  
554.000000	12.021621  
554.500000	11.873409  
555.000000	12.101757  
555.500000	12.557356  
556.000000	13.456431  
556.500000	13.946348  
557.000000	13.961128  
557.500000	13.915151  
558.000000	14.265492  
558.500000	14.530545  
559.000000	14.515848  
559.500000	14.295454  
560.000000	14.488424  
560.500000	14.904068  
561.000000	15.551590  
561.500000	16.040234  
562.000000	16.575500  
562.500000	17.384090  
563.000000	18.078409  
563.500000	18.441795  
564.000000	18.078325  
564.500000	18.482537  
565.000000	19.419287  
565.500000	20.486068  
566.000000	20.518727  
566.500000	20.369401  
567.000000	20.616416  
567.500000	21.422780  
568.000000	22.436568  
568.500000	23.440924  
569.000000	24.209136  
569.500000	24.523977  
570.000000	24.384916  
570.500000	24.514939  
571.000000	25.153530  
571.500000	26.366340  
572.000000	27.428871  
572.500000	28.272136  
573.000000	28.309727  
573.500000	27.918924  
574.000000	27.988272  
574.500000	28.726015  
575.000000	30.024992  
575.500000	31.205674  
576.000000	31.545681  
576.500000	31.460113  
577.000000	31.736871  
577.500000	32.714583  
578.000000	33.805575  
578.500000	34.644189  
579.000000	35.170287  
579.500000	35.799189  
580.000000	35.911901  
580.500000	35.630303  
581.000000	35.705871  
581.500000	36.374045  
582.000000	37.045189  
582.500000	37.565378  
583.000000	37.837787  
583.500000	38.551606  
584.000000	39.703280  
584.500000	41.197954  
585.000000	42.249977  
585.500000	43.169121  
586.000000	44.641257  
586.500000	46.009893  
587.000000	46.552545  
587.500000	46.048030  
588.000000	46.741954  
588.500000	48.609954  
589.000000	51.221878  
589.500000	52.936666  
590.000000	54.106090  
590.500000	54.077659  
591.000000	54.657856  
591.500000	56.656454  
592.000000	59.412674  
592.500000	60.219151  
593.000000	59.754303  
593.500000	60.008318  
594.000000	62.537477  
594.500000	64.998204  
595.000000	66.880628  
595.500000	68.089356  
596.000000	69.504659  
596.500000	70.312431  
597.000000	70.469265  
597.500000	70.725424  
598.000000	72.263636  
598.500000	75.099053  
599.000000	77.642068  
599.500000	79.245848  
600.000000	79.753530  
600.500000	80.703363  
601.000000	81.886416  
601.500000	83.754780  
602.000000	85.429280  
602.500000	86.832712  
603.000000	88.102272  
603.500000	90.548333  
604.000000	93.736265  
604.500000	96.571522  
605.000000	98.098810  
605.500000	99.308507  
606.000000	100.742787 
606.500000	102.354143 
607.000000	103.533212 
607.500000	105.468310 
608.000000	108.453257 
608.500000	113.171522 
609.000000	116.786553 
609.500000	118.541113 
610.000000	118.402924 
610.500000	119.601931 
611.000000	121.322825 
611.500000	123.750909 
612.000000	125.905946 
612.500000	129.063212 
613.000000	132.323212 
613.500000	135.384765 
614.000000	137.678719 
614.500000	139.338916 
615.000000	141.196500 
615.500000	143.932356 
616.000000	147.412659 
616.500000	149.813212 
617.000000	151.283909 
617.500000	154.163924 
618.000000	159.101696 
618.500000	165.109946 
619.000000	169.495734 
619.500000	172.120454 
620.000000	173.728780 
620.500000	176.655590 
621.000000	180.708333 
621.500000	184.715772 
622.000000	187.430507 
622.500000	190.195909 
623.000000	193.446568 
623.500000	196.571628 
624.000000	198.542409 
624.500000	201.326143 
625.000000	205.694727 
625.500000	211.076477 
626.000000	214.887439 
626.500000	217.721537 
627.000000	220.729712 
627.500000	225.105560 
628.000000	230.339931 
628.500000	236.035090 
629.000000	239.597537 
629.500000	241.558257 
630.000000	244.213484 
630.500000	249.769681 
631.000000	255.414280 
631.500000	259.360492 
632.000000	262.020825 
632.500000	265.246242 
633.000000	268.419219 
633.500000	271.821931 
634.000000	276.044492 
634.500000	280.063742 
635.000000	283.519893 
635.500000	286.937401 
636.000000	291.692007 
636.500000	296.543643 
637.000000	301.008984 
637.500000	304.522090 
638.000000	308.003098 
638.500000	310.804204 
639.000000	314.116575 
639.500000	318.176477 
640.000000	322.700075 
640.500000	326.461507 
641.000000	329.618159 
641.500000	332.481431 
642.000000	336.018227 
642.500000	337.934583 
643.000000	338.624212 
643.500000	339.917757 
644.000000	343.351636 
644.500000	347.139825 
645.000000	349.748795 
645.500000	351.843492 
646.000000	354.916242 
646.500000	359.342939 
647.000000	363.072969 
647.500000	365.033878 
648.000000	365.372477 
648.500000	363.229189 
649.000000	361.196348 
649.500000	361.494477 
650.000000	365.927136 
650.500000	370.678348 
651.000000	373.103946 
651.500000	372.330962 
652.000000	371.571628 
652.500000	372.314840 
653.000000	373.170143 
653.500000	373.601090 
654.000000	372.203083 
654.500000	369.922287 
655.000000	369.901613 
655.500000	371.891159 
656.000000	372.198931 
656.500000	369.908393 
657.000000	368.680901 
657.500000	369.119083 
658.000000	370.373416 
658.500000	367.432901 
659.000000	364.561537 
659.500000	362.441159 
660.000000	361.077666 
660.500000	356.821045 
661.000000	353.557393 
661.500000	351.884227 
662.000000	351.235674 
662.500000	348.519848 
663.000000	344.925075 
663.500000	343.907909 
664.000000	342.750810 
664.500000	339.611356 
665.000000	333.806757 
665.500000	329.277196 
666.000000	325.818598 
666.500000	323.008106 
667.000000	318.732909 
667.500000	314.203227 
668.000000	309.173901 
668.500000	304.612318 
669.000000	299.002598 
669.500000	293.787606 
670.000000	289.588340 
670.500000	286.097151 
671.000000	282.184613 
671.500000	277.932477 
672.000000	272.527803 
672.500000	267.171666 
673.000000	262.395015 
673.500000	259.103939 
674.000000	254.546977 
674.500000	248.969159 
675.000000	242.145666 
675.500000	236.996000 
676.000000	231.345166 
676.500000	225.690613 
677.000000	218.590219 
677.500000	212.147946 
678.000000	207.121856 
678.500000	203.873886 
679.000000	200.083772 
679.500000	195.432530 
680.000000	189.315628 
680.500000	183.293022 
681.000000	177.515856 
681.500000	173.331681 
682.000000	169.614378 
682.500000	165.037106 
683.000000	159.348303 
683.500000	153.920424 
684.000000	149.178242 
684.500000	144.438969 
685.000000	139.923121 
685.500000	135.949431 
686.000000	132.345765 
686.500000	129.496871 
687.000000	126.301863 
687.500000	122.573651 
688.000000	118.230280 
688.500000	113.624409 
689.000000	109.731674 
689.500000	106.404924 
690.000000	104.138250 
690.500000	101.286166 
691.000000	98.332590  
691.500000	94.749249  
692.000000	92.440651  
692.500000	90.004143  
693.000000	86.996871  
693.500000	83.463712  
694.000000	80.207265  
694.500000	77.380204  
695.000000	75.303931  
695.500000	73.863045  
696.000000	72.182734  
696.500000	69.359340  
697.000000	66.624553  
697.500000	64.826712  
698.000000	63.636075  
698.500000	61.692712  
699.000000	59.190318  
699.500000	56.998113  
700.000000	55.144378  
700.500000	53.769742  
701.000000	52.079348  
701.500000	50.363446  
702.000000	48.343530  
702.500000	47.225977  
703.000000	46.287090  
703.500000	45.354242  
704.000000	44.335984  
704.500000	43.858931  
705.000000	43.521378  
705.500000	42.271795  
706.000000	40.044924  
706.500000	38.446856  
707.000000	38.271090  
707.500000	38.242492  
708.000000	36.528727  
708.500000	33.984893  
709.000000	32.472818  
709.500000	32.317204  
710.000000	32.076386  
710.500000	30.939477  
711.000000	29.766181  
711.500000	28.941568  
712.000000	28.738325  
712.500000	28.418825  
713.000000	27.930712  
713.500000	26.972159  
714.000000	26.091446  
714.500000	25.615939  
715.000000	25.561386  
715.500000	25.284325  
716.000000	24.529416  
716.500000	23.224348  
717.000000	22.185318  
717.500000	21.704651  
718.000000	21.568106  
718.500000	21.175613  
719.000000	20.549734  
719.500000	19.919681  
720.000000	19.238325  
720.500000	18.502757  
721.000000	17.845106  
721.500000	17.646621  
722.000000	17.887689  
722.500000	17.708257  
723.000000	17.140583  
723.500000	16.532174  
724.000000	16.366825  
724.500000	16.181007  
725.000000	15.957409  
725.500000	15.575659  
726.000000	15.193295  
726.500000	14.639992  
727.000000	14.145696  
727.500000	14.110424  
728.000000	14.086045  
728.500000	13.909439  
729.000000	13.527037  
729.500000	13.072090  
730.000000	12.541060  
730.500000	12.111818  
731.000000	12.083931  
731.500000	12.328696  
732.000000	12.352469  
732.500000	12.019568  
733.000000	11.529416  
733.500000	11.229992  
734.000000	11.021189  
734.500000	10.788469  
735.000000	10.342590  
735.500000	10.017962  
736.000000	9.478348   
736.500000	9.314931   
737.000000	9.344045   
737.500000	9.344742   
738.000000	8.977568   
738.500000	8.737159   
739.000000	8.763098   
739.500000	8.968833   
740.000000	9.015613   
740.500000	8.922916   
741.000000	8.669916   
741.500000	8.326159   
742.000000	8.030121   
742.500000	7.889136   
743.000000	7.664757   
743.500000	7.420477   
744.000000	7.224340   
744.500000	7.112772   
745.000000	7.010954   
745.500000	7.114681   
746.000000	7.162992   
746.500000	7.268340   
747.000000	7.253219   
747.500000	7.270462   
748.000000	7.111696   
748.500000	6.823901   
749.000000	6.606704   
749.500000	6.583272   
750.000000	6.602803   
750.500000	6.399037   
751.000000	6.264757   
751.500000	6.127090   
752.000000	6.095159   
752.500000	6.012909   
753.000000	6.040901   
753.500000	6.078333   
754.000000	5.987431   
754.500000	5.687962   
755.000000	5.417704   
755.500000	5.190219   
756.000000	5.226666   
756.500000	5.413098   
757.000000	5.612446   
757.500000	5.430840   
758.000000	5.087613   
758.500000	4.949265   
759.000000	5.246242   
759.500000	5.398204   
760.000000	5.174363   
760.500000	4.826863   
761.000000	4.758681   
761.500000	4.823969   
762.000000	4.807704   
762.500000	4.595174   
763.000000	4.516462   
763.500000	4.531325   
764.000000	4.655590   
764.500000	4.776189   
765.000000	5.001204   
765.500000	5.098628   
766.000000	4.917363   
766.500000	4.294848   
767.000000	3.750719   
767.500000	3.649136   
768.000000	3.937954   
768.500000	4.232636   
769.000000	4.348469   
769.500000	4.365674   
770.000000	4.251348   
770.500000	4.208393   
771.000000	4.092886   
771.500000	4.087022   
772.000000	3.931000   
772.500000	3.851439   
773.000000	3.724553   
773.500000	3.708409   
774.000000	3.680310   
774.500000	3.641386   
775.000000	3.496553   
775.500000	3.317477   
776.000000	3.209378   
776.500000	3.223272   
777.000000	3.304393   
777.500000	3.401196   
778.000000	3.486250   
778.500000	3.493939   
779.000000	3.367174   
779.500000	3.149636   
780.000000	3.087977   
780.500000	3.120499   
781.000000	3.240265   
781.500000	3.268242   
782.000000	3.338227   
782.500000	3.354977   
783.000000	3.303416   
783.500000	3.133227   
784.000000	3.097553   
784.500000	3.209265   
785.000000	3.313946   
785.500000	3.193363   
786.000000	3.005446   
786.500000	2.859590   
787.000000	2.881159   
787.500000	2.987242   
788.000000	3.221219   
788.500000	3.371507   
789.000000	3.263840   
789.500000	3.034712   
790.000000	2.926363   
790.500000	3.037825   
791.000000	3.138204   
791.500000	3.037818   
792.000000	2.822666   
792.500000	2.798015   
793.000000	2.941106   
793.500000	2.979090   
794.000000	2.852189   
794.500000	2.741439   
795.000000	2.820037   
795.500000	2.791659   
796.000000	2.683431   
796.500000	2.430795   
797.000000	2.335310   
797.500000	2.280068   
798.000000	2.491174   
798.500000	2.582651   
799.000000	2.542560   
799.500000	2.325492   
800.000000	2.338272   
800.500000	2.341674   
801.000000	2.218946   
801.500000	2.012030   
802.000000	2.078537   
802.500000	2.150689   
803.000000	2.114007   
803.500000	1.919083   
804.000000	2.028893   
804.500000	2.231863   
805.000000	2.361113   
805.500000	2.085515   
806.000000	1.932545   
806.500000	1.772439   
807.000000	1.847825   
807.500000	1.761409   
808.000000	1.835416   
808.500000	1.714522   
809.000000	1.690719   
809.500000	1.580030   
810.000000	1.868250   
810.500000	1.939886   
811.000000	1.849454   
811.500000	1.469939   
812.000000	1.376446   
812.500000	1.491083   
813.000000	1.723909   
813.500000	1.734196   
814.000000	1.705037   
814.500000	1.573000   
815.000000	1.460924   
815.500000	1.347681   
816.000000	1.332265   
816.500000	1.387234   
817.000000	1.440636   
817.500000	1.461303   
818.000000	1.450007   
818.500000	1.452643   
819.000000	1.400977   
819.500000	1.556689   
820.000000	1.841090   
820.500000	2.200583   
821.000000	2.178590   
821.500000	1.913393   
822.000000	1.673742   
822.500000	1.774446   
823.000000	2.134871   
823.500000	2.469787   
824.000000	2.696810   
824.500000	2.757075   
825.000000	2.695522   
825.500000	2.531037   
826.000000	2.303454   
826.500000	1.976234   
827.000000	1.699462   
827.500000	1.706515   
828.000000	1.929113   
828.500000	2.090303   
829.000000	1.941106   
829.500000	1.762818   
830.000000	1.829492   
830.500000	1.876325   
831.000000	1.664962   
831.500000	1.318674   
832.000000	1.204742   
832.500000	1.271840   
833.000000	1.251492   
833.500000	1.171931   
834.000000	1.171893   
834.500000	1.222848   
835.000000	1.163780   
835.500000	1.106931   
836.000000	1.066212   
836.500000	1.084492   
837.000000	1.087272   
837.500000	1.060075   
838.000000	0.991636   
838.500000	0.854015   
839.000000	0.726734   
839.500000	0.737121   
840.000000	0.878659   
840.500000	1.014530   
841.000000	0.939075   
841.500000	0.788553   
842.000000	0.718606   
842.500000	0.821727   
843.000000	0.858371   
843.500000	0.870000   
844.000000	0.761015   
844.500000	0.670143   
845.000000	0.555401   
845.500000	0.486106   
846.000000	0.451765   
846.500000	0.374750   
847.000000	0.348439   
847.500000	0.381386   
848.000000	0.475916   
848.500000	0.361886   
849.000000	0.241803   
849.500000	0.196924   
850.000000	0.397636   
850.500000	0.435075   
851.000000	0.336621   
851.500000	0.176893   
852.000000	0.223174   
852.500000	0.197196   
853.000000	0.184734   
853.500000	0.091878   
854.000000	0.129674   
854.500000	0.174765   
855.000000	0.296681   
855.500000	0.327946   
856.000000	0.312075   
856.500000	0.229310   
857.000000	0.264984   
857.500000	0.289287   
858.000000	0.139454   
858.500000	0.015439   
859.000000	-0.064878  
859.500000	0.002000   
860.000000	-0.093515  
860.500000	-0.147871  
861.000000	-0.208704  
861.500000	-0.037560  
862.000000	0.073901   
862.500000	0.175863   
863.000000	0.164060   
863.500000	0.110303   
864.000000	0.103515   
864.500000	0.118893   
865.000000	0.191772   
865.500000	0.183227   
866.000000	0.160136   
866.500000	0.153621   
867.000000	0.198621   
867.500000	0.133780   
868.000000	-0.001962  
868.500000	-0.067303  
869.000000	0.053909   
869.500000	0.195628   
870.000000	0.218583   
870.500000	0.143787   
871.000000	0.045522   
871.500000	-0.038886  
872.000000	-0.121643  
872.500000	-0.144863  
873.000000	-0.131378  
873.500000	-0.058818  
874.000000	-0.034666  
874.500000	0.049477   
875.000000	0.069742   
875.500000	0.096795   
876.000000	0.016871   
876.500000	-0.032000  
877.000000	-0.031681  
877.500000	0.024515   
878.000000	0.006098   
878.500000	-0.060742  
879.000000	-0.087439  
879.500000	-0.056946  
880.000000	-0.054545  
880.500000	-0.131742  
881.000000	-0.137181  
881.500000	-0.044598  
882.000000	0.023015   
882.500000	0.082492   
883.000000	0.147848   
883.500000	0.240272   
884.000000	0.200613   
884.500000	0.096045   
885.000000	0.003803   
885.500000	-0.009590  
886.000000	0.031780   
886.500000	0.062856   
887.000000	0.068643   
887.500000	0.026787   
888.000000	-0.024196  
888.500000	-0.138371  
889.000000	-0.170515  
889.500000	-0.090719  
890.000000	-0.034477  
890.500000	0.006174   
891.000000	0.031681   
891.500000	0.150340   
892.000000	0.127106   
892.500000	0.041522   
893.000000	-0.063810  
893.500000	-0.031030  
894.000000	-0.032530  
894.500000	-0.101984  
895.000000	-0.192159  
895.500000	-0.278356  
896.000000	-0.184954  
896.500000	-0.024090  
897.000000	0.058393   
897.500000	-0.038598  

