PE FL                   SPECTRUM    ASCII       PEDS        1.60        
  -1
SA8BB1~1.SP
24/04/12
15:26:22.00
24/04/12
15:26:22.00
Jan

897.500000
1









LS55
405.00
5.00
5.00
SCAN
1
20
100
100
0
400
0
1
0
1
5
ON
450 405 
1 0 0
#HDR
-1
-1
#GR
NM

0.00002384185791015625
0.0
450.000000
0.500000
896
8
403.693787
-0.232886
#DATA
450.000000	0.470999   
450.500000	0.470659   
451.000000	0.400189   
451.500000	0.269553   
452.000000	0.115780   
452.500000	0.105416   
453.000000	0.044469   
453.500000	-0.069507  
454.000000	-0.132810  
454.500000	0.035446   
455.000000	0.241015   
455.500000	0.268727   
456.000000	0.208492   
456.500000	0.149712   
457.000000	0.166886   
457.500000	0.071916   
458.000000	0.128636   
458.500000	0.163651   
459.000000	0.231174   
459.500000	0.246098   
460.000000	0.444098   
460.500000	0.518409   
461.000000	0.425825   
461.500000	0.163901   
462.000000	0.114704   
462.500000	0.234515   
463.000000	0.326757   
463.500000	0.274848   
464.000000	0.033000   
464.500000	-0.121053  
465.000000	-0.052583  
465.500000	0.321931   
466.000000	0.540575   
466.500000	0.506795   
467.000000	0.242553   
467.500000	0.200886   
468.000000	0.346477   
468.500000	0.528446   
469.000000	0.413613   
469.500000	0.064477   
470.000000	-0.177439  
470.500000	-0.232886  
471.000000	-0.174765  
471.500000	-0.171363  
472.000000	0.063037   
472.500000	0.241893   
473.000000	0.365901   
473.500000	0.136053   
474.000000	0.055909   
474.500000	0.121098   
475.000000	0.260560   
475.500000	0.221386   
476.000000	-0.028606  
476.500000	-0.115515  
477.000000	-0.029287  
477.500000	0.272507   
478.000000	0.331666   
478.500000	0.221787   
479.000000	0.025545   
479.500000	0.047393   
480.000000	0.266848   
480.500000	0.498674   
481.000000	0.600560   
481.500000	0.475431   
482.000000	0.306893   
482.500000	0.149681   
483.000000	0.094007   
483.500000	0.029545   
484.000000	0.024454   
484.500000	0.160250   
485.000000	0.440318   
485.500000	0.637068   
486.000000	0.610954   
486.500000	0.363560   
487.000000	0.156030   
487.500000	0.050219   
488.000000	0.028833   
488.500000	0.059340   
489.000000	0.032727   
489.500000	0.075628   
490.000000	0.088750   
490.500000	0.090431   
491.000000	-0.038348  
491.500000	-0.106015  
492.000000	-0.015659  
492.500000	0.200280   
493.000000	0.360022   
493.500000	0.334848   
494.000000	0.286621   
494.500000	0.191446   
495.000000	0.259575   
495.500000	0.282946   
496.000000	0.376909   
496.500000	0.333909   
497.000000	0.234939   
497.500000	0.053287   
498.000000	0.114469   
498.500000	0.282651   
499.000000	0.540719   
499.500000	0.575545   
500.000000	0.490621   
500.500000	0.457363   
501.000000	0.523954   
501.500000	0.603962   
502.000000	0.547113   
502.500000	0.363340   
503.000000	0.244878   
503.500000	0.409568   
504.000000	0.693500   
504.500000	0.851234   
505.000000	0.708272   
505.500000	0.478856   
506.000000	0.421901   
506.500000	0.592007   
507.000000	0.766666   
507.500000	0.865242   
508.000000	0.854007   
508.500000	0.934992   
509.000000	1.018818   
509.500000	1.009696   
510.000000	0.950378   
510.500000	0.992962   
511.000000	1.122878   
511.500000	1.078227   
512.000000	0.946340   
512.500000	0.989704   
513.000000	1.185416   
513.500000	1.270151   
514.000000	1.308553   
514.500000	1.460583   
515.000000	1.622469   
515.500000	1.691136   
516.000000	1.666356   
516.500000	1.674265   
517.000000	1.706196   
517.500000	1.844992   
518.000000	2.184931   
518.500000	2.504227   
519.000000	2.549143   
519.500000	2.292340   
520.000000	2.070371   
520.500000	2.170507   
521.000000	2.433590   
521.500000	2.577446   
522.000000	2.435727   
522.500000	2.325893   
523.000000	2.375295   
523.500000	2.641545   
524.000000	2.854166   
524.500000	2.985969   
525.000000	3.002113   
525.500000	2.951621   
526.000000	2.964287   
526.500000	2.986712   
527.000000	3.310954   
527.500000	3.765386   
528.000000	4.053484   
528.500000	3.986015   
529.000000	3.781189   
529.500000	3.738674   
530.000000	3.863916   
530.500000	4.343992   
531.000000	4.783795   
531.500000	5.056848   
532.000000	4.966742   
532.500000	5.277568   
533.000000	5.771181   
533.500000	6.052681   
534.000000	5.792704   
534.500000	5.811075   
535.000000	6.460409   
535.500000	7.367484   
536.000000	7.785462   
536.500000	7.686856   
537.000000	7.544219   
537.500000	7.621962   
538.000000	8.148901   
538.500000	8.822515   
539.000000	9.441196   
539.500000	9.778757   
540.000000	9.982060   
540.500000	10.208340  
541.000000	10.607893  
541.500000	11.173151  
542.000000	11.669409  
542.500000	11.928954  
543.000000	11.774060  
543.500000	11.747136  
544.000000	11.899583  
544.500000	12.104787  
545.000000	12.378371  
545.500000	12.630795  
546.000000	12.512295  
546.500000	11.955181  
547.000000	11.701916  
547.500000	12.036401  
548.000000	12.551340  
548.500000	12.433136  
549.000000	12.127500  
549.500000	12.014265  
550.000000	12.360553  
550.500000	12.849583  
551.000000	13.389871  
551.500000	13.494416  
552.000000	13.406984  
552.500000	13.173674  
553.000000	13.054431  
553.500000	12.938833  
554.000000	13.071818  
554.500000	13.608946  
555.000000	14.104098  
555.500000	14.178613  
556.000000	13.874500  
556.500000	13.719151  
557.000000	13.683000  
557.500000	13.800939  
558.000000	14.152462  
558.500000	14.995174  
559.000000	15.830909  
559.500000	16.275242  
560.000000	16.343454  
560.500000	16.624227  
561.000000	16.891000  
561.500000	17.211803  
562.000000	17.534803  
562.500000	17.730424  
563.000000	17.684469  
563.500000	17.878356  
564.000000	18.658992  
564.500000	19.885803  
565.000000	20.827378  
565.500000	21.309121  
566.000000	21.535931  
566.500000	21.469037  
567.000000	21.292151  
567.500000	21.593022  
568.000000	22.487537  
568.500000	23.747340  
569.000000	24.984143  
569.500000	25.877893  
570.000000	26.858750  
570.500000	27.444310  
571.000000	27.711386  
571.500000	27.893515  
572.000000	28.362113  
572.500000	29.012227  
573.000000	29.605666  
573.500000	30.231719  
574.000000	31.142371  
574.500000	31.729696  
575.000000	31.983704  
575.500000	32.532560  
576.000000	33.824689  
576.500000	35.186416  
577.000000	35.821772  
577.500000	35.736371  
578.000000	35.978522  
578.500000	36.453689  
579.000000	37.099704  
579.500000	37.472250  
580.000000	38.159909  
580.500000	39.243371  
581.000000	40.194348  
581.500000	40.839204  
582.000000	41.887022  
582.500000	43.040083  
583.000000	43.545151  
583.500000	43.632363  
584.000000	44.019113  
584.500000	45.143886  
585.000000	46.309053  
585.500000	47.048068  
586.000000	47.886477  
586.500000	49.177924  
587.000000	50.393318  
587.500000	51.574053  
588.000000	52.164719  
588.500000	53.036212  
589.000000	54.037098  
589.500000	55.280242  
590.000000	55.824704  
590.500000	56.785507  
591.000000	58.075750  
591.500000	60.327818  
592.000000	62.462992  
592.500000	64.435977  
593.000000	66.194515  
593.500000	68.253045  
594.000000	69.540992  
594.500000	70.451750  
595.000000	70.812295  
595.500000	71.680189  
596.000000	73.595121  
596.500000	76.312871  
597.000000	78.841659  
597.500000	80.497515  
598.000000	81.764272  
598.500000	82.798045  
599.000000	83.587659  
599.500000	83.849409  
600.000000	85.924015  
600.500000	88.904977  
601.000000	91.490916  
601.500000	92.121446  
602.000000	92.918348  
602.500000	94.835545  
603.000000	98.323106  
603.500000	101.207166 
604.000000	102.732659 
604.500000	103.305333 
605.000000	104.460166 
605.500000	106.564272 
606.000000	108.808174 
606.500000	110.316772 
607.000000	112.241439 
607.500000	114.553098 
608.000000	117.393424 
608.500000	120.121583 
609.000000	122.945643 
609.500000	125.512886 
610.000000	128.309310 
610.500000	130.594386 
611.000000	132.690666 
611.500000	134.907257 
612.000000	137.481363 
612.500000	139.854522 
613.000000	142.285545 
613.500000	145.342946 
614.000000	149.841113 
614.500000	153.953507 
615.000000	157.140772 
615.500000	159.085393 
616.000000	161.189022 
616.500000	163.371742 
617.000000	166.978931 
617.500000	171.275060 
618.000000	175.493151 
618.500000	177.174340 
619.000000	178.942053 
619.500000	182.561454 
620.000000	188.563401 
620.500000	192.748242 
621.000000	194.138545 
621.500000	194.777522 
622.000000	197.622393 
622.500000	203.142628 
623.000000	209.307348 
623.500000	214.445469 
624.000000	217.633053 
624.500000	219.972106 
625.000000	221.978037 
625.500000	224.890689 
626.000000	229.358272 
626.500000	235.364469 
627.000000	241.530250 
627.500000	246.122287 
628.000000	249.426924 
628.500000	252.201098 
629.000000	255.298090 
629.500000	259.092416 
630.000000	262.379848 
630.500000	266.400878 
631.000000	270.984030 
631.500000	276.977651 
632.000000	281.564696 
632.500000	284.989037 
633.000000	288.066628 
633.500000	293.461174 
634.000000	300.584787 
634.500000	305.540030 
635.000000	307.826833 
635.500000	308.914257 
636.000000	313.335371 
636.500000	318.669280 
637.000000	322.201575 
637.500000	323.506553 
638.000000	326.690606 
638.500000	333.396075 
639.000000	338.196454 
639.500000	340.094825 
640.000000	340.903848 
640.500000	346.468787 
641.000000	353.562083 
641.500000	358.235030 
642.000000	359.598181 
642.500000	361.849545 
643.000000	366.317333 
643.500000	370.486712 
644.000000	373.577924 
644.500000	375.244825 
645.000000	377.712393 
645.500000	378.109878 
646.000000	378.467424 
646.500000	379.956257 
647.000000	384.671992 
647.500000	390.443477 
648.000000	394.517742 
648.500000	394.779522 
649.000000	392.690212 
649.500000	391.734303 
650.000000	393.397272 
650.500000	396.312272 
651.000000	399.848545 
651.500000	402.235446 
652.000000	403.693787 
652.500000	403.217227 
653.000000	401.714060 
653.500000	401.106462 
654.000000	401.271189 
654.500000	402.620696 
655.000000	402.459424 
655.500000	401.720446 
656.000000	397.396931 
656.500000	396.037560 
657.000000	396.496742 
657.500000	399.624878 
658.000000	399.486772 
658.500000	396.470803 
659.000000	392.340250 
659.500000	390.291083 
660.000000	389.013212 
660.500000	387.221848 
661.000000	383.902651 
661.500000	379.800780 
662.000000	377.950977 
662.500000	376.706734 
663.000000	375.235772 
663.500000	371.340568 
664.000000	368.093825 
664.500000	365.158219 
665.000000	363.215356 
665.500000	360.223393 
666.000000	357.523295 
666.500000	353.179287 
667.000000	348.052621 
667.500000	343.640787 
668.000000	340.243204 
668.500000	336.687757 
669.000000	331.226787 
669.500000	325.557886 
670.000000	319.533818 
670.500000	313.951666 
671.000000	308.493075 
671.500000	304.439234 
672.000000	300.667007 
672.500000	296.839734 
673.000000	292.483083 
673.500000	288.534712 
674.000000	283.779893 
674.500000	278.354833 
675.000000	272.002893 
675.500000	264.890954 
676.000000	257.658166 
676.500000	250.687848 
677.000000	244.417303 
677.500000	238.087946 
678.000000	232.375439 
678.500000	227.559439 
679.000000	224.420310 
679.500000	221.116189 
680.000000	216.569560 
680.500000	209.545446 
681.000000	201.350234 
681.500000	194.479287 
682.000000	190.029159 
682.500000	186.487969 
683.000000	182.249500 
683.500000	176.983522 
684.000000	172.646477 
684.500000	168.621090 
685.000000	164.364666 
685.500000	159.322204 
686.000000	154.445553 
686.500000	149.849590 
687.000000	145.540840 
687.500000	141.139871 
688.000000	136.570053 
688.500000	132.765575 
689.000000	129.246106 
689.500000	125.769681 
690.000000	121.311469 
690.500000	116.471265 
691.000000	111.926318 
691.500000	108.293424 
692.000000	105.643537 
692.500000	103.196871 
693.000000	99.969499  
693.500000	95.856992  
694.000000	92.393651  
694.500000	89.815969  
695.000000	87.958704  
695.500000	86.221893  
696.000000	84.168833  
696.500000	81.413151  
697.000000	78.460083  
697.500000	76.008272  
698.000000	73.678189  
698.500000	71.268295  
699.000000	68.737878  
699.500000	66.860060  
700.000000	64.289583  
700.500000	61.701750  
701.000000	59.496325  
701.500000	58.388795  
702.000000	57.466871  
702.500000	55.516287  
703.000000	53.033977  
703.500000	51.047636  
704.000000	50.891833  
704.500000	50.717560  
705.000000	49.401590  
705.500000	46.740530  
706.000000	44.895151  
706.500000	44.132704  
707.000000	43.203477  
707.500000	41.719553  
708.000000	40.233742  
708.500000	39.726075  
709.000000	39.191371  
709.500000	37.991840  
710.000000	36.297931  
710.500000	35.592757  
711.000000	35.370803  
711.500000	34.954083  
712.000000	34.202946  
712.500000	33.398666  
713.000000	32.282901  
713.500000	31.096416  
714.000000	30.402166  
714.500000	30.065590  
715.000000	29.272613  
715.500000	27.828969  
716.000000	26.749416  
716.500000	26.027348  
717.000000	25.771916  
717.500000	25.255931  
718.000000	24.806507  
718.500000	23.483196  
719.000000	22.606992  
719.500000	22.052295  
720.000000	22.193477  
720.500000	21.708121  
721.000000	20.986780  
721.500000	20.341454  
722.000000	20.013621  
722.500000	19.664643  
723.000000	19.257636  
723.500000	19.180196  
724.000000	18.935696  
724.500000	18.231636  
725.000000	17.389257  
725.500000	16.781666  
726.000000	16.521257  
726.500000	16.195727  
727.000000	16.142128  
727.500000	16.186810  
728.000000	16.304734  
728.500000	15.772803  
729.000000	15.035250  
729.500000	14.271401  
730.000000	14.055053  
730.500000	13.790969  
731.000000	13.403666  
731.500000	12.857007  
732.000000	12.705840  
732.500000	12.814250  
733.000000	13.029643  
733.500000	12.853446  
734.000000	12.204712  
734.500000	11.401545  
735.000000	10.998772  
735.500000	10.914015  
736.000000	11.117053  
736.500000	11.101250  
737.000000	11.079606  
737.500000	10.689409  
738.000000	10.364318  
738.500000	10.001575  
739.000000	10.091712  
739.500000	10.205378  
740.000000	10.468833  
740.500000	10.419439  
741.000000	9.991053   
741.500000	9.176250   
742.000000	8.566500   
742.500000	8.183787   
743.000000	8.358477   
743.500000	8.689878   
744.000000	9.136643   
744.500000	9.242007   
745.000000	9.109484   
745.500000	8.629204   
746.000000	8.302492   
746.500000	7.997636   
747.000000	7.563825   
747.500000	7.116159   
748.000000	6.938424   
748.500000	7.091931   
749.000000	7.127136   
749.500000	6.956484   
750.000000	6.939128   
750.500000	7.192310   
751.000000	7.222818   
751.500000	7.006598   
752.000000	6.742916   
752.500000	6.453916   
753.000000	6.156090   
753.500000	5.974151   
754.000000	6.046431   
754.500000	6.260628   
755.000000	6.404734   
755.500000	6.443000   
756.000000	6.406590   
756.500000	6.357568   
757.000000	6.257840   
757.500000	6.103734   
758.000000	5.704265   
758.500000	5.184484   
759.000000	4.934931   
759.500000	5.067446   
760.000000	5.365257   
760.500000	5.703121   
761.000000	5.861651   
761.500000	5.799196   
762.000000	5.326863   
762.500000	4.803878   
763.000000	4.483075   
763.500000	4.721674   
764.000000	5.089121   
764.500000	5.340696   
765.000000	5.224015   
765.500000	4.981795   
766.000000	5.056946   
766.500000	5.100037   
767.000000	4.877674   
767.500000	4.384446   
768.000000	4.364174   
768.500000	4.572424   
769.000000	4.713083   
769.500000	4.519492   
770.000000	4.461613   
770.500000	4.468431   
771.000000	4.485295   
771.500000	4.344939   
772.000000	4.098128   
772.500000	3.625393   
773.000000	3.291325   
773.500000	3.363969   
774.000000	3.603265   
774.500000	3.798462   
775.000000	3.905083   
775.500000	4.002242   
776.000000	3.917750   
776.500000	3.747007   
777.000000	3.598272   
777.500000	3.571681   
778.000000	3.455954   
778.500000	3.458265   
779.000000	3.611128   
779.500000	3.761772   
780.000000	3.579954   
780.500000	3.262409   
781.000000	2.967734   
781.500000	3.046068   
782.000000	3.299659   
782.500000	3.510909   
783.000000	3.437848   
783.500000	3.252469   
784.000000	3.156848   
784.500000	3.227037   
785.000000	3.379174   
785.500000	3.458643   
786.000000	3.408924   
786.500000	3.355757   
787.000000	3.307568   
787.500000	3.266121   
788.000000	3.084287   
788.500000	2.850401   
789.000000	2.719128   
789.500000	2.763568   
790.000000	2.892159   
790.500000	2.992583   
791.000000	3.050772   
791.500000	3.042886   
792.000000	3.039636   
792.500000	2.969053   
793.000000	2.979477   
793.500000	3.032643   
794.000000	3.086151   
794.500000	2.896212   
795.000000	2.604484   
795.500000	2.391000   
796.000000	2.494030   
796.500000	2.617825   
797.000000	2.655454   
797.500000	2.593931   
798.000000	2.639371   
798.500000	2.755689   
799.000000	2.833924   
799.500000	2.800825   
800.000000	2.653750   
800.500000	2.456909   
801.000000	2.402174   
801.500000	2.591356   
802.000000	2.849257   
802.500000	2.804356   
803.000000	2.506068   
803.500000	2.194272   
804.000000	2.118659   
804.500000	2.278424   
805.000000	2.449590   
805.500000	2.490484   
806.000000	2.340204   
806.500000	2.366909   
807.000000	2.314659   
807.500000	2.136492   
808.000000	1.744477   
808.500000	1.837727   
809.000000	2.112318   
809.500000	2.285128   
810.000000	2.170000   
810.500000	2.328098   
811.000000	2.431924   
811.500000	2.316378   
812.000000	1.976007   
812.500000	1.813401   
813.000000	1.687166   
813.500000	1.560977   
814.000000	1.455310   
814.500000	1.442712   
815.000000	1.489393   
815.500000	1.646696   
816.000000	1.835575   
816.500000	1.799060   
817.000000	1.683878   
817.500000	1.723416   
818.000000	1.999121   
818.500000	2.004787   
819.000000	1.772583   
819.500000	1.458121   
820.000000	1.403265   
820.500000	1.651424   
821.000000	1.968977   
821.500000	2.261303   
822.000000	2.476424   
822.500000	2.595924   
823.000000	2.561969   
823.500000	2.542560   
824.000000	2.631689   
824.500000	2.770772   
825.000000	2.806409   
825.500000	2.624969   
826.000000	2.490939   
826.500000	2.286462   
827.000000	2.028969   
827.500000	1.920818   
828.000000	1.896886   
828.500000	1.877583   
829.000000	1.689674   
829.500000	1.652128   
830.000000	1.717537   
830.500000	1.746348   
831.000000	1.478977   
831.500000	1.288424   
832.000000	1.236431   
832.500000	1.289765   
833.000000	1.226780   
833.500000	1.169560   
834.000000	1.092257   
834.500000	1.063492   
835.000000	1.023795   
835.500000	1.124780   
836.000000	1.233098   
836.500000	1.199568   
837.000000	0.975083   
837.500000	0.798537   
838.000000	0.766333   
838.500000	0.775030   
839.000000	0.807212   
839.500000	0.818181   
840.000000	0.846121   
840.500000	0.779787   
841.000000	0.669318   
841.500000	0.552765   
842.000000	0.463265   
842.500000	0.372136   
843.000000	0.325856   
843.500000	0.380583   
844.000000	0.490204   
844.500000	0.651325   
845.000000	0.733560   
845.500000	0.763037   
846.000000	0.684136   
846.500000	0.457909   
847.000000	0.227143   
847.500000	0.203113   
848.000000	0.389522   
848.500000	0.644143   
849.000000	0.823128   
849.500000	0.826204   
850.000000	0.573674   
850.500000	0.324757   
851.000000	0.257636   
851.500000	0.377856   
852.000000	0.331537   
852.500000	0.141515   
853.000000	0.040848   
853.500000	0.099681   
854.000000	0.252825   
854.500000	0.269333   
855.000000	0.265469   
855.500000	0.216628   
856.000000	0.213522   
856.500000	0.181356   
857.000000	0.196310   
857.500000	0.194613   
858.000000	0.107371   
858.500000	0.047825   
859.000000	0.078772   
859.500000	0.203507   
860.000000	0.253393   
860.500000	0.231939   
861.000000	0.199340   
861.500000	0.176242   
862.000000	0.241863   
862.500000	0.405325   
863.000000	0.547765   
863.500000	0.507431   
864.000000	0.372007   
864.500000	0.283939   
865.000000	0.232333   
865.500000	0.121643   
866.000000	0.015303   
866.500000	-0.030757  
867.000000	-0.020204  
867.500000	0.025515   
868.000000	0.092681   
868.500000	0.148651   
869.000000	0.171666   
869.500000	0.173234   
870.000000	0.099833   
870.500000	0.045068   
871.000000	-0.007787  
871.500000	0.058575   
872.000000	0.090090   
872.500000	0.059378   
873.000000	0.029477   
873.500000	0.088818   
874.000000	0.183734   
874.500000	0.141696   
875.000000	0.059598   
875.500000	-0.027939  
876.000000	0.021553   
876.500000	0.002704   
877.000000	-0.008348  
877.500000	0.017310   
878.000000	0.192378   
878.500000	0.293386   
879.000000	0.235613   
879.500000	0.053659   
880.000000	-0.067143  
880.500000	-0.084598  
881.000000	-0.061446  
881.500000	-0.068765  
882.000000	-0.092174  
882.500000	-0.059840  
883.000000	-0.055606  
883.500000	-0.089083  
884.000000	-0.165909  
884.500000	-0.105340  
885.000000	-0.004666  
885.500000	0.038477   
886.000000	-0.093522  
886.500000	-0.127515  
887.000000	0.034303   
887.500000	0.263568   
888.000000	0.283166   
888.500000	0.087999   
889.000000	-0.043106  
889.500000	-0.062151  
890.000000	-0.007477  
890.500000	-0.026825  
891.000000	-0.000196  
891.500000	-0.026515  
892.000000	0.017878   
892.500000	0.035212   
893.000000	0.103098   
893.500000	0.060553   
894.000000	-0.021401  
894.500000	-0.158810  
895.000000	-0.206560  
895.500000	-0.190151  
896.000000	-0.072613  
896.500000	0.021643   
897.000000	0.046204   
897.500000	-0.008992  

