PE FL                   SPECTRUM    ASCII       PEDS        1.60        
  -1
SA93A9~1.SP
24/04/12
15:50:36.00
24/04/12
15:50:36.00
Jan

897.500000
1









LS55
405.00
5.00
5.00
SCAN
1
20
100
100
0
400
0
1
0
1
5
ON
450 405 
1 0 0
#HDR
-1
-1
#GR
NM

0.00002384185791015625
0.0
450.000000
0.500000
896
8
363.626818
-0.219598
#DATA
450.000000	0.134000   
450.500000	-0.133431  
451.000000	-0.062333  
451.500000	0.242113   
452.000000	0.303651   
452.500000	0.193992   
453.000000	0.007325   
453.500000	-0.008977  
454.000000	-0.081742  
454.500000	-0.081477  
455.000000	0.022553   
455.500000	0.226719   
456.000000	0.244371   
456.500000	0.141606   
457.000000	0.052318   
457.500000	0.070606   
458.000000	0.017234   
458.500000	0.067507   
459.000000	0.148295   
459.500000	0.340765   
460.000000	0.394333   
460.500000	0.460765   
461.000000	0.368500   
461.500000	0.267598   
462.000000	0.153833   
462.500000	0.303068   
463.000000	0.439310   
463.500000	0.377113   
464.000000	0.136962   
464.500000	0.099840   
465.000000	0.104371   
465.500000	0.086409   
466.000000	-0.092166  
466.500000	0.027530   
467.000000	0.252310   
467.500000	0.452765   
468.000000	0.329742   
468.500000	0.224886   
469.000000	0.178696   
469.500000	0.173750   
470.000000	0.252833   
470.500000	0.259318   
471.000000	0.258348   
471.500000	0.090999   
472.000000	0.094030   
472.500000	0.123712   
473.000000	0.289037   
473.500000	0.303106   
474.000000	0.280719   
474.500000	0.154128   
475.000000	0.144492   
475.500000	0.247030   
476.000000	0.321393   
476.500000	0.328651   
477.000000	0.298431   
477.500000	0.248924   
478.000000	0.066348   
478.500000	-0.060151  
479.000000	-0.066999  
479.500000	0.100704   
480.000000	0.173818   
480.500000	0.282234   
481.000000	0.286696   
481.500000	0.255772   
482.000000	0.069431   
482.500000	0.147174   
483.000000	0.273856   
483.500000	0.377439   
484.000000	0.251681   
484.500000	0.125310   
485.000000	0.031303   
485.500000	0.012825   
486.000000	0.038712   
486.500000	0.142969   
487.000000	0.265643   
487.500000	0.184128   
488.000000	-0.010265  
488.500000	-0.186651  
489.000000	-0.132810  
489.500000	0.004113   
490.000000	0.184734   
490.500000	0.314999   
491.000000	0.513272   
491.500000	0.463022   
492.000000	0.275454   
492.500000	0.027007   
493.000000	0.051015   
493.500000	0.182325   
494.000000	0.312719   
494.500000	0.349719   
495.000000	0.390265   
495.500000	0.336242   
496.000000	0.277931   
496.500000	0.154659   
497.000000	0.141583   
497.500000	0.181416   
498.000000	0.322325   
498.500000	0.316712   
499.000000	0.366272   
499.500000	0.309000   
500.000000	0.367553   
500.500000	0.389696   
501.000000	0.520696   
501.500000	0.580060   
502.000000	0.573431   
502.500000	0.442166   
503.000000	0.404628   
503.500000	0.470530   
504.000000	0.567522   
504.500000	0.696962   
505.000000	0.827121   
505.500000	0.944371   
506.000000	0.932598   
506.500000	0.912651   
507.000000	0.936681   
507.500000	0.968863   
508.000000	0.918704   
508.500000	0.841522   
509.000000	0.837909   
509.500000	0.871840   
510.000000	0.877234   
510.500000	0.929386   
511.000000	1.114037   
511.500000	1.265416   
512.000000	1.346621   
512.500000	1.314446   
513.000000	1.323772   
513.500000	1.383303   
514.000000	1.491924   
514.500000	1.463318   
515.000000	1.481227   
515.500000	1.406469   
516.000000	1.349598   
516.500000	1.245227   
517.000000	1.295462   
517.500000	1.533833   
518.000000	1.729772   
518.500000	1.837856   
519.000000	1.982787   
519.500000	2.250492   
520.000000	2.250545   
520.500000	2.103750   
521.000000	2.070568   
521.500000	2.334780   
522.000000	2.501553   
522.500000	2.328234   
523.000000	2.208651   
523.500000	2.407030   
524.000000	2.803083   
524.500000	2.841500   
525.000000	2.663280   
525.500000	2.531742   
526.000000	2.706795   
526.500000	2.947469   
527.000000	3.175734   
527.500000	3.386659   
528.000000	3.499628   
528.500000	3.543795   
529.000000	3.655545   
529.500000	3.829121   
530.000000	3.939750   
530.500000	4.116833   
531.000000	4.451431   
531.500000	4.871750   
532.000000	5.235106   
532.500000	5.438689   
533.000000	5.688295   
533.500000	5.855484   
534.000000	6.009681   
534.500000	6.194613   
535.000000	6.505742   
535.500000	6.636916   
536.000000	6.765901   
536.500000	6.865893   
537.000000	7.303628   
537.500000	7.810045   
538.000000	8.282166   
538.500000	8.615727   
539.000000	9.043409   
539.500000	9.423787   
540.000000	9.652386   
540.500000	9.811492   
541.000000	10.057007  
541.500000	10.537189  
542.000000	10.773378  
542.500000	10.747628  
543.000000	10.687113  
543.500000	11.015022  
544.000000	11.393871  
544.500000	11.715818  
545.000000	11.882181  
545.500000	11.939121  
546.000000	11.783424  
546.500000	11.774696  
547.000000	11.866053  
547.500000	12.009318  
548.000000	11.915424  
548.500000	11.720795  
549.000000	11.648969  
549.500000	11.700901  
550.000000	11.875348  
550.500000	11.889643  
551.000000	11.933348  
551.500000	12.249083  
552.000000	13.137977  
552.500000	13.444750  
553.000000	13.060946  
553.500000	12.402742  
554.000000	12.450734  
554.500000	12.793969  
555.000000	12.903553  
555.500000	12.709257  
556.000000	12.537128  
556.500000	12.722106  
557.000000	13.081757  
557.500000	13.528659  
558.000000	13.652356  
558.500000	14.076106  
559.000000	14.511151  
559.500000	15.098643  
560.000000	15.309371  
560.500000	15.701492  
561.000000	15.822212  
561.500000	16.060719  
562.000000	16.209727  
562.500000	16.865628  
563.000000	17.380598  
563.500000	17.509250  
564.000000	17.460537  
564.500000	17.917545  
565.000000	18.975939  
565.500000	19.913393  
566.000000	20.388916  
566.500000	20.587386  
567.000000	21.180090  
567.500000	21.876613  
568.000000	22.251553  
568.500000	22.595204  
569.000000	23.240818  
569.500000	24.082249  
570.000000	24.729265  
570.500000	24.709598  
571.000000	24.696196  
571.500000	25.054909  
572.000000	26.201712  
572.500000	27.606340  
573.000000	28.628939  
573.500000	28.849113  
574.000000	28.496015  
574.500000	28.544931  
575.000000	29.265795  
575.500000	30.683090  
576.000000	31.837022  
576.500000	32.384401  
577.000000	32.192098  
577.500000	31.986984  
578.000000	32.079575  
578.500000	32.735075  
579.000000	33.462030  
579.500000	34.060848  
580.000000	34.448613  
580.500000	35.453742  
581.000000	36.359939  
581.500000	37.505037  
582.000000	38.281818  
582.500000	39.153750  
583.000000	39.815439  
583.500000	40.403803  
584.000000	40.471219  
584.500000	40.617000  
585.000000	41.270727  
585.500000	42.332704  
586.000000	43.616212  
586.500000	44.477507  
587.000000	45.685598  
587.500000	46.808636  
588.000000	47.950219  
588.500000	48.562484  
589.000000	49.562295  
589.500000	51.366840  
590.000000	53.089310  
590.500000	54.090409  
591.000000	54.049068  
591.500000	54.946969  
592.000000	56.322462  
592.500000	58.228674  
593.000000	59.475053  
593.500000	60.946356  
594.000000	61.764507  
594.500000	63.099621  
595.000000	64.660954  
595.500000	66.441363  
596.000000	66.925856  
596.500000	67.742727  
597.000000	69.777893  
597.500000	72.882568  
598.000000	74.370666  
598.500000	75.110371  
599.000000	75.885166  
599.500000	78.222674  
600.000000	80.302636  
600.500000	82.141568  
601.000000	82.839598  
601.500000	83.856386  
602.000000	84.977272  
602.500000	86.780553  
603.000000	88.393249  
603.500000	90.106386  
604.000000	92.202553  
604.500000	94.952303  
605.000000	97.417537  
605.500000	98.960257  
606.000000	99.854689  
606.500000	101.408265 
607.000000	103.260992 
607.500000	105.171825 
608.000000	106.334780 
608.500000	108.297893 
609.000000	110.952772 
609.500000	114.296401 
610.000000	117.265098 
610.500000	119.709325 
611.000000	121.590075 
611.500000	122.978462 
612.000000	124.888575 
612.500000	127.807560 
613.000000	131.641962 
613.500000	134.699348 
614.000000	138.148136 
614.500000	141.796886 
615.000000	145.707636 
615.500000	147.450250 
616.000000	148.888401 
616.500000	149.844984 
617.000000	151.738878 
617.500000	153.680984 
618.000000	157.618939 
618.500000	161.763795 
619.000000	164.637310 
619.500000	166.414628 
620.000000	169.182348 
620.500000	173.024280 
621.000000	176.449568 
621.500000	180.044750 
622.000000	183.474962 
622.500000	187.152772 
623.000000	189.564651 
623.500000	191.383037 
624.000000	193.764878 
624.500000	197.898500 
625.000000	202.215681 
625.500000	206.450136 
626.000000	209.207856 
626.500000	213.631068 
627.000000	218.551598 
627.500000	223.999409 
628.000000	227.142651 
628.500000	230.005439 
629.000000	233.324454 
629.500000	238.918871 
630.000000	244.054992 
630.500000	247.722977 
631.000000	250.327628 
631.500000	252.954530 
632.000000	256.932568 
632.500000	261.480212 
633.000000	265.892515 
633.500000	268.950583 
634.000000	272.519787 
634.500000	277.522249 
635.000000	283.825121 
635.500000	287.749371 
636.000000	290.307227 
636.500000	292.000575 
637.000000	294.281106 
637.500000	296.665363 
638.000000	300.297401 
638.500000	303.395515 
639.000000	307.712015 
639.500000	313.561780 
640.000000	320.231068 
640.500000	323.302583 
641.000000	322.784621 
641.500000	322.788636 
642.000000	327.405984 
642.500000	331.991893 
643.000000	333.698833 
643.500000	333.491553 
644.000000	335.904537 
644.500000	340.623537 
645.000000	345.088393 
645.500000	347.113477 
646.000000	347.854196 
646.500000	350.118704 
647.000000	352.597219 
647.500000	355.170613 
648.000000	354.818393 
648.500000	354.496537 
649.000000	354.919393 
649.500000	357.743537 
650.000000	359.314462 
650.500000	359.505303 
651.000000	359.795689 
651.500000	360.790181 
652.000000	362.644401 
652.500000	362.819886 
653.000000	362.092507 
653.500000	361.246878 
654.000000	362.390462 
654.500000	361.751590 
655.000000	360.084287 
655.500000	358.341121 
656.000000	359.733969 
656.500000	361.852757 
657.000000	363.101590 
657.500000	363.626818 
658.000000	363.535424 
658.500000	361.221045 
659.000000	357.030719 
659.500000	352.829303 
660.000000	349.399772 
660.500000	347.750750 
661.000000	347.065712 
661.500000	346.314628 
662.000000	342.969818 
662.500000	339.724924 
663.000000	335.744310 
663.500000	332.644212 
664.000000	329.482583 
664.500000	328.400901 
665.000000	325.839825 
665.500000	322.531719 
666.000000	317.637280 
666.500000	314.326946 
667.000000	310.145250 
667.500000	305.097348 
668.000000	298.283871 
668.500000	293.025234 
669.000000	289.309606 
669.500000	287.930083 
670.000000	283.671719 
670.500000	278.303537 
671.000000	272.282416 
671.500000	267.705325 
672.000000	262.002719 
672.500000	256.963424 
673.000000	252.580053 
673.500000	248.419462 
674.000000	241.865840 
674.500000	234.939803 
675.000000	228.980916 
675.500000	224.195151 
676.000000	220.434628 
676.500000	215.923090 
677.000000	210.812810 
677.500000	205.314106 
678.000000	201.614651 
678.500000	198.109659 
679.000000	193.591007 
679.500000	187.376856 
680.000000	180.681522 
680.500000	174.354136 
681.000000	169.658681 
681.500000	166.810083 
682.000000	163.234477 
682.500000	157.794484 
683.000000	151.388045 
683.500000	145.836848 
684.000000	141.167500 
684.500000	137.736765 
685.000000	134.780909 
685.500000	131.194045 
686.000000	126.548098 
686.500000	122.915303 
687.000000	120.040340 
687.500000	117.260007 
688.000000	112.779674 
688.500000	108.714325 
689.000000	105.785659 
689.500000	104.216098 
690.000000	101.865825 
690.500000	98.391916  
691.000000	94.198113  
691.500000	90.743969  
692.000000	87.941878  
692.500000	86.023924  
693.000000	84.565833  
693.500000	82.783666  
694.000000	79.632568  
694.500000	75.911568  
695.000000	72.704507  
695.500000	70.613280  
696.000000	68.736212  
696.500000	66.966348  
697.000000	65.175371  
697.500000	63.209946  
698.000000	61.030893  
698.500000	59.281053  
699.000000	57.805795  
699.500000	56.176712  
700.000000	53.710856  
700.500000	51.271356  
701.000000	49.545424  
701.500000	48.766196  
702.000000	47.834795  
702.500000	46.650431  
703.000000	45.356628  
703.500000	44.296681  
704.000000	43.066151  
704.500000	41.442893  
705.000000	40.071962  
705.500000	39.191787  
706.000000	38.829356  
706.500000	37.980575  
707.000000	36.757515  
707.500000	35.166098  
708.000000	34.083924  
708.500000	33.142098  
709.000000	31.991962  
709.500000	30.573696  
710.000000	29.695606  
710.500000	29.757848  
711.000000	29.701401  
711.500000	28.933060  
712.000000	27.826340  
712.500000	27.063333  
713.000000	26.271007  
713.500000	25.324848  
714.000000	24.674916  
714.500000	24.595242  
715.000000	24.443787  
715.500000	23.708765  
716.000000	22.741651  
716.500000	22.211136  
717.000000	21.744204  
717.500000	21.273628  
718.000000	20.687401  
718.500000	20.052969  
719.000000	19.372780  
719.500000	18.876212  
720.000000	18.945098  
720.500000	19.254454  
721.000000	19.204477  
721.500000	18.353356  
722.000000	17.531833  
722.500000	17.057810  
723.000000	17.184030  
723.500000	17.144848  
724.000000	16.529454  
724.500000	15.565750  
725.000000	14.917363  
725.500000	14.772492  
726.000000	14.828090  
726.500000	14.757856  
727.000000	14.377787  
727.500000	13.895727  
728.000000	13.336712  
728.500000	12.867356  
729.000000	12.299424  
729.500000	11.700537  
730.000000	11.459325  
730.500000	11.607272  
731.000000	11.707303  
731.500000	11.495189  
732.000000	11.347651  
732.500000	11.232393  
733.000000	11.110015  
733.500000	10.870962  
734.000000	10.669553  
734.500000	10.491893  
735.000000	10.352992  
735.500000	10.101795  
736.000000	9.985893   
736.500000	9.988090   
737.000000	10.199636  
737.500000	10.303621  
738.000000	9.914371   
738.500000	9.359674   
739.000000	9.196378   
739.500000	9.357265   
740.000000	9.060280   
740.500000	8.594136   
741.000000	8.243537   
741.500000	8.205151   
742.000000	7.808704   
742.500000	7.348295   
743.000000	7.241681   
743.500000	7.533075   
744.000000	7.662977   
744.500000	7.584871   
745.000000	7.430318   
745.500000	7.278022   
746.000000	7.015818   
746.500000	6.895454   
747.000000	6.882303   
747.500000	6.973431   
748.000000	7.056598   
748.500000	6.990704   
749.000000	6.632083   
749.500000	6.107772   
750.000000	5.785098   
750.500000	5.804007   
751.000000	5.788371   
751.500000	5.636068   
752.000000	5.645848   
752.500000	5.888704   
753.000000	5.872924   
753.500000	5.588295   
754.000000	5.413022   
754.500000	5.496893   
755.000000	5.749590   
755.500000	5.756924   
756.000000	5.607666   
756.500000	5.351075   
757.000000	5.238878   
757.500000	5.217704   
758.000000	5.200825   
758.500000	4.740113   
759.000000	4.213909   
759.500000	4.059189   
760.000000	4.473772   
760.500000	4.897492   
761.000000	4.914181   
761.500000	4.581439   
762.000000	4.332075   
762.500000	4.340901   
763.000000	4.433303   
763.500000	4.588719   
764.000000	4.637265   
764.500000	4.665863   
765.000000	4.595265   
765.500000	4.522257   
766.000000	4.423977   
766.500000	4.354234   
767.000000	4.241469   
767.500000	4.081227   
768.000000	3.956356   
768.500000	3.955939   
769.000000	3.982242   
769.500000	3.893977   
770.000000	3.821060   
770.500000	3.885272   
771.000000	4.080553   
771.500000	4.029939   
772.000000	3.874643   
772.500000	3.808462   
773.000000	3.881227   
773.500000	3.825227   
774.000000	3.511643   
774.500000	3.360598   
775.000000	3.381098   
775.500000	3.562962   
776.000000	3.553962   
776.500000	3.567734   
777.000000	3.541734   
777.500000	3.575492   
778.000000	3.432356   
778.500000	3.461848   
779.000000	3.620348   
779.500000	3.813803   
780.000000	3.636174   
780.500000	3.297295   
781.000000	2.996424   
781.500000	3.061371   
782.000000	3.226818   
782.500000	3.237083   
783.000000	3.026560   
783.500000	2.849416   
784.000000	2.949681   
784.500000	3.038393   
785.000000	3.007363   
785.500000	2.961090   
786.000000	3.030401   
786.500000	3.076409   
787.000000	3.036924   
787.500000	3.016030   
788.000000	2.953803   
788.500000	2.852053   
789.000000	2.739689   
789.500000	2.752416   
790.000000	2.767310   
790.500000	2.811325   
791.000000	2.852560   
791.500000	2.888742   
792.000000	2.863878   
792.500000	2.783803   
793.000000	2.748007   
793.500000	2.704212   
794.000000	2.742545   
794.500000	2.610704   
795.000000	2.557484   
795.500000	2.577469   
796.000000	2.862393   
796.500000	2.797856   
797.000000	2.457537   
797.500000	2.160560   
798.000000	2.256492   
798.500000	2.474325   
799.000000	2.440446   
799.500000	2.303196   
800.000000	2.310545   
800.500000	2.449295   
801.000000	2.420060   
801.500000	2.282159   
802.000000	2.214424   
802.500000	2.205515   
803.000000	2.179280   
803.500000	2.087469   
804.000000	2.019803   
804.500000	2.173901   
805.000000	2.299022   
805.500000	2.310537   
806.000000	2.214969   
806.500000	2.050939   
807.000000	1.848553   
807.500000	1.646477   
808.000000	1.550856   
808.500000	1.480053   
809.000000	1.429318   
809.500000	1.342939   
810.000000	1.489969   
810.500000	1.853643   
811.000000	2.106886   
811.500000	2.280848   
812.000000	2.263962   
812.500000	2.225909   
813.000000	2.134878   
813.500000	1.989696   
814.000000	1.722037   
814.500000	1.483833   
815.000000	1.308992   
815.500000	1.160219   
816.000000	1.191962   
816.500000	1.293833   
817.000000	1.535371   
817.500000	1.667204   
818.000000	1.848121   
818.500000	1.870515   
819.000000	1.889454   
819.500000	1.755250   
820.000000	1.807053   
820.500000	2.046719   
821.000000	2.315053   
821.500000	2.326454   
822.000000	2.210234   
822.500000	2.292136   
823.000000	2.504280   
823.500000	2.608909   
824.000000	2.392560   
824.500000	2.191242   
825.000000	2.202530   
825.500000	2.308121   
826.000000	2.258871   
826.500000	2.243136   
827.000000	2.316765   
827.500000	2.435643   
828.000000	2.241393   
828.500000	1.854893   
829.000000	1.571280   
829.500000	1.577295   
830.000000	1.671121   
830.500000	1.679189   
831.000000	1.625250   
831.500000	1.445901   
832.000000	1.367636   
832.500000	1.291022   
833.000000	1.274219   
833.500000	1.100469   
834.000000	1.007090   
834.500000	0.985749   
835.000000	1.092045   
835.500000	1.100242   
836.000000	1.046742   
836.500000	1.015469   
837.000000	1.084121   
837.500000	1.167075   
838.000000	1.060136   
838.500000	0.883984   
839.000000	0.775454   
839.500000	0.749939   
840.000000	0.737446   
840.500000	0.738606   
841.000000	0.851227   
841.500000	0.978318   
842.000000	1.030750   
842.500000	0.870666   
843.000000	0.583818   
843.500000	0.279916   
844.000000	0.282242   
844.500000	0.398712   
845.000000	0.418325   
845.500000	0.270045   
846.000000	0.289287   
846.500000	0.452280   
847.000000	0.645424   
847.500000	0.681295   
848.000000	0.504030   
848.500000	0.293416   
849.000000	0.142840   
849.500000	0.264477   
850.000000	0.317606   
850.500000	0.383439   
851.000000	0.316219   
851.500000	0.346045   
852.000000	0.307871   
852.500000	0.205492   
853.000000	0.055075   
853.500000	-0.012689  
854.000000	0.029939   
854.500000	0.105901   
855.000000	0.174507   
855.500000	0.190818   
856.000000	0.216712   
856.500000	0.119969   
857.000000	0.020659   
857.500000	-0.006598  
858.000000	0.074363   
858.500000	0.173227   
859.000000	0.252848   
859.500000	0.193121   
860.000000	0.001462   
860.500000	-0.194553  
861.000000	-0.219598  
861.500000	-0.040515  
862.000000	0.115500   
862.500000	0.194075   
863.000000	0.164090   
863.500000	0.196553   
864.000000	0.162530   
864.500000	0.068886   
865.000000	-0.040371  
865.500000	-0.004727  
866.000000	0.071780   
866.500000	0.089310   
867.000000	0.016053   
867.500000	0.027181   
868.000000	0.095075   
868.500000	0.145242   
869.000000	0.068772   
869.500000	0.010416   
870.000000	0.000212   
870.500000	0.098984   
871.000000	0.121651   
871.500000	0.053719   
872.000000	-0.027196  
872.500000	0.020901   
873.000000	0.147431   
873.500000	0.193878   
874.000000	0.168477   
874.500000	0.111772   
875.000000	0.073356   
875.500000	0.019477   
876.000000	-0.032734  
876.500000	0.005719   
877.000000	0.038522   
877.500000	0.036537   
878.000000	-0.009893  
878.500000	0.053886   
879.000000	0.150295   
879.500000	0.204212   
880.000000	0.118666   
880.500000	0.099204   
881.000000	0.170795   
881.500000	0.279083   
882.000000	0.291083   
882.500000	0.226166   
883.000000	0.133643   
883.500000	0.010371   
884.000000	-0.132712  
884.500000	-0.196401  
885.000000	-0.126734  
885.500000	0.012825   
886.000000	0.052939   
886.500000	0.002856   
887.000000	-0.052795  
887.500000	-0.036901  
888.000000	-0.052371  
888.500000	-0.086348  
889.000000	-0.106227  
889.500000	-0.099189  
890.000000	-0.136022  
890.500000	-0.110083  
891.000000	0.034878   
891.500000	0.193515   
892.000000	0.190174   
892.500000	0.070257   
893.000000	0.010856   
893.500000	0.052113   
894.000000	0.078750   
894.500000	0.075492   
895.000000	0.071090   
895.500000	0.061371   
896.000000	-0.007575  
896.500000	-0.025212  
897.000000	-0.071916  
897.500000	-0.069060  

