PE FL                   SPECTRUM    ASCII       PEDS        1.60        
  -1
SAA3C1~1.SP
24/04/12
17:21:53.00
24/04/12
17:21:53.00
Jan

897.500000
1









LS55
405.00
5.00
5.00
SCAN
1
20
100
100
0
400
0
1
0
1
5
ON
450 405 
1 0 0
#HDR
-1
-1
#GR
NM

0.00002384185791015625
0.0
450.000000
0.500000
896
8
197.242765
-0.373643
#DATA
450.000000	0.444000   
450.500000	0.191325   
451.000000	0.117750   
451.500000	0.145318   
452.000000	0.174484   
452.500000	-0.019666  
453.000000	-0.176613  
453.500000	-0.316333  
454.000000	-0.172469  
454.500000	-0.036075  
455.000000	0.090083   
455.500000	0.027045   
456.000000	-0.081348  
456.500000	-0.222136  
457.000000	-0.272174  
457.500000	-0.239454  
458.000000	-0.183166  
458.500000	-0.075696  
459.000000	-0.041742  
459.500000	-0.071212  
460.000000	-0.261522  
460.500000	-0.373643  
461.000000	-0.363522  
461.500000	-0.284992  
462.000000	-0.240590  
462.500000	-0.070189  
463.000000	0.044477   
463.500000	0.029303   
464.000000	0.003265   
464.500000	0.081750   
465.000000	0.196568   
465.500000	0.156901   
466.000000	0.146772   
466.500000	0.206325   
467.000000	0.238053   
467.500000	0.070946   
468.000000	0.028386   
468.500000	0.084886   
469.000000	0.188462   
469.500000	0.204681   
470.000000	0.199128   
470.500000	0.044090   
471.000000	-0.076431  
471.500000	-0.130916  
472.000000	-0.049340  
472.500000	-0.034568  
473.000000	-0.084128  
473.500000	-0.146757  
474.000000	-0.063037  
474.500000	-0.053969  
475.000000	-0.070030  
475.500000	-0.103151  
476.000000	-0.002606  
476.500000	0.127462   
477.000000	0.302174   
477.500000	0.307916   
478.000000	0.188227   
478.500000	-0.073560  
479.000000	-0.166568  
479.500000	-0.074954  
480.000000	0.100431   
480.500000	0.222378   
481.000000	0.277666   
481.500000	0.202727   
482.000000	0.007969   
482.500000	-0.083272  
483.000000	0.052098   
483.500000	0.284318   
484.000000	0.374098   
484.500000	0.332674   
485.000000	0.204477   
485.500000	0.056530   
486.000000	-0.010007  
486.500000	-0.046378  
487.000000	-0.019780  
487.500000	0.017068   
488.000000	0.053522   
488.500000	0.071371   
489.000000	0.108931   
489.500000	0.157492   
490.000000	0.080234   
490.500000	-0.074924  
491.000000	-0.265250  
491.500000	-0.247393  
492.000000	-0.139401  
492.500000	0.155272   
493.000000	0.354696   
493.500000	0.403659   
494.000000	0.213204   
494.500000	0.115484   
495.000000	0.168113   
495.500000	0.263704   
496.000000	0.187212   
496.500000	0.089598   
497.000000	0.089484   
497.500000	0.224454   
498.000000	0.263212   
498.500000	0.194462   
499.000000	0.107522   
499.500000	0.186939   
500.000000	0.289386   
500.500000	0.331545   
501.000000	0.281431   
501.500000	0.289628   
502.000000	0.245340   
502.500000	0.244871   
503.000000	0.260689   
503.500000	0.442916   
504.000000	0.472704   
504.500000	0.537477   
505.000000	0.509931   
505.500000	0.563946   
506.000000	0.565477   
506.500000	0.783840   
507.000000	0.977659   
507.500000	0.952325   
508.000000	0.731681   
508.500000	0.652704   
509.000000	0.815810   
509.500000	0.978257   
510.000000	1.019037   
510.500000	1.115803   
511.000000	1.327893   
511.500000	1.489356   
512.000000	1.483113   
512.500000	1.346446   
513.000000	1.309992   
513.500000	1.380613   
514.000000	1.557977   
514.500000	1.597840   
515.000000	1.616878   
515.500000	1.433757   
516.000000	1.423242   
516.500000	1.546287   
517.000000	1.943901   
517.500000	2.327696   
518.000000	2.441553   
518.500000	2.186333   
519.000000	1.946545   
519.500000	2.109234   
520.000000	2.530393   
520.500000	2.888174   
521.000000	2.993469   
521.500000	2.973984   
522.000000	2.987143   
522.500000	3.007234   
523.000000	3.057598   
523.500000	3.098219   
524.000000	3.154015   
524.500000	3.336636   
525.000000	3.622818   
525.500000	3.833378   
526.000000	3.883651   
526.500000	3.897356   
527.000000	3.983946   
527.500000	4.027075   
528.000000	4.054128   
528.500000	4.110590   
529.000000	4.404999   
529.500000	4.805477   
530.000000	5.355378   
530.500000	5.920689   
531.000000	6.440113   
531.500000	6.704227   
532.000000	6.830409   
532.500000	6.940227   
533.000000	7.128484   
533.500000	7.226348   
534.000000	7.403780   
534.500000	7.931803   
535.000000	8.539280   
535.500000	8.858742   
536.000000	8.901969   
536.500000	9.201015   
537.000000	9.661348   
537.500000	9.956053   
538.000000	10.173045  
538.500000	10.325219  
539.000000	10.591545  
539.500000	10.810106  
540.000000	11.324515  
540.500000	11.534325  
541.000000	11.625856  
541.500000	11.572606  
542.000000	11.949462  
542.500000	12.300500  
543.000000	12.629189  
543.500000	12.838553  
544.000000	12.998098  
544.500000	12.945492  
545.000000	12.759007  
545.500000	12.613431  
546.000000	12.615295  
546.500000	12.505143  
547.000000	12.243280  
547.500000	12.012727  
548.000000	11.969575  
548.500000	11.703590  
549.000000	11.304484  
549.500000	11.086333  
550.000000	11.379204  
550.500000	11.812931  
551.000000	11.885810  
551.500000	11.761083  
552.000000	11.695818  
552.500000	11.989598  
553.000000	12.098856  
553.500000	12.237136  
554.000000	12.352977  
554.500000	12.852530  
555.000000	13.127075  
555.500000	13.244977  
556.000000	13.479000  
556.500000	13.813674  
557.000000	14.037075  
557.500000	13.986492  
558.000000	14.565939  
558.500000	15.101265  
559.000000	15.567643  
559.500000	15.398825  
560.000000	15.859045  
560.500000	16.600704  
561.000000	17.433560  
561.500000	17.467280  
562.000000	17.143931  
562.500000	17.226015  
563.000000	18.073545  
563.500000	19.150204  
564.000000	19.545689  
564.500000	19.552750  
565.000000	19.684075  
565.500000	20.256303  
566.000000	20.848287  
566.500000	21.403310  
567.000000	21.845083  
567.500000	22.376696  
568.000000	22.899643  
568.500000	23.391522  
569.000000	23.945462  
569.500000	24.417734  
570.000000	24.775598  
570.500000	24.719030  
571.000000	24.698643  
571.500000	25.134651  
572.000000	25.649500  
572.500000	25.946310  
573.000000	26.179803  
573.500000	27.023295  
574.000000	27.647583  
574.500000	28.105469  
575.000000	28.132939  
575.500000	28.756818  
576.000000	29.538113  
576.500000	30.545340  
577.000000	31.278265  
577.500000	31.688310  
578.000000	31.588901  
578.500000	31.431931  
579.000000	31.934727  
579.500000	33.295484  
580.000000	34.784840  
580.500000	35.455545  
581.000000	35.697045  
581.500000	36.225530  
582.000000	37.289151  
582.500000	37.543333  
583.000000	37.187500  
583.500000	37.316007  
584.000000	38.751530  
584.500000	40.571121  
585.000000	41.769212  
585.500000	42.222045  
586.000000	42.296249  
586.500000	42.845924  
587.000000	43.742553  
587.500000	45.257212  
588.000000	46.287363  
588.500000	47.888401  
589.000000	49.262803  
589.500000	50.676393  
590.000000	50.449484  
590.500000	50.500696  
591.000000	50.773643  
591.500000	52.295143  
592.000000	53.072530  
592.500000	53.801893  
593.000000	54.327606  
593.500000	55.720030  
594.000000	57.152696  
594.500000	58.513590  
595.000000	59.318287  
595.500000	59.928636  
596.000000	60.525492  
596.500000	61.597287  
597.000000	62.978689  
597.500000	64.564613  
598.000000	65.689636  
598.500000	66.977265  
599.000000	68.043128  
599.500000	68.834151  
600.000000	69.327757  
600.500000	70.249242  
601.000000	71.794848  
601.500000	73.593484  
602.000000	75.104113  
602.500000	76.450795  
603.000000	77.480916  
603.500000	78.354492  
604.000000	79.045340  
604.500000	80.229901  
605.000000	81.436598  
605.500000	82.673416  
606.000000	84.151340  
606.500000	86.201848  
607.000000	88.510068  
607.500000	90.330984  
608.000000	91.579909  
608.500000	92.661295  
609.000000	93.977250  
609.500000	95.566590  
610.000000	97.472742  
610.500000	99.599499  
611.000000	101.341522 
611.500000	103.178075 
612.000000	104.865159 
612.500000	106.940537 
613.000000	108.947803 
613.500000	110.450772 
614.000000	111.834545 
614.500000	113.239477 
615.000000	114.435287 
615.500000	115.235318 
616.000000	116.402848 
616.500000	118.777780 
617.000000	121.883916 
617.500000	124.174946 
618.000000	124.600000 
618.500000	125.910477 
619.000000	128.310977 
619.500000	131.078348 
620.000000	131.454901 
620.500000	131.910810 
621.000000	134.115212 
621.500000	138.080280 
622.000000	141.288287 
622.500000	144.259901 
623.000000	147.242787 
623.500000	149.127613 
624.000000	149.446007 
624.500000	150.123924 
625.000000	152.198242 
625.500000	154.797075 
626.000000	155.768977 
626.500000	156.946871 
627.000000	159.013484 
627.500000	162.451151 
628.000000	164.920151 
628.500000	167.313984 
629.000000	169.190015 
629.500000	171.412916 
630.000000	173.034181 
630.500000	173.582537 
631.000000	173.783189 
631.500000	173.942469 
632.000000	175.643871 
632.500000	177.855863 
633.000000	179.864250 
633.500000	181.236507 
634.000000	182.720121 
634.500000	184.092469 
635.000000	185.119583 
635.500000	186.511492 
636.000000	187.247128 
636.500000	188.561227 
637.000000	190.107515 
637.500000	191.821537 
638.000000	191.663560 
638.500000	190.656787 
639.000000	190.479507 
639.500000	192.611628 
640.000000	195.069363 
640.500000	196.255704 
641.000000	195.614166 
641.500000	194.421030 
642.000000	194.077818 
642.500000	194.554333 
643.000000	194.835848 
643.500000	194.467196 
644.000000	194.232621 
644.500000	195.610901 
645.000000	196.606848 
645.500000	197.242765 
646.000000	195.980704 
646.500000	194.849401 
647.000000	193.362871 
647.500000	193.342287 
648.000000	192.497787 
648.500000	192.260606 
649.000000	190.514825 
649.500000	189.212143 
650.000000	186.234613 
650.500000	184.729727 
651.000000	184.487378 
651.500000	186.452780 
652.000000	185.162712 
652.500000	181.876371 
653.000000	177.476439 
653.500000	175.847250 
654.000000	174.081666 
654.500000	171.976848 
655.000000	169.212196 
655.500000	167.972280 
656.000000	166.133113 
656.500000	165.118030 
657.000000	164.228098 
657.500000	163.982000 
658.000000	161.676295 
658.500000	157.350446 
659.000000	152.529969 
659.500000	148.554583 
660.000000	145.236106 
660.500000	142.228772 
661.000000	139.444962 
661.500000	136.444848 
662.000000	133.444212 
662.500000	130.190401 
663.000000	127.183530 
663.500000	124.407818 
664.000000	122.867530 
664.500000	120.923189 
665.000000	117.573666 
665.500000	112.594333 
666.000000	108.711492 
666.500000	105.972613 
667.000000	104.359856 
667.500000	101.901333 
668.000000	99.546318  
668.500000	97.004250  
669.000000	94.151106  
669.500000	90.626075  
670.000000	87.433189  
670.500000	84.717303  
671.000000	83.216984  
671.500000	82.639015  
672.000000	81.860560  
672.500000	79.146000  
673.000000	75.095219  
673.500000	71.617999  
674.000000	69.537765  
674.500000	67.579121  
675.000000	64.819492  
675.500000	62.323280  
676.000000	60.703787  
676.500000	59.326325  
677.000000	57.208613  
677.500000	55.149886  
678.000000	53.450636  
678.500000	52.503946  
679.000000	51.263969  
679.500000	49.750265  
680.000000	48.288803  
680.500000	46.549666  
681.000000	44.799628  
681.500000	43.187636  
682.000000	42.085765  
682.500000	40.639553  
683.000000	39.235651  
683.500000	37.876871  
684.000000	37.193189  
684.500000	36.580166  
685.000000	35.714219  
685.500000	34.750287  
686.000000	34.127143  
686.500000	33.292310  
687.000000	31.792128  
687.500000	30.121810  
688.000000	29.228598  
688.500000	28.592303  
689.000000	28.086878  
689.500000	27.145303  
690.000000	26.452204  
690.500000	25.453424  
691.000000	24.436636  
691.500000	23.663439  
692.000000	23.181575  
692.500000	22.846962  
693.000000	22.347136  
693.500000	21.830787  
694.000000	20.821628  
694.500000	20.039674  
695.000000	19.388272  
695.500000	19.000007  
696.000000	18.083469  
696.500000	17.264083  
697.000000	16.867348  
697.500000	17.122325  
698.000000	17.124590  
698.500000	16.527204  
699.000000	15.617007  
699.500000	15.080333  
700.000000	15.016909  
700.500000	15.104734  
701.000000	15.273954  
701.500000	15.256318  
702.000000	15.098568  
702.500000	14.403522  
703.000000	13.405022  
703.500000	12.572234  
704.000000	12.210022  
704.500000	12.093363  
705.000000	11.882151  
705.500000	11.480181  
706.000000	11.008500  
706.500000	10.680098  
707.000000	10.604257  
707.500000	10.724886  
708.000000	10.839674  
708.500000	10.562151  
709.000000	10.267166  
709.500000	10.104212  
710.000000	10.029204  
710.500000	9.658780   
711.000000	9.183022   
711.500000	9.241507   
712.000000	9.439803   
712.500000	9.332962   
713.000000	8.791750   
713.500000	8.540863   
714.000000	8.687007   
714.500000	8.738196   
715.000000	8.320780   
715.500000	7.751659   
716.000000	7.541681   
716.500000	7.580545   
717.000000	7.919765   
717.500000	8.002045   
718.000000	7.796022   
718.500000	7.382962   
719.000000	7.264333   
719.500000	7.538189   
720.000000	7.715992   
720.500000	7.532871   
721.000000	7.291613   
721.500000	7.137424   
722.000000	7.006803   
722.500000	6.819825   
723.000000	6.711606   
723.500000	6.800651   
724.000000	6.921416   
724.500000	6.967409   
725.000000	6.665484   
725.500000	6.179674   
726.000000	5.636159   
726.500000	5.402704   
727.000000	5.365719   
727.500000	5.512643   
728.000000	5.548727   
728.500000	5.569666   
729.000000	5.531871   
729.500000	5.719939   
730.000000	6.027916   
730.500000	6.357022   
731.000000	6.144439   
731.500000	5.544984   
732.000000	4.790840   
732.500000	4.579166   
733.000000	4.794712   
733.500000	5.160674   
734.000000	5.311007   
734.500000	5.126583   
735.000000	4.920037   
735.500000	4.820734   
736.000000	4.806946   
736.500000	4.749674   
737.000000	4.636522   
737.500000	4.642500   
738.000000	4.514265   
738.500000	4.448462   
739.000000	4.511621   
739.500000	4.869431   
740.000000	5.025818   
740.500000	4.998636   
741.000000	4.726992   
741.500000	4.351977   
742.000000	3.952909   
742.500000	3.698636   
743.000000	3.744545   
743.500000	3.836818   
744.000000	4.003325   
744.500000	4.014189   
745.000000	4.068075   
745.500000	3.863287   
746.000000	3.929030   
746.500000	3.880075   
747.000000	3.987318   
747.500000	3.781787   
748.000000	3.688189   
748.500000	3.648166   
749.000000	3.818310   
749.500000	3.941250   
750.000000	3.851583   
750.500000	3.647257   
751.000000	3.438621   
751.500000	3.505507   
752.000000	3.536409   
752.500000	3.526409   
753.000000	3.476030   
753.500000	3.549446   
754.000000	3.718454   
754.500000	3.903378   
755.000000	3.960181   
755.500000	3.758462   
756.000000	3.539780   
756.500000	3.352333   
757.000000	3.417098   
757.500000	3.542378   
758.000000	3.637303   
758.500000	3.657371   
759.000000	3.598643   
759.500000	3.547378   
760.000000	3.543401   
760.500000	3.575083   
761.000000	3.493068   
761.500000	3.413106   
762.000000	3.318022   
762.500000	3.365196   
763.000000	3.457848   
763.500000	3.489348   
764.000000	3.479696   
764.500000	3.441772   
765.000000	3.421431   
765.500000	3.353621   
766.000000	3.157356   
766.500000	3.032325   
767.000000	3.082818   
767.500000	3.203659   
768.000000	3.188666   
768.500000	3.049189   
769.000000	2.899454   
769.500000	2.843818   
770.000000	2.835909   
770.500000	2.908818   
771.000000	2.972477   
771.500000	2.993454   
772.000000	2.993818   
772.500000	3.038325   
773.000000	3.030568   
773.500000	2.941454   
774.000000	2.838916   
774.500000	2.916303   
775.000000	3.135075   
775.500000	3.279916   
776.000000	3.198310   
776.500000	2.981568   
777.000000	2.877446   
777.500000	2.908568   
778.000000	2.971909   
778.500000	2.933257   
779.000000	2.879515   
779.500000	2.841446   
780.000000	2.896310   
780.500000	3.000310   
781.000000	3.015863   
781.500000	2.948234   
782.000000	2.848265   
782.500000	2.853628   
783.000000	2.776689   
783.500000	2.745742   
784.000000	2.614030   
784.500000	2.627787   
785.000000	2.679522   
785.500000	2.896909   
786.000000	3.050212   
786.500000	2.961560   
787.000000	2.746037   
787.500000	2.637560   
788.000000	2.730765   
788.500000	2.711325   
789.000000	2.690545   
789.500000	2.604507   
790.000000	2.555416   
790.500000	2.478613   
791.000000	2.414825   
791.500000	2.387787   
792.000000	2.142840   
792.500000	1.895863   
793.000000	1.762825   
793.500000	2.026780   
794.000000	2.332143   
794.500000	2.546356   
795.000000	2.557272   
795.500000	2.467984   
796.000000	2.437621   
796.500000	2.388416   
797.000000	2.352704   
797.500000	2.212583   
798.000000	2.204272   
798.500000	2.069628   
799.000000	1.956992   
799.500000	1.909295   
800.000000	2.186189   
800.500000	2.532795   
801.000000	2.612545   
801.500000	2.396212   
802.000000	2.107984   
802.500000	1.848356   
803.000000	1.565174   
803.500000	1.417810   
804.000000	1.473537   
804.500000	1.772939   
805.000000	1.960530   
805.500000	1.988204   
806.000000	1.759409   
806.500000	1.589674   
807.000000	1.424803   
807.500000	1.445848   
808.000000	1.399022   
808.500000	1.372106   
809.000000	1.316590   
809.500000	1.305196   
810.000000	1.482007   
810.500000	1.740893   
811.000000	2.026234   
811.500000	1.982613   
812.000000	1.867022   
812.500000	1.722196   
813.000000	1.761265   
813.500000	1.639712   
814.000000	1.475303   
814.500000	1.310530   
815.000000	1.281500   
815.500000	1.229545   
816.000000	1.204401   
816.500000	1.272454   
817.000000	1.422007   
817.500000	1.500537   
818.000000	1.532848   
818.500000	1.428590   
819.000000	1.360409   
819.500000	1.323045   
820.000000	1.563886   
820.500000	1.758075   
821.000000	1.833295   
821.500000	1.722007   
822.000000	1.832871   
822.500000	2.120909   
823.000000	2.287553   
823.500000	2.324159   
824.000000	2.238227   
824.500000	2.253401   
825.000000	2.188204   
825.500000	2.220356   
826.000000	2.316106   
826.500000	2.260553   
827.000000	1.922856   
827.500000	1.517272   
828.000000	1.421750   
828.500000	1.511575   
829.000000	1.695340   
829.500000	1.740825   
830.000000	1.658734   
830.500000	1.545265   
831.000000	1.531181   
831.500000	1.591954   
832.000000	1.527068   
832.500000	1.419136   
833.000000	1.363166   
833.500000	1.417416   
834.000000	1.287810   
834.500000	1.118962   
835.000000	0.907825   
835.500000	0.928053   
836.000000	0.967219   
836.500000	0.914916   
837.000000	0.691128   
837.500000	0.650068   
838.000000	0.837742   
838.500000	0.982386   
839.000000	0.952765   
839.500000	0.772416   
840.000000	0.747863   
840.500000	0.749446   
841.000000	0.744946   
841.500000	0.580954   
842.000000	0.474666   
842.500000	0.575613   
843.000000	0.835734   
843.500000	0.946583   
844.000000	0.720287   
844.500000	0.399969   
845.000000	0.147924   
845.500000	0.141106   
846.000000	0.277871   
846.500000	0.480265   
847.000000	0.539143   
847.500000	0.464462   
848.000000	0.407977   
848.500000	0.411196   
849.000000	0.409598   
849.500000	0.280954   
850.000000	0.128954   
850.500000	-0.014037  
851.000000	0.013893   
851.500000	0.158863   
852.000000	0.296537   
852.500000	0.355000   
853.000000	0.362840   
853.500000	0.317515   
854.000000	0.209939   
854.500000	0.027477   
855.000000	-0.123696  
855.500000	-0.246636  
856.000000	-0.313954  
856.500000	-0.289325  
857.000000	-0.158651  
857.500000	-0.081765  
858.000000	0.011371   
858.500000	0.159196   
859.000000	0.300318   
859.500000	0.252136   
860.000000	0.091962   
860.500000	0.031499   
861.000000	0.088053   
861.500000	0.097893   
862.000000	0.021553   
862.500000	0.024878   
863.000000	0.035424   
863.500000	0.064083   
864.000000	0.047439   
864.500000	0.121954   
865.000000	0.105348   
865.500000	0.049393   
866.000000	-0.034181  
866.500000	0.030765   
867.000000	0.085363   
867.500000	0.077992   
868.000000	0.016515   
868.500000	0.028022   
869.000000	0.083060   
869.500000	0.122825   
870.000000	0.073659   
870.500000	0.030280   
871.000000	0.009431   
871.500000	0.006325   
872.000000	-0.024840  
872.500000	0.015318   
873.000000	0.101651   
873.500000	0.193106   
874.000000	0.173446   
874.500000	0.102416   
875.000000	0.034227   
875.500000	-0.006492  
876.000000	-0.072674  
876.500000	-0.115098  
877.000000	-0.096765  
877.500000	-0.037484  
878.000000	-0.006068  
878.500000	-0.032984  
879.000000	-0.025219  
879.500000	0.052000   
880.000000	0.152348   
880.500000	0.171522   
881.000000	0.090962   
881.500000	-0.032545  
882.000000	-0.015742  
882.500000	0.013356   
883.000000	0.008818   
883.500000	-0.093818  
884.000000	-0.131977  
884.500000	-0.123522  
885.000000	-0.073265  
885.500000	-0.048371  
886.000000	-0.011037  
886.500000	0.001151   
887.000000	-0.022666  
887.500000	0.017068   
888.000000	0.044901   
888.500000	0.099386   
889.000000	0.157583   
889.500000	0.222931   
890.000000	0.177856   
890.500000	0.089083   
891.000000	-0.040681  
891.500000	-0.064787  
892.000000	-0.062583  
892.500000	-0.104477  
893.000000	-0.242590  
893.500000	-0.329212  
894.000000	-0.339893  
894.500000	-0.298530  
895.000000	-0.279507  
895.500000	-0.204106  
896.000000	-0.033007  
896.500000	0.095053   
897.000000	0.092060   
897.500000	0.002136   

