PE FL                   SPECTRUM    ASCII       PEDS        1.60        
  -1
SA9BCD~1.SP
24/04/12
16:12:00.00
24/04/12
16:12:00.00
Jan

897.500000
1









LS55
405.00
5.00
5.00
SCAN
1
20
100
100
0
400
0
1
0
1
5
ON
450 405 
1 0 0
#HDR
-1
-1
#GR
NM

0.00002384185791015625
0.0
450.000000
0.500000
896
8
335.797219
-0.229000
#DATA
450.000000	0.201000   
450.500000	-0.073439  
451.000000	-0.134696  
451.500000	-0.001022  
452.000000	0.140219   
452.500000	0.221469   
453.000000	0.288265   
453.500000	0.340272   
454.000000	0.398613   
454.500000	0.414295   
455.000000	0.328613   
455.500000	0.074621   
456.000000	-0.115022  
456.500000	-0.104151  
457.000000	0.041628   
457.500000	0.125712   
458.000000	-0.045712  
458.500000	-0.175575  
459.000000	-0.221143  
459.500000	-0.101954  
460.000000	-0.132075  
460.500000	-0.059083  
461.000000	-0.004318  
461.500000	0.172257   
462.000000	0.189439   
462.500000	0.120045   
463.000000	-0.034439  
463.500000	-0.099333  
464.000000	-0.198075  
464.500000	-0.229000  
465.000000	-0.120992  
465.500000	0.097204   
466.000000	0.158431   
466.500000	0.154477   
467.000000	0.107128   
467.500000	0.106613   
468.000000	0.115719   
468.500000	0.031136   
469.000000	-0.063340  
469.500000	-0.202795  
470.000000	-0.105181  
470.500000	0.055530   
471.000000	0.242856   
471.500000	0.131401   
472.000000	0.031356   
472.500000	-0.138053  
473.000000	-0.198121  
473.500000	-0.207204  
474.000000	-0.053015  
474.500000	-0.022681  
475.000000	-0.063916  
475.500000	-0.191484  
476.000000	-0.169833  
476.500000	-0.088181  
477.000000	0.033363   
477.500000	0.138151   
478.000000	0.194393   
478.500000	0.215992   
479.000000	0.172939   
479.500000	0.205840   
480.000000	0.214750   
480.500000	0.325674   
481.000000	0.306810   
481.500000	0.143462   
482.000000	-0.152121  
482.500000	-0.133515  
483.000000	0.151356   
483.500000	0.531037   
484.000000	0.655174   
484.500000	0.621159   
485.000000	0.442848   
485.500000	0.260530   
486.000000	0.232401   
486.500000	0.372590   
487.000000	0.433287   
487.500000	0.271628   
488.000000	0.142901   
488.500000	0.131500   
489.000000	0.227613   
489.500000	0.209060   
490.000000	0.151659   
490.500000	0.151742   
491.000000	0.157356   
491.500000	0.119765   
492.000000	0.079643   
492.500000	0.088878   
493.000000	0.157446   
493.500000	0.338189   
494.000000	0.536946   
494.500000	0.608545   
495.000000	0.483939   
495.500000	0.394856   
496.000000	0.417015   
496.500000	0.461712   
497.000000	0.339893   
497.500000	0.232734   
498.000000	0.136174   
498.500000	0.252272   
499.000000	0.328454   
499.500000	0.409954   
500.000000	0.314750   
500.500000	0.223818   
501.000000	0.079712   
501.500000	0.034537   
502.000000	0.136234   
502.500000	0.328969   
503.000000	0.496371   
503.500000	0.491242   
504.000000	0.525901   
504.500000	0.503340   
505.000000	0.613333   
505.500000	0.740674   
506.000000	0.982446   
506.500000	1.051401   
507.000000	0.963742   
507.500000	0.753962   
508.000000	0.698090   
508.500000	0.764939   
509.000000	0.919143   
509.500000	1.067340   
510.000000	1.210060   
510.500000	1.397840   
511.000000	1.496833   
511.500000	1.377393   
512.000000	1.071712   
512.500000	0.896234   
513.000000	0.996946   
513.500000	1.299143   
514.000000	1.638712   
514.500000	1.776250   
515.000000	1.753681   
515.500000	1.602863   
516.000000	1.608356   
516.500000	1.500984   
517.000000	1.402704   
517.500000	1.318969   
518.000000	1.420477   
518.500000	1.666969   
519.000000	1.916613   
519.500000	2.255515   
520.000000	2.468439   
520.500000	2.577772   
521.000000	2.465181   
521.500000	2.496310   
522.000000	2.518901   
522.500000	2.474007   
523.000000	2.312250   
523.500000	2.259393   
524.000000	2.554689   
524.500000	2.890015   
525.000000	3.096954   
525.500000	3.136462   
526.000000	3.164734   
526.500000	3.140575   
527.000000	3.145916   
527.500000	3.381924   
528.000000	3.666856   
528.500000	3.928537   
529.000000	3.899189   
529.500000	3.964212   
530.000000	4.208212   
530.500000	4.644568   
531.000000	4.862886   
531.500000	4.884462   
532.000000	5.058363   
532.500000	5.429356   
533.000000	5.922909   
533.500000	6.207515   
534.000000	6.520916   
534.500000	6.794007   
535.000000	7.048159   
535.500000	6.974325   
536.000000	6.942939   
536.500000	6.954325   
537.000000	7.399174   
537.500000	7.918462   
538.000000	8.553704   
538.500000	8.884886   
539.000000	9.192803   
539.500000	9.158901   
540.000000	9.266431   
540.500000	9.627416   
541.000000	10.490780  
541.500000	11.224234  
542.000000	11.410287  
542.500000	11.266469  
543.000000	11.356878  
543.500000	11.433651  
544.000000	11.235787  
544.500000	11.002462  
545.000000	11.122765  
545.500000	11.563181  
546.000000	11.700371  
546.500000	11.842128  
547.000000	11.663696  
547.500000	11.630189  
548.000000	11.580128  
548.500000	12.091469  
549.000000	12.423106  
549.500000	12.596515  
550.000000	12.340803  
550.500000	12.053537  
551.000000	11.851818  
551.500000	11.789719  
552.000000	11.893825  
552.500000	12.131151  
553.000000	12.258712  
553.500000	12.373727  
554.000000	12.299280  
554.500000	12.409045  
555.000000	12.545833  
555.500000	13.037734  
556.000000	13.348598  
556.500000	13.576606  
557.000000	13.542810  
557.500000	13.561537  
558.000000	13.836613  
558.500000	13.886787  
559.000000	13.886901  
559.500000	14.119787  
560.000000	15.098621  
560.500000	15.881022  
561.000000	16.304166  
561.500000	16.153075  
562.000000	15.912371  
562.500000	16.112772  
563.000000	16.959856  
563.500000	18.092015  
564.000000	18.631462  
564.500000	19.166136  
565.000000	19.798477  
565.500000	20.416393  
566.000000	20.404287  
566.500000	20.664803  
567.000000	21.331856  
567.500000	21.977954  
568.000000	22.034818  
568.500000	22.069848  
569.000000	22.522636  
569.500000	23.413113  
570.000000	24.346318  
570.500000	25.218628  
571.000000	25.574590  
571.500000	25.750303  
572.000000	25.823696  
572.500000	26.599871  
573.000000	27.536242  
573.500000	28.375439  
574.000000	28.598825  
574.500000	29.173227  
575.000000	30.128863  
575.500000	31.128196  
576.000000	30.977575  
576.500000	30.820795  
577.000000	30.869848  
577.500000	31.894954  
578.000000	32.602189  
578.500000	33.159795  
579.000000	33.275674  
579.500000	33.707901  
580.000000	34.291348  
580.500000	35.076189  
581.000000	35.915439  
581.500000	36.475757  
582.000000	37.049780  
582.500000	37.219196  
583.000000	37.558750  
583.500000	38.363045  
584.000000	39.653454  
584.500000	41.253810  
585.000000	42.550742  
585.500000	43.376303  
586.000000	43.720545  
586.500000	44.225568  
587.000000	45.162583  
587.500000	46.196606  
588.000000	47.154984  
588.500000	47.823575  
589.000000	48.816424  
589.500000	49.624553  
590.000000	50.978409  
590.500000	52.316113  
591.000000	53.813583  
591.500000	54.883598  
592.000000	56.029871  
592.500000	56.994310  
593.000000	58.016106  
593.500000	59.409378  
594.000000	60.736522  
594.500000	61.695757  
595.000000	62.704803  
595.500000	64.424295  
596.000000	66.065659  
596.500000	66.888621  
597.000000	67.171992  
597.500000	68.269916  
598.000000	69.440106  
598.500000	70.378575  
599.000000	71.286151  
599.500000	73.051446  
600.000000	75.046295  
600.500000	77.291734  
601.000000	79.151030  
601.500000	80.984772  
602.000000	82.186287  
602.500000	84.382401  
603.000000	87.330212  
603.500000	90.389939  
604.000000	91.575477  
604.500000	92.073401  
605.000000	92.642780  
605.500000	94.386765  
606.000000	96.210939  
606.500000	98.062590  
607.000000	100.217833 
607.500000	102.706340 
608.000000	104.665651 
608.500000	104.892977 
609.000000	105.425143 
609.500000	108.301234 
610.000000	113.239734 
610.500000	116.481886 
611.000000	117.998204 
611.500000	119.625568 
612.000000	122.311257 
612.500000	123.914492 
613.000000	124.626598 
613.500000	126.122871 
614.000000	129.478833 
614.500000	132.639893 
615.000000	135.255378 
615.500000	137.448818 
616.000000	140.937537 
616.500000	144.448484 
617.000000	147.604787 
617.500000	150.200674 
618.000000	153.792090 
618.500000	156.490734 
619.000000	157.674704 
619.500000	157.887863 
620.000000	159.681681 
620.500000	163.504280 
621.000000	168.181674 
621.500000	172.179992 
622.000000	175.127833 
622.500000	177.146727 
623.000000	180.174166 
623.500000	184.684795 
624.000000	189.300242 
624.500000	192.079598 
625.000000	193.554553 
625.500000	195.854446 
626.000000	200.142636 
626.500000	205.162212 
627.000000	208.559659 
627.500000	211.095454 
628.000000	213.153734 
628.500000	217.699727 
629.000000	222.691151 
629.500000	227.161727 
630.000000	230.221977 
630.500000	232.916348 
631.000000	236.105719 
631.500000	240.129946 
632.000000	244.603840 
632.500000	248.518280 
633.000000	252.014946 
633.500000	255.127083 
634.000000	258.559878 
634.500000	262.468159 
635.000000	265.898363 
635.500000	269.837386 
636.000000	273.069522 
636.500000	275.967128 
637.000000	278.764598 
637.500000	282.207946 
638.000000	285.258560 
638.500000	287.868750 
639.000000	289.271159 
639.500000	290.894363 
640.000000	293.076090 
640.500000	297.021916 
641.000000	300.822340 
641.500000	304.079492 
642.000000	306.633583 
642.500000	310.246606 
643.000000	312.968515 
643.500000	314.465310 
644.000000	315.415886 
644.500000	318.095969 
645.000000	321.303454 
645.500000	324.239939 
646.000000	326.232045 
646.500000	328.252333 
647.000000	328.916037 
647.500000	328.162765 
648.000000	327.791446 
648.500000	328.479553 
649.000000	329.421492 
649.500000	330.256848 
650.000000	331.641909 
650.500000	333.221606 
651.000000	334.715272 
651.500000	335.559060 
652.000000	335.797219 
652.500000	333.337954 
653.000000	329.573628 
653.500000	328.538818 
654.000000	332.187689 
654.500000	334.861621 
655.000000	334.807742 
655.500000	332.899712 
656.000000	332.960696 
656.500000	332.252613 
657.000000	329.607977 
657.500000	327.544166 
658.000000	327.429151 
658.500000	325.680348 
659.000000	321.522712 
659.500000	317.900113 
660.000000	317.595772 
660.500000	317.625893 
661.000000	315.611954 
661.500000	311.557454 
662.000000	308.398106 
662.500000	305.128393 
663.000000	303.170060 
663.500000	300.659613 
664.000000	298.167151 
664.500000	294.810681 
665.000000	292.037227 
665.500000	288.002007 
666.000000	283.231151 
666.500000	277.432515 
667.000000	272.909416 
667.500000	268.731303 
668.000000	265.012106 
668.500000	261.703636 
669.000000	259.201704 
669.500000	255.035893 
670.000000	248.895530 
670.500000	241.815386 
671.000000	236.149136 
671.500000	231.742265 
672.000000	227.469287 
672.500000	221.647189 
673.000000	216.426840 
673.500000	211.853553 
674.000000	208.878719 
674.500000	204.780287 
675.000000	200.313136 
675.500000	195.474204 
676.000000	191.276704 
676.500000	185.417984 
677.000000	179.188886 
677.500000	173.838507 
678.000000	171.157318 
678.500000	168.920090 
679.000000	164.610833 
679.500000	157.895030 
680.000000	152.072333 
680.500000	147.836151 
681.000000	145.022628 
681.500000	141.322924 
682.000000	137.362931 
682.500000	132.775931 
683.000000	128.931931 
683.500000	125.507287 
684.000000	123.012871 
684.500000	119.686871 
685.000000	115.803719 
685.500000	111.701371 
686.000000	108.008378 
686.500000	104.367257 
687.000000	100.997893 
687.500000	98.097863  
688.000000	95.560704  
688.500000	93.363507  
689.000000	90.418613  
689.500000	86.957469  
690.000000	83.701924  
690.500000	81.377166  
691.000000	79.367689  
691.500000	76.830113  
692.000000	74.438590  
692.500000	72.634515  
693.000000	70.754969  
693.500000	67.788287  
694.000000	64.614424  
694.500000	62.309227  
695.000000	60.834825  
695.500000	59.580060  
696.000000	57.841992  
696.500000	55.956924  
697.000000	53.979530  
697.500000	52.030840  
698.000000	50.556265  
698.500000	49.785734  
699.000000	49.091128  
699.500000	47.938484  
700.000000	46.349772  
700.500000	44.834924  
701.000000	42.876166  
701.500000	40.964803  
702.000000	39.338636  
702.500000	38.177780  
703.000000	37.108575  
703.500000	36.520227  
704.000000	36.298553  
704.500000	35.366946  
705.000000	33.944287  
705.500000	32.866113  
706.000000	32.812106  
706.500000	32.390954  
707.000000	31.384878  
707.500000	30.005393  
708.000000	28.730810  
708.500000	27.829628  
709.000000	27.378196  
709.500000	27.304098  
710.000000	26.650431  
710.500000	25.932469  
711.000000	24.967295  
711.500000	24.524242  
712.000000	23.552954  
712.500000	23.192840  
713.000000	22.461712  
713.500000	21.881734  
714.000000	20.921196  
714.500000	20.392106  
715.000000	19.838484  
715.500000	19.453871  
716.000000	18.988060  
716.500000	18.980810  
717.000000	18.957575  
717.500000	18.575984  
718.000000	17.890871  
718.500000	17.343287  
719.000000	17.004265  
719.500000	16.769500  
720.000000	16.251015  
720.500000	15.671515  
721.000000	15.231068  
721.500000	15.005621  
722.000000	14.882787  
722.500000	14.733727  
723.000000	14.294083  
723.500000	13.697045  
724.000000	13.202113  
724.500000	13.152742  
725.000000	13.330840  
725.500000	13.390295  
726.000000	13.208939  
726.500000	12.925878  
727.000000	12.549901  
727.500000	11.969037  
728.000000	11.461484  
728.500000	11.272621  
729.000000	11.377568  
729.500000	11.383136  
730.000000	11.474128  
730.500000	11.163659  
731.000000	10.684840  
731.500000	9.861166   
732.000000	9.563666   
732.500000	9.433113   
733.000000	9.592189   
733.500000	9.311863   
734.000000	9.028318   
734.500000	8.717015   
735.000000	8.719803   
735.500000	8.757060   
736.000000	8.626431   
736.500000	8.245803   
737.000000	7.909287   
737.500000	7.855848   
738.000000	8.059393   
738.500000	8.266499   
739.000000	8.231484   
739.500000	7.882000   
740.000000	7.665689   
740.500000	7.600712   
741.000000	7.743189   
741.500000	7.736666   
742.000000	7.802886   
742.500000	7.547977   
743.000000	7.155727   
743.500000	6.608303   
744.000000	6.454136   
744.500000	6.678462   
745.000000	6.820075   
745.500000	6.563424   
746.000000	6.138886   
746.500000	5.983833   
747.000000	5.991499   
747.500000	6.045666   
748.000000	6.177598   
748.500000	6.522219   
749.000000	6.767780   
749.500000	6.505598   
750.000000	6.212272   
750.500000	6.113530   
751.000000	6.333848   
751.500000	6.210037   
752.000000	5.759749   
752.500000	5.242159   
753.000000	5.144143   
753.500000	5.238204   
754.000000	5.299780   
754.500000	5.105553   
755.000000	4.951499   
755.500000	4.859742   
756.000000	4.966075   
756.500000	4.959962   
757.000000	5.070689   
757.500000	4.953712   
758.000000	4.886674   
758.500000	4.659431   
759.000000	4.552795   
759.500000	4.442507   
760.000000	4.271590   
760.500000	4.037946   
761.000000	3.933371   
761.500000	4.183265   
762.000000	4.532734   
762.500000	4.637462   
763.000000	4.328234   
763.500000	4.158712   
764.000000	4.168704   
764.500000	4.236606   
765.000000	4.005257   
765.500000	3.842212   
766.000000	3.841128   
766.500000	3.984643   
767.000000	3.861909   
767.500000	3.724477   
768.000000	3.550840   
768.500000	3.665348   
769.000000	3.905416   
769.500000	4.213757   
770.000000	4.117037   
770.500000	3.779454   
771.000000	3.476916   
771.500000	3.555719   
772.000000	3.578651   
772.500000	3.346272   
773.000000	3.149727   
773.500000	3.279492   
774.000000	3.605674   
774.500000	3.628484   
775.000000	3.407537   
775.500000	3.197318   
776.000000	3.223037   
776.500000	3.352621   
777.000000	3.445522   
777.500000	3.400787   
778.000000	3.302265   
778.500000	3.224901   
779.000000	3.236568   
779.500000	3.218371   
780.000000	3.195340   
780.500000	3.130598   
781.000000	3.145515   
781.500000	3.205121   
782.000000	3.206712   
782.500000	3.090916   
783.000000	2.987734   
783.500000	2.984090   
784.000000	2.890106   
784.500000	2.750848   
785.000000	2.721992   
785.500000	2.936477   
786.000000	3.101962   
786.500000	3.089636   
787.000000	2.933189   
787.500000	2.803909   
788.000000	2.773204   
788.500000	2.879265   
789.000000	2.963462   
789.500000	2.927954   
790.000000	2.834424   
790.500000	2.888712   
791.000000	3.026068   
791.500000	3.109075   
792.000000	3.050371   
792.500000	2.909242   
793.000000	2.679446   
793.500000	2.528742   
794.000000	2.584212   
794.500000	2.734174   
795.000000	2.826992   
795.500000	2.869825   
796.000000	2.946030   
796.500000	2.883189   
797.000000	2.632000   
797.500000	2.392681   
798.000000	2.258840   
798.500000	2.325257   
799.000000	2.414977   
799.500000	2.562848   
800.000000	2.399219   
800.500000	2.179969   
801.000000	1.965893   
801.500000	2.085939   
802.000000	2.044757   
802.500000	2.028962   
803.000000	2.017053   
803.500000	2.146522   
804.000000	2.110621   
804.500000	2.084772   
805.000000	2.034022   
805.500000	2.055053   
806.000000	1.944719   
806.500000	1.743287   
807.000000	1.545871   
807.500000	1.553871   
808.000000	1.799909   
808.500000	1.963598   
809.000000	1.831704   
809.500000	1.516977   
810.000000	1.470090   
810.500000	1.647689   
811.000000	1.863303   
811.500000	1.921037   
812.000000	1.927833   
812.500000	1.921219   
813.000000	1.840446   
813.500000	1.580128   
814.000000	1.337272   
814.500000	1.343037   
815.000000	1.529704   
815.500000	1.668401   
816.000000	1.697590   
816.500000	1.661189   
817.000000	1.669628   
817.500000	1.744909   
818.000000	1.840318   
818.500000	1.853568   
819.000000	1.859545   
819.500000	1.917765   
820.000000	1.967856   
820.500000	1.969007   
821.000000	2.077984   
821.500000	2.226659   
822.000000	2.356045   
822.500000	2.421439   
823.000000	2.556719   
823.500000	2.636719   
824.000000	2.579704   
824.500000	2.495795   
825.000000	2.416651   
825.500000	2.401227   
826.000000	2.334871   
826.500000	2.129492   
827.000000	1.766545   
827.500000	1.579416   
828.000000	1.574530   
828.500000	1.702522   
829.000000	1.799174   
829.500000	1.826500   
830.000000	1.635113   
830.500000	1.282181   
831.000000	1.007681   
831.500000	1.026636   
832.000000	1.127166   
832.500000	1.164833   
833.000000	1.117234   
833.500000	1.031666   
834.000000	1.074878   
834.500000	1.197553   
835.000000	1.237462   
835.500000	1.082553   
836.000000	0.957856   
836.500000	0.917742   
837.000000	0.997772   
837.500000	0.997128   
838.000000	0.997606   
838.500000	0.991537   
839.000000	0.999916   
839.500000	0.963575   
840.000000	0.918181   
840.500000	0.908727   
841.000000	0.889924   
841.500000	0.844454   
842.000000	0.759568   
842.500000	0.794007   
843.000000	0.817340   
843.500000	0.772143   
844.000000	0.700348   
844.500000	0.597136   
845.000000	0.475037   
845.500000	0.360719   
846.000000	0.410901   
846.500000	0.630803   
847.000000	0.844787   
847.500000	0.849083   
848.000000	0.686590   
848.500000	0.523128   
849.000000	0.401393   
849.500000	0.358393   
850.000000	0.362257   
850.500000	0.423234   
851.000000	0.513446   
851.500000	0.436833   
852.000000	0.295196   
852.500000	0.073818   
853.000000	0.028242   
853.500000	0.091901   
854.000000	0.297969   
854.500000	0.317090   
855.000000	0.305189   
855.500000	0.314651   
856.000000	0.464992   
856.500000	0.539621   
857.000000	0.437196   
857.500000	0.157969   
858.000000	-0.074060  
858.500000	-0.199606  
859.000000	-0.071666  
859.500000	0.102106   
860.000000	0.240878   
860.500000	0.193083   
861.000000	0.078992   
861.500000	-0.098113  
862.000000	-0.131727  
862.500000	-0.000909  
863.000000	0.206431   
863.500000	0.298295   
864.000000	0.215666   
864.500000	0.072454   
865.000000	-0.035939  
865.500000	-0.125401  
866.000000	-0.078166  
866.500000	0.025901   
867.000000	0.157007   
867.500000	0.132189   
868.000000	0.116393   
868.500000	-0.011598  
869.000000	-0.084681  
869.500000	-0.158977  
870.000000	-0.099727  
870.500000	-0.077545  
871.000000	-0.051795  
871.500000	-0.049424  
872.000000	0.046083   
872.500000	0.145318   
873.000000	0.210151   
873.500000	0.178136   
874.000000	0.069219   
874.500000	0.006098   
875.000000	0.030333   
875.500000	0.040325   
876.000000	-0.001689  
876.500000	0.051234   
877.000000	0.119575   
877.500000	0.094500   
878.000000	-0.109856  
878.500000	-0.163340  
879.000000	-0.054280  
879.500000	0.098340   
880.000000	0.031272   
880.500000	0.031969   
881.000000	0.092431   
881.500000	0.247939   
882.000000	0.195045   
882.500000	0.057522   
883.000000	-0.140416  
883.500000	-0.173416  
884.000000	-0.100484  
884.500000	0.056022   
885.000000	0.065303   
885.500000	0.013765   
886.000000	-0.100810  
886.500000	-0.049840  
887.000000	-0.039249  
887.500000	-0.042643  
888.000000	-0.163219  
888.500000	-0.133068  
889.000000	-0.063893  
889.500000	0.067916   
890.000000	0.077257   
890.500000	0.052969   
891.000000	-0.001568  
891.500000	-0.017856  
892.000000	-0.018545  
892.500000	0.043083   
893.000000	0.150643   
893.500000	0.221462   
894.000000	0.170363   
894.500000	-0.011196  
895.000000	-0.166250  
895.500000	-0.199712  
896.000000	-0.124386  
896.500000	-0.056772  
897.000000	-0.030454  
897.500000	-0.064659  

