PE FL                   SPECTRUM    ASCII       PEDS        1.60        
  -1
SAA3AD~1.SP
24/04/12
17:01:55.00
24/04/12
17:01:55.00
Jan

897.500000
1









LS55
405.00
5.00
5.00
SCAN
1
20
100
100
0
400
0
1
0
1
5
ON
450 405 
1 0 0
#HDR
-1
-1
#GR
NM

0.00002384185791015625
0.0
450.000000
0.500000
896
8
219.076696
-0.673000
#DATA
450.000000	-0.673000  
450.500000	-0.007681  
451.000000	0.387007   
451.500000	0.452250   
452.000000	0.301469   
452.500000	0.152469   
453.000000	0.104909   
453.500000	0.084227   
454.000000	-0.027181  
454.500000	-0.202386  
455.000000	-0.225401  
455.500000	-0.078212  
456.000000	0.072363   
456.500000	0.011810   
457.000000	-0.045954  
457.500000	0.034643   
458.000000	0.217500   
458.500000	0.337310   
459.000000	0.353893   
459.500000	0.278113   
460.000000	0.150977   
460.500000	0.063704   
461.000000	-0.047954  
461.500000	-0.193568  
462.000000	-0.353204  
462.500000	-0.348007  
463.000000	-0.235628  
463.500000	-0.063424  
464.000000	0.073083   
464.500000	0.061924   
465.000000	-0.059227  
465.500000	-0.151613  
466.000000	-0.099704  
466.500000	0.057446   
467.000000	0.193553   
467.500000	0.187924   
468.000000	0.081848   
468.500000	0.042628   
469.000000	0.014674   
469.500000	-0.043575  
470.000000	-0.267015  
470.500000	-0.409954  
471.000000	-0.385295  
471.500000	-0.191696  
472.000000	0.000545   
472.500000	0.171522   
473.000000	0.232363   
473.500000	0.292265   
474.000000	0.326212   
474.500000	0.154098   
475.000000	-0.109666  
475.500000	-0.203378  
476.000000	-0.056477  
476.500000	0.085409   
477.000000	0.054356   
477.500000	-0.058121  
478.000000	-0.124674  
478.500000	-0.091189  
479.000000	-0.012363  
479.500000	0.057833   
480.000000	0.024750   
480.500000	-0.116212  
481.000000	-0.207598  
481.500000	-0.230893  
482.000000	-0.099143  
482.500000	0.063681   
483.000000	0.262787   
483.500000	0.237007   
484.000000	0.157992   
484.500000	-0.011136  
485.000000	-0.019765  
485.500000	-0.021280  
486.000000	-0.058098  
486.500000	-0.135477  
487.000000	-0.119007  
487.500000	-0.019053  
488.000000	0.134363   
488.500000	0.226106   
489.000000	0.281015   
489.500000	0.200166   
490.000000	-0.037416  
490.500000	-0.216007  
491.000000	-0.150340  
491.500000	0.017848   
492.000000	0.063583   
492.500000	-0.007962  
493.000000	-0.096810  
493.500000	-0.046159  
494.000000	0.056219   
494.500000	0.025537   
495.000000	-0.011712  
495.500000	0.064757   
496.000000	0.354606   
496.500000	0.480689   
497.000000	0.444977   
497.500000	0.297636   
498.000000	0.232083   
498.500000	0.122053   
499.000000	0.060825   
499.500000	0.213568   
500.000000	0.414689   
500.500000	0.427128   
501.000000	0.376227   
501.500000	0.368515   
502.000000	0.429477   
502.500000	0.543893   
503.000000	0.581075   
503.500000	0.540969   
504.000000	0.459113   
504.500000	0.445401   
505.000000	0.451174   
505.500000	0.447128   
506.000000	0.413469   
506.500000	0.497939   
507.000000	0.736575   
507.500000	0.910098   
508.000000	1.061227   
508.500000	1.028356   
509.000000	0.987901   
509.500000	0.894590   
510.000000	0.935280   
510.500000	0.940356   
511.000000	0.974901   
511.500000	0.885848   
512.000000	0.921090   
512.500000	1.152265   
513.000000	1.531871   
513.500000	1.801515   
514.000000	1.850295   
514.500000	1.844825   
515.000000	1.902446   
515.500000	1.987840   
516.000000	1.891257   
516.500000	1.740424   
517.000000	1.645545   
517.500000	1.794393   
518.000000	2.115931   
518.500000	2.361651   
519.000000	2.336553   
519.500000	2.121409   
520.000000	2.075234   
520.500000	2.360393   
521.000000	2.690181   
521.500000	2.779045   
522.000000	2.805719   
522.500000	2.826166   
523.000000	2.877409   
523.500000	2.888500   
524.000000	2.915090   
524.500000	2.939681   
525.000000	3.081106   
525.500000	3.313477   
526.000000	3.656090   
526.500000	3.681333   
527.000000	3.582272   
527.500000	3.588621   
528.000000	3.771446   
528.500000	4.171492   
529.000000	4.557212   
529.500000	4.945704   
530.000000	5.174424   
530.500000	5.540348   
531.000000	5.917189   
531.500000	6.188651   
532.000000	5.892446   
532.500000	5.547295   
533.000000	5.747378   
533.500000	6.309515   
534.000000	6.880280   
534.500000	7.152265   
535.000000	7.346219   
535.500000	7.596348   
536.000000	7.879863   
536.500000	8.162962   
537.000000	8.581613   
537.500000	8.881992   
538.000000	9.090916   
538.500000	9.462727   
539.000000	10.269712  
539.500000	10.924916  
540.000000	11.187704  
540.500000	11.038401  
541.000000	11.223386  
541.500000	11.506583  
542.000000	11.672265  
542.500000	11.482696  
543.000000	11.428734  
543.500000	11.438318  
544.000000	11.555234  
544.500000	11.727492  
545.000000	12.196946  
545.500000	12.655439  
546.000000	13.063954  
546.500000	13.159810  
547.000000	13.142939  
547.500000	12.749750  
548.000000	12.521545  
548.500000	12.295037  
549.000000	12.203174  
549.500000	11.709659  
550.000000	11.288803  
550.500000	11.198030  
551.000000	11.538333  
551.500000	11.872431  
552.000000	12.033265  
552.500000	12.077462  
553.000000	12.078500  
553.500000	12.199181  
554.000000	12.154962  
554.500000	12.178363  
555.000000	12.426242  
555.500000	12.939901  
556.000000	13.098454  
556.500000	13.000530  
557.000000	12.827893  
557.500000	13.102871  
558.000000	13.708765  
558.500000	14.348015  
559.000000	14.949340  
559.500000	15.245068  
560.000000	15.392545  
560.500000	15.721954  
561.000000	16.169659  
561.500000	16.664977  
562.000000	17.226833  
562.500000	18.023234  
563.000000	18.560007  
563.500000	18.870136  
564.000000	19.144598  
564.500000	19.684613  
565.000000	20.077128  
565.500000	20.120856  
566.000000	20.216901  
566.500000	20.337750  
567.000000	20.780901  
567.500000	21.265310  
568.000000	22.227106  
568.500000	22.895477  
569.000000	23.382128  
569.500000	23.285590  
570.000000	23.835401  
570.500000	23.920803  
571.000000	24.479416  
571.500000	24.571659  
572.000000	25.487803  
572.500000	26.196356  
573.000000	26.972545  
573.500000	26.963893  
574.000000	27.267787  
574.500000	27.546181  
575.000000	27.950416  
575.500000	28.435946  
576.000000	28.942977  
576.500000	29.611840  
577.000000	30.237106  
577.500000	30.851621  
578.000000	31.299295  
578.500000	31.595962  
579.000000	31.930166  
579.500000	32.716280  
580.000000	33.511712  
580.500000	33.618477  
581.000000	33.784507  
581.500000	34.499250  
582.000000	35.732303  
582.500000	36.269348  
583.000000	36.681083  
583.500000	37.121492  
584.000000	38.437946  
584.500000	39.495439  
585.000000	40.540469  
585.500000	41.194083  
586.000000	41.735371  
586.500000	42.775848  
587.000000	44.299068  
587.500000	45.900901  
588.000000	46.166643  
588.500000	45.829106  
589.000000	45.788371  
589.500000	47.090446  
590.000000	48.463356  
590.500000	48.981575  
591.000000	49.439553  
591.500000	50.134454  
592.000000	51.767833  
592.500000	53.660939  
593.000000	55.705553  
593.500000	56.444962  
594.000000	56.429272  
594.500000	56.100712  
595.000000	56.858689  
595.500000	58.066553  
596.000000	59.700007  
596.500000	61.292250  
597.000000	62.592712  
597.500000	63.280856  
598.000000	64.206704  
598.500000	65.495621  
599.000000	67.229045  
599.500000	68.556613  
600.000000	69.602212  
600.500000	69.808196  
601.000000	70.183439  
601.500000	70.972795  
602.000000	72.689537  
602.500000	74.123272  
603.000000	75.981037  
603.500000	78.084712  
604.000000	80.035090  
604.500000	80.863643  
605.000000	81.992204  
605.500000	84.011431  
606.000000	86.227174  
606.500000	86.863098  
607.000000	87.476340  
607.500000	89.229257  
608.000000	92.031128  
608.500000	93.521803  
609.000000	93.816916  
609.500000	94.453666  
610.000000	96.544598  
610.500000	98.402712  
611.000000	99.698939  
611.500000	100.825909 
612.000000	103.068113 
612.500000	105.582469 
613.000000	107.884462 
613.500000	110.016143 
614.000000	112.920462 
614.500000	115.450295 
615.000000	117.272856 
615.500000	118.024174 
616.000000	118.914159 
616.500000	120.365053 
617.000000	122.284939 
617.500000	123.893181 
618.000000	125.736909 
618.500000	127.801363 
619.000000	129.974575 
619.500000	132.934189 
620.000000	135.757787 
620.500000	138.868136 
621.000000	140.736098 
621.500000	142.860659 
622.000000	144.263295 
622.500000	147.303871 
623.000000	149.855689 
623.500000	152.585583 
624.000000	153.673848 
624.500000	155.769030 
625.000000	157.670666 
625.500000	159.527287 
626.000000	159.533409 
626.500000	161.145818 
627.000000	164.257416 
627.500000	168.277386 
628.000000	171.129878 
628.500000	173.679037 
629.000000	175.860946 
629.500000	177.335053 
630.000000	178.185113 
630.500000	180.041045 
631.000000	183.323371 
631.500000	185.965916 
632.000000	188.195719 
632.500000	189.639371 
633.000000	191.287719 
633.500000	192.278189 
634.000000	194.366545 
634.500000	197.620818 
635.000000	200.981136 
635.500000	201.556674 
636.000000	200.741583 
636.500000	200.705424 
637.000000	202.400053 
637.500000	204.961348 
638.000000	207.027083 
638.500000	208.862303 
639.000000	210.080128 
639.500000	210.627333 
640.000000	211.412333 
640.500000	213.033174 
641.000000	214.640106 
641.500000	215.692234 
642.000000	215.814454 
642.500000	215.406181 
643.000000	214.890590 
643.500000	215.525090 
644.000000	217.101984 
644.500000	218.320439 
645.000000	218.758318 
645.500000	218.858212 
646.000000	219.076696 
646.500000	218.004515 
647.000000	216.191060 
647.500000	214.759909 
648.000000	215.949053 
648.500000	216.473734 
649.000000	216.151477 
649.500000	214.821431 
650.000000	215.897000 
650.500000	216.584333 
651.000000	215.768924 
651.500000	212.911939 
652.000000	212.711901 
652.500000	212.268901 
653.000000	210.629098 
653.500000	207.208916 
654.000000	205.659310 
654.500000	205.188712 
655.000000	203.842636 
655.500000	200.511462 
656.000000	197.212159 
656.500000	196.700666 
657.000000	196.340659 
657.500000	194.832643 
658.000000	191.389257 
658.500000	189.612946 
659.000000	188.664984 
659.500000	187.586909 
660.000000	184.419704 
660.500000	180.807871 
661.000000	177.478325 
661.500000	174.204204 
662.000000	171.451795 
662.500000	169.046545 
663.000000	166.391742 
663.500000	162.887863 
664.000000	158.112780 
664.500000	153.965159 
665.000000	150.851924 
665.500000	148.204196 
666.000000	144.829659 
666.500000	141.570537 
667.000000	138.055871 
667.500000	134.611537 
668.000000	130.297893 
668.500000	127.111727 
669.000000	125.170530 
669.500000	124.154825 
670.000000	122.112227 
670.500000	118.613954 
671.000000	114.111537 
671.500000	110.467598 
672.000000	107.959060 
672.500000	105.554234 
673.000000	102.807242 
673.500000	99.281045  
674.000000	96.330409  
674.500000	93.303045  
675.000000	90.737818  
675.500000	87.974265  
676.000000	85.877863  
676.500000	83.616946  
677.000000	81.367803  
677.500000	78.468287  
678.000000	75.626257  
678.500000	72.560689  
679.000000	69.830954  
679.500000	67.505143  
680.000000	65.831757  
680.500000	64.681878  
681.000000	63.282075  
681.500000	61.489227  
682.000000	59.539500  
682.500000	57.194780  
683.000000	54.861909  
683.500000	52.607310  
684.000000	51.159295  
684.500000	49.844075  
685.000000	48.989409  
685.500000	47.585681  
686.000000	46.279772  
686.500000	44.137431  
687.000000	42.468946  
687.500000	41.327386  
688.000000	40.822113  
688.500000	40.129454  
689.000000	39.217916  
689.500000	38.109356  
690.000000	37.159962  
690.500000	36.464590  
691.000000	35.537439  
691.500000	34.229015  
692.000000	32.572651  
692.500000	31.468765  
693.000000	30.928106  
693.500000	30.325681  
694.000000	29.321772  
694.500000	27.923045  
695.000000	27.164704  
695.500000	26.841621  
696.000000	26.547977  
696.500000	25.300992  
697.000000	24.156401  
697.500000	23.055765  
698.000000	22.225628  
698.500000	21.237462  
699.000000	20.815734  
699.500000	20.886560  
700.000000	20.809590  
700.500000	20.118560  
701.000000	19.259424  
701.500000	18.439378  
702.000000	17.892681  
702.500000	17.523613  
703.000000	17.391909  
703.500000	16.955424  
704.000000	16.662492  
704.500000	16.143348  
705.000000	15.824257  
705.500000	15.123083  
706.000000	14.748598  
706.500000	14.522143  
707.000000	14.545545  
707.500000	14.317696  
708.000000	13.873060  
708.500000	13.555174  
709.000000	13.297492  
709.500000	13.218833  
710.000000	12.853757  
710.500000	12.425507  
711.000000	11.829068  
711.500000	11.419696  
712.000000	11.243962  
712.500000	11.333939  
713.000000	11.571553  
713.500000	11.760053  
714.000000	11.676901  
714.500000	11.283659  
715.000000	10.783666  
715.500000	10.588810  
716.000000	10.228590  
716.500000	9.672969   
717.000000	9.047750   
717.500000	8.966325   
718.000000	9.007750   
718.500000	9.028454   
719.000000	8.938174   
719.500000	8.973575   
720.000000	8.900621   
720.500000	8.839606   
721.000000	8.678181   
721.500000	8.471916   
722.000000	8.091098   
722.500000	7.826416   
723.000000	7.539992   
723.500000	7.474893   
724.000000	7.599439   
724.500000	7.775333   
725.000000	7.623704   
725.500000	7.316636   
726.000000	7.055181   
726.500000	7.000787   
727.000000	6.938553   
727.500000	6.966818   
728.000000	7.065174   
728.500000	6.996363   
729.000000	6.673840   
729.500000	6.227833   
730.000000	6.028068   
730.500000	5.985007   
731.000000	6.186030   
731.500000	6.202560   
732.000000	6.190469   
732.500000	6.141499   
733.000000	6.230734   
733.500000	6.260636   
734.000000	6.260651   
734.500000	6.231159   
735.000000	6.126810   
735.500000	5.837606   
736.000000	5.555257   
736.500000	5.467537   
737.000000	5.467196   
737.500000	5.168469   
738.000000	4.829606   
738.500000	4.721280   
739.000000	4.909227   
739.500000	5.093204   
740.000000	5.151545   
740.500000	5.156553   
741.000000	5.151310   
741.500000	5.228681   
742.000000	5.068765   
742.500000	4.918204   
743.000000	4.647037   
743.500000	4.629174   
744.000000	4.721060   
744.500000	4.995098   
745.000000	5.035727   
745.500000	4.784530   
746.000000	4.422151   
746.500000	4.322628   
747.000000	4.409568   
747.500000	4.489280   
748.000000	4.588462   
748.500000	4.573333   
749.000000	4.371878   
749.500000	4.126143   
750.000000	4.090484   
750.500000	4.103424   
751.000000	4.016227   
751.500000	3.755840   
752.000000	3.749734   
752.500000	3.889871   
753.000000	4.073977   
753.500000	4.008378   
754.000000	3.835181   
754.500000	3.690787   
755.000000	3.586628   
755.500000	3.500621   
756.000000	3.452689   
756.500000	3.463893   
757.000000	3.546007   
757.500000	3.644409   
758.000000	3.712401   
758.500000	3.749795   
759.000000	3.823810   
759.500000	3.875553   
760.000000	3.681969   
760.500000	3.344181   
761.000000	3.171068   
761.500000	3.364810   
762.000000	3.562939   
762.500000	3.617128   
763.000000	3.635530   
763.500000	3.637719   
764.000000	3.638924   
764.500000	3.501492   
765.000000	3.352121   
765.500000	3.174795   
766.000000	3.103128   
766.500000	3.120250   
767.000000	3.329477   
767.500000	3.594280   
768.000000	3.700787   
768.500000	3.502931   
769.000000	3.185553   
769.500000	2.954272   
770.000000	2.937575   
770.500000	2.966977   
771.000000	2.985946   
771.500000	2.974265   
772.000000	2.982378   
772.500000	3.009257   
773.000000	2.977401   
773.500000	2.836219   
774.000000	2.726757   
774.500000	2.841583   
775.000000	3.085666   
775.500000	3.182825   
776.000000	3.116280   
776.500000	3.048893   
777.000000	3.121454   
777.500000	3.107492   
778.000000	2.978386   
778.500000	2.820174   
779.000000	2.851310   
779.500000	2.986659   
780.000000	3.081159   
780.500000	3.034522   
781.000000	2.937068   
781.500000	2.932462   
782.000000	2.965310   
782.500000	3.000393   
783.000000	2.929136   
783.500000	2.831257   
784.000000	2.806363   
784.500000	2.815787   
785.000000	2.792386   
785.500000	2.703537   
786.000000	2.643727   
786.500000	2.608696   
787.000000	2.559242   
787.500000	2.537196   
788.000000	2.550090   
788.500000	2.614378   
789.000000	2.680757   
789.500000	2.849181   
790.000000	2.834871   
790.500000	2.692863   
791.000000	2.542954   
791.500000	2.624727   
792.000000	2.680462   
792.500000	2.582484   
793.000000	2.455454   
793.500000	2.367098   
794.000000	2.223681   
794.500000	2.070598   
795.000000	2.108075   
795.500000	2.164803   
796.000000	2.078113   
796.500000	2.033348   
797.000000	2.258939   
797.500000	2.630553   
798.000000	2.752106   
798.500000	2.578272   
799.000000	2.302424   
799.500000	2.189181   
800.000000	2.181446   
800.500000	2.303946   
801.000000	2.470037   
801.500000	2.550719   
802.000000	2.302492   
802.500000	1.682189   
803.000000	1.192651   
803.500000	1.200878   
804.000000	1.570227   
804.500000	1.800893   
805.000000	1.766068   
805.500000	1.664363   
806.000000	1.594636   
806.500000	1.746310   
807.000000	1.842909   
807.500000	1.831606   
808.000000	1.596636   
808.500000	1.486174   
809.000000	1.413250   
809.500000	1.369636   
810.000000	1.420583   
810.500000	1.679500   
811.000000	2.054181   
811.500000	2.060772   
812.000000	1.756454   
812.500000	1.421409   
813.000000	1.319159   
813.500000	1.456681   
814.000000	1.564962   
814.500000	1.652257   
815.000000	1.602750   
815.500000	1.559992   
816.000000	1.387000   
816.500000	1.287196   
817.000000	1.225530   
817.500000	1.347787   
818.000000	1.457568   
818.500000	1.501916   
819.000000	1.416280   
819.500000	1.396310   
820.000000	1.471606   
820.500000	1.586492   
821.000000	1.556325   
821.500000	1.634666   
822.000000	1.713750   
822.500000	1.895681   
823.000000	1.896053   
823.500000	1.990356   
824.000000	2.160757   
824.500000	2.480727   
825.000000	2.690303   
825.500000	2.790340   
826.000000	2.717151   
826.500000	2.663901   
827.000000	2.478106   
827.500000	2.214522   
828.000000	1.925106   
828.500000	1.788803   
829.000000	1.631371   
829.500000	1.468840   
830.000000	1.438568   
830.500000	1.565863   
831.000000	1.584886   
831.500000	1.361234   
832.000000	1.168992   
832.500000	1.134522   
833.000000	1.153325   
833.500000	1.101234   
834.000000	1.018053   
834.500000	1.033219   
835.000000	1.035522   
835.500000	1.054787   
836.000000	1.063840   
836.500000	1.064924   
837.000000	1.039878   
837.500000	1.000530   
838.000000	1.048984   
838.500000	0.976022   
839.000000	0.789325   
839.500000	0.572462   
840.000000	0.659939   
840.500000	0.768946   
841.000000	0.798757   
841.500000	0.673121   
842.000000	0.639446   
842.500000	0.628257   
843.000000	0.587719   
843.500000	0.493530   
844.000000	0.514553   
844.500000	0.522393   
845.000000	0.522500   
845.500000	0.479287   
846.000000	0.544522   
846.500000	0.606734   
847.000000	0.579462   
847.500000	0.394613   
848.000000	0.309053   
848.500000	0.300977   
849.000000	0.345189   
849.500000	0.365962   
850.000000	0.349795   
850.500000	0.221901   
851.000000	0.071772   
851.500000	0.112878   
852.000000	0.385803   
852.500000	0.507734   
853.000000	0.374916   
853.500000	0.214340   
854.000000	0.242106   
854.500000	0.216742   
855.000000	0.043416   
855.500000	-0.105151  
856.000000	0.005303   
856.500000	0.121651   
857.000000	0.087439   
857.500000	-0.056462  
858.000000	-0.157803  
858.500000	-0.056886  
859.000000	0.084083   
859.500000	0.193454   
860.000000	0.155772   
860.500000	0.031477   
861.000000	-0.122659  
861.500000	-0.180068  
862.000000	-0.149734  
862.500000	-0.043628  
863.000000	0.041606   
863.500000	0.084704   
864.000000	0.099560   
864.500000	0.064643   
865.000000	-0.053416  
865.500000	-0.174651  
866.000000	-0.286969  
866.500000	-0.296560  
867.000000	-0.224909  
867.500000	-0.113280  
868.000000	0.012825   
868.500000	0.062568   
869.000000	0.062780   
869.500000	0.028643   
870.000000	0.003227   
870.500000	-0.029871  
871.000000	-0.044780  
871.500000	-0.074643  
872.000000	-0.082333  
872.500000	-0.082545  
873.000000	-0.045606  
873.500000	-0.017083  
874.000000	-0.084189  
874.500000	-0.105409  
875.000000	-0.003340  
875.500000	0.112196   
876.000000	0.054689   
876.500000	-0.002772  
877.000000	-0.062015  
877.500000	-0.048659  
878.000000	-0.122659  
878.500000	-0.093871  
879.000000	-0.039962  
879.500000	0.022265   
880.000000	-0.071303  
880.500000	-0.175151  
881.000000	-0.195015  
881.500000	-0.004840  
882.000000	0.199666   
882.500000	0.192439   
883.000000	-0.009022  
883.500000	-0.123393  
884.000000	-0.035121  
884.500000	0.085257   
885.000000	0.127848   
885.500000	0.090924   
886.000000	0.075143   
886.500000	0.105098   
887.000000	0.162128   
887.500000	0.136984   
888.000000	0.094098   
888.500000	0.073492   
889.000000	0.113212   
889.500000	0.097765   
890.000000	0.020613   
890.500000	-0.066613  
891.000000	-0.076037  
891.500000	-0.054962  
892.000000	-0.007742  
892.500000	0.014545   
893.000000	0.009446   
893.500000	-0.001704  
894.000000	-0.048871  
894.500000	-0.102189  
895.000000	-0.116803  
895.500000	-0.052818  
896.000000	0.025840   
896.500000	-0.005666  
897.000000	-0.102568  
897.500000	-0.180151  

