PE FL                   SPECTRUM    ASCII       PEDS        1.60        
  -1
SAABA9~1.SP
24/04/12
16:49:05.00
24/04/12
16:49:05.00
Jan

897.500000
1









LS55
405.00
5.00
5.00
SCAN
1
20
100
100
0
400
0
1
0
1
5
ON
450 405 
1 0 0
#HDR
-1
-1
#GR
NM

0.00002384185791015625
0.0
450.000000
0.500000
896
8
235.258424
-0.362863
#DATA
450.000000	0.738000   
450.500000	0.033446   
451.000000	-0.146060  
451.500000	0.093007   
452.000000	0.232568   
452.500000	0.134325   
453.000000	0.015113   
453.500000	0.017348   
454.000000	0.044469   
454.500000	-0.075780  
455.000000	-0.226363  
455.500000	-0.224386  
456.000000	-0.019333  
456.500000	0.133143   
457.000000	0.091856   
457.500000	-0.085825  
458.000000	-0.257325  
458.500000	-0.214106  
459.000000	-0.053977  
459.500000	0.134545   
460.000000	0.100757   
460.500000	-0.109431  
461.000000	-0.148325  
461.500000	-0.003121  
462.000000	0.201174   
462.500000	0.034310   
463.000000	-0.168643  
463.500000	-0.337143  
464.000000	-0.197492  
464.500000	-0.097287  
465.000000	-0.059401  
465.500000	-0.057265  
466.000000	-0.005068  
466.500000	0.020893   
467.000000	-0.001159  
467.500000	-0.027242  
468.000000	-0.003719  
468.500000	-0.034856  
469.000000	-0.081818  
469.500000	-0.195469  
470.000000	-0.084704  
470.500000	-0.094500  
471.000000	-0.075333  
471.500000	-0.157189  
472.000000	-0.153272  
472.500000	-0.210689  
473.000000	-0.296848  
473.500000	-0.362863  
474.000000	-0.231621  
474.500000	0.026212   
475.000000	0.033386   
475.500000	-0.079825  
476.000000	-0.302143  
476.500000	-0.247113  
477.000000	-0.009340  
477.500000	0.183265   
478.000000	-0.021249  
478.500000	-0.200893  
479.000000	-0.126598  
479.500000	0.269075   
480.000000	0.461977   
480.500000	0.278015   
481.000000	-0.053121  
481.500000	-0.181386  
482.000000	-0.033560  
482.500000	0.186121   
483.000000	0.269553   
483.500000	0.106856   
484.000000	-0.024068  
484.500000	-0.056886  
485.000000	-0.094439  
485.500000	-0.061962  
486.000000	0.010219   
486.500000	0.265159   
487.000000	0.335363   
487.500000	0.266295   
488.000000	-0.078000  
488.500000	-0.198500  
489.000000	-0.166303  
489.500000	0.011742   
490.000000	0.043083   
490.500000	0.161439   
491.000000	0.300931   
491.500000	0.351962   
492.000000	0.218689   
492.500000	0.104431   
493.000000	0.074257   
493.500000	0.027719   
494.000000	-0.015454  
494.500000	0.029227   
495.000000	0.084537   
495.500000	-0.059053  
496.000000	-0.223818  
496.500000	-0.210856  
497.000000	0.035613   
497.500000	0.265280   
498.000000	0.454954   
498.500000	0.390212   
499.000000	0.293545   
499.500000	0.202878   
500.000000	0.270401   
500.500000	0.215810   
501.000000	0.235803   
501.500000	0.336931   
502.000000	0.532863   
502.500000	0.454393   
503.000000	0.331083   
503.500000	0.416189   
504.000000	0.664484   
504.500000	0.730840   
505.000000	0.712931   
505.500000	0.786946   
506.000000	0.963553   
506.500000	1.005757   
507.000000	0.943462   
507.500000	0.861431   
508.000000	0.874560   
508.500000	0.857659   
509.000000	0.880530   
509.500000	0.969189   
510.000000	1.113719   
510.500000	1.118500   
511.000000	1.053833   
511.500000	0.990863   
512.000000	1.035386   
512.500000	1.140265   
513.000000	1.386924   
513.500000	1.664295   
514.000000	1.866954   
514.500000	1.809840   
515.000000	1.799651   
515.500000	1.777606   
516.000000	1.801037   
516.500000	1.745227   
517.000000	1.837621   
517.500000	1.954636   
518.000000	2.034227   
518.500000	2.014265   
519.000000	2.017318   
519.500000	2.111659   
520.000000	2.290431   
520.500000	2.416106   
521.000000	2.503560   
521.500000	2.573886   
522.000000	2.720939   
522.500000	2.760196   
523.000000	2.670098   
523.500000	2.536628   
524.000000	2.581742   
524.500000	2.835318   
525.000000	3.103696   
525.500000	3.185166   
526.000000	3.178545   
526.500000	3.169136   
527.000000	3.428378   
527.500000	3.762318   
528.000000	4.058446   
528.500000	4.152053   
529.000000	4.241704   
529.500000	4.449136   
530.000000	4.636537   
530.500000	4.992492   
531.000000	5.256984   
531.500000	5.667401   
532.000000	5.732363   
532.500000	5.915227   
533.000000	6.234553   
533.500000	6.813386   
534.000000	7.185522   
534.500000	7.249666   
535.000000	7.231257   
535.500000	7.316181   
536.000000	7.465780   
536.500000	7.802113   
537.000000	8.479530   
537.500000	9.309386   
538.000000	9.606371   
538.500000	9.387257   
539.000000	9.245931   
539.500000	9.768560   
540.000000	10.668750  
540.500000	11.230780  
541.000000	11.413174  
541.500000	11.223939  
542.000000	11.066371  
542.500000	11.176522  
543.000000	11.602068  
543.500000	12.080537  
544.000000	12.273280  
544.500000	12.064507  
545.000000	11.753924  
545.500000	11.471772  
546.000000	11.665878  
546.500000	11.749409  
547.000000	11.935772  
547.500000	11.560734  
548.000000	11.564053  
548.500000	11.414522  
549.000000	11.538022  
549.500000	11.400628  
550.000000	11.552287  
550.500000	11.543522  
551.000000	11.391621  
551.500000	11.077568  
552.000000	11.194962  
552.500000	11.659250  
553.000000	12.048409  
553.500000	11.713719  
554.000000	11.295378  
554.500000	11.418863  
555.000000	12.378946  
555.500000	13.259159  
556.000000	13.522090  
556.500000	13.182318  
557.000000	12.820818  
557.500000	12.881500  
558.000000	13.422962  
558.500000	14.239681  
559.000000	14.800931  
559.500000	14.950575  
560.000000	15.055250  
560.500000	15.441924  
561.000000	16.018250  
561.500000	16.580893  
562.000000	16.853696  
562.500000	16.997469  
563.000000	16.930166  
563.500000	17.077560  
564.000000	17.369143  
564.500000	18.174007  
565.000000	18.775643  
565.500000	19.176363  
566.000000	19.573901  
566.500000	20.186810  
567.000000	20.828977  
567.500000	21.087916  
568.000000	21.307477  
568.500000	21.366401  
569.000000	21.552227  
569.500000	21.587068  
570.000000	22.014310  
570.500000	22.719159  
571.000000	23.568272  
571.500000	24.390946  
572.000000	24.779371  
572.500000	24.935825  
573.000000	25.215090  
573.500000	26.110939  
574.000000	26.747659  
574.500000	27.423227  
575.000000	27.689075  
575.500000	28.097833  
576.000000	28.073962  
576.500000	28.496674  
577.000000	29.207689  
577.500000	30.173545  
578.000000	30.755212  
578.500000	31.148977  
579.000000	31.505765  
579.500000	31.812939  
580.000000	32.570181  
580.500000	33.563590  
581.000000	34.558500  
581.500000	34.849257  
582.000000	34.977250  
582.500000	35.018265  
583.000000	35.532037  
583.500000	36.350977  
584.000000	36.944310  
584.500000	37.498727  
585.000000	37.993340  
585.500000	39.120166  
586.000000	40.367977  
586.500000	41.450303  
587.000000	42.003462  
587.500000	42.453075  
588.000000	43.505719  
588.500000	44.582484  
589.000000	45.620280  
589.500000	45.751159  
590.000000	47.117568  
590.500000	48.920909  
591.000000	50.780840  
591.500000	50.987446  
592.000000	50.488196  
592.500000	50.972765  
593.000000	52.309409  
593.500000	53.799863  
594.000000	53.969984  
594.500000	54.418249  
595.000000	55.145962  
595.500000	56.846871  
596.000000	58.266484  
596.500000	59.472530  
597.000000	60.305227  
597.500000	61.701560  
598.000000	64.027386  
598.500000	66.607128  
599.000000	67.934643  
599.500000	67.479492  
600.000000	66.795621  
600.500000	67.291924  
601.000000	68.820492  
601.500000	70.757954  
602.000000	72.582893  
602.500000	74.313757  
603.000000	75.660537  
603.500000	77.112492  
604.000000	78.288583  
604.500000	80.147689  
605.000000	81.521424  
605.500000	83.445749  
606.000000	85.556348  
606.500000	87.554409  
607.000000	88.720106  
607.500000	88.909310  
608.000000	89.301772  
608.500000	90.817393  
609.000000	93.934863  
609.500000	96.408704  
610.000000	97.857462  
610.500000	98.159098  
611.000000	99.546469  
611.500000	101.667772 
612.000000	103.760431 
612.500000	104.568022 
613.000000	106.074856 
613.500000	108.550553 
614.000000	111.416545 
614.500000	113.640431 
615.000000	115.622424 
615.500000	117.679318 
616.000000	119.374454 
616.500000	120.794015 
617.000000	122.634568 
617.500000	125.483386 
618.000000	127.521325 
618.500000	128.912030 
619.000000	130.302583 
619.500000	133.413696 
620.000000	137.419424 
620.500000	141.093893 
621.000000	143.439037 
621.500000	144.709227 
622.000000	145.719727 
622.500000	145.531234 
623.000000	146.386098 
623.500000	148.631689 
624.000000	152.782553 
624.500000	156.272371 
625.000000	158.974696 
625.500000	160.917075 
626.000000	162.527325 
626.500000	166.206795 
627.000000	169.780212 
627.500000	172.633159 
628.000000	172.246969 
628.500000	173.575727 
629.000000	176.983492 
629.500000	182.022000 
630.000000	184.199333 
630.500000	185.947522 
631.000000	188.123386 
631.500000	191.182477 
632.000000	192.358416 
632.500000	193.982750 
633.000000	196.828840 
633.500000	201.324363 
634.000000	203.655227 
634.500000	204.599280 
635.000000	205.394537 
635.500000	207.919719 
636.000000	209.049204 
636.500000	210.191090 
637.000000	211.475681 
637.500000	214.271136 
638.000000	216.724166 
638.500000	219.245575 
639.000000	221.242340 
639.500000	222.889787 
640.000000	222.420484 
640.500000	221.835371 
641.000000	223.209818 
641.500000	226.773643 
642.000000	229.916356 
642.500000	230.891757 
643.000000	229.926159 
643.500000	229.196765 
644.000000	229.404416 
644.500000	230.440742 
645.000000	232.098204 
645.500000	233.113712 
646.000000	233.467219 
646.500000	233.523628 
647.000000	234.181727 
647.500000	234.969810 
648.000000	235.258424 
648.500000	234.094787 
649.000000	232.993507 
649.500000	232.153280 
650.000000	232.316681 
650.500000	232.555734 
651.000000	232.955022 
651.500000	232.265189 
652.000000	231.167484 
652.500000	229.620651 
653.000000	228.785371 
653.500000	227.325386 
654.000000	225.062128 
654.500000	222.066553 
655.000000	220.782280 
655.500000	220.715181 
656.000000	220.976492 
656.500000	220.194083 
657.000000	218.889257 
657.500000	216.996818 
658.000000	215.288909 
658.500000	213.132772 
659.000000	210.779022 
659.500000	207.886295 
660.000000	205.286424 
660.500000	202.089871 
661.000000	199.132340 
661.500000	195.753348 
662.000000	193.226598 
662.500000	190.097234 
663.000000	187.431628 
663.500000	185.063537 
664.000000	182.174272 
664.500000	179.072545 
665.000000	175.983984 
665.500000	173.335583 
666.000000	168.835530 
666.500000	164.549340 
667.000000	161.210090 
667.500000	159.367651 
668.000000	156.517121 
668.500000	152.344363 
669.000000	147.379818 
669.500000	142.870522 
670.000000	140.565181 
670.500000	138.880242 
671.000000	136.328340 
671.500000	131.770787 
672.000000	127.861159 
672.500000	124.632401 
673.000000	121.655560 
673.500000	118.196424 
674.000000	114.962704 
674.500000	111.556303 
675.000000	107.889136 
675.500000	104.457128 
676.000000	102.001795 
676.500000	100.540068 
677.000000	98.341015  
677.500000	94.993007  
678.000000	90.715772  
678.500000	87.173393  
679.000000	84.657674  
679.500000	82.987484  
680.000000	80.780030  
680.500000	78.154916  
681.000000	75.318643  
681.500000	73.309257  
682.000000	71.733143  
682.500000	69.711871  
683.000000	67.443878  
683.500000	65.698424  
684.000000	64.253219  
684.500000	62.501977  
685.000000	60.053166  
685.500000	57.573143  
686.000000	55.797454  
686.500000	54.743083  
687.000000	53.450712  
687.500000	51.853280  
688.000000	49.663818  
688.500000	48.156416  
689.000000	47.020757  
689.500000	46.009674  
690.000000	44.430075  
690.500000	43.413575  
691.000000	42.289583  
691.500000	41.105962  
692.000000	39.312772  
692.500000	37.980227  
693.000000	36.611712  
693.500000	34.953537  
694.000000	32.912348  
694.500000	31.451780  
695.000000	30.657234  
695.500000	30.354393  
696.000000	30.252356  
696.500000	29.652204  
697.000000	28.600492  
697.500000	27.436545  
698.000000	27.137098  
698.500000	26.931719  
699.000000	26.305560  
699.500000	25.234393  
700.000000	24.498515  
700.500000	23.704537  
701.000000	22.606219  
701.500000	21.610780  
702.000000	21.126431  
702.500000	21.189871  
703.000000	20.673946  
703.500000	20.071969  
704.000000	19.472969  
704.500000	19.309651  
705.000000	18.847393  
705.500000	18.278189  
706.000000	17.428409  
706.500000	16.687750  
707.000000	15.858446  
707.500000	15.331121  
708.000000	15.467886  
708.500000	16.321977  
709.000000	16.860015  
709.500000	16.688954  
710.000000	15.778166  
710.500000	14.889257  
711.000000	14.052901  
711.500000	13.442606  
712.000000	13.137060  
712.500000	13.041780  
713.000000	12.949924  
713.500000	12.668954  
714.000000	12.537113  
714.500000	12.498196  
715.000000	12.694356  
715.500000	12.654378  
716.000000	12.408333  
716.500000	11.682560  
717.000000	10.962712  
717.500000	10.624719  
718.000000	10.886871  
718.500000	10.714507  
719.000000	10.147886  
719.500000	9.481098   
720.000000	9.719606   
720.500000	10.166333  
721.000000	10.241015  
721.500000	9.578545   
722.000000	8.886318   
722.500000	8.356598   
723.000000	8.302007   
723.500000	8.389772   
724.000000	8.497075   
724.500000	8.407583   
725.000000	8.364356   
725.500000	8.285931   
726.000000	8.296613   
726.500000	8.209174   
727.000000	8.130863   
727.500000	8.012825   
728.000000	7.656840   
728.500000	7.324704   
729.000000	7.250689   
729.500000	7.580189   
730.000000	7.614287   
730.500000	7.234060   
731.000000	6.699348   
731.500000	6.610522   
732.000000	6.728553   
732.500000	6.612136   
733.000000	6.424424   
733.500000	6.281325   
734.000000	6.298499   
734.500000	6.315848   
735.000000	6.283856   
735.500000	6.269507   
736.000000	6.131939   
736.500000	6.068325   
737.000000	5.941681   
737.500000	5.854378   
738.000000	5.507886   
738.500000	5.407780   
739.000000	5.278553   
739.500000	5.182166   
740.000000	4.786689   
740.500000	4.777295   
741.000000	5.028606   
741.500000	5.415015   
742.000000	5.402045   
742.500000	5.540204   
743.000000	5.657454   
743.500000	5.797856   
744.000000	5.415196   
744.500000	5.201909   
745.000000	4.939689   
745.500000	4.769037   
746.000000	4.410674   
746.500000	4.405992   
747.000000	4.498363   
747.500000	4.727363   
748.000000	4.877113   
748.500000	4.828742   
749.000000	4.524287   
749.500000	4.071628   
750.000000	3.950704   
750.500000	4.054848   
751.000000	4.125719   
751.500000	3.959659   
752.000000	3.996075   
752.500000	4.282204   
753.000000	4.555946   
753.500000	4.429128   
754.000000	4.023174   
754.500000	3.822749   
755.000000	3.895121   
755.500000	3.940803   
756.000000	3.899704   
756.500000	3.837992   
757.000000	3.704174   
757.500000	3.415068   
758.000000	3.301204   
758.500000	3.598962   
759.000000	4.045553   
759.500000	4.150310   
760.000000	4.016560   
760.500000	3.800431   
761.000000	3.642878   
761.500000	3.464613   
762.000000	3.326606   
762.500000	3.258886   
763.000000	3.461007   
763.500000	3.681416   
764.000000	3.784446   
764.500000	3.533886   
765.000000	3.323348   
765.500000	3.353469   
766.000000	3.594136   
766.500000	3.698636   
767.000000	3.615219   
767.500000	3.414446   
768.000000	3.131462   
768.500000	2.942606   
769.000000	2.854840   
769.500000	2.931886   
770.000000	3.012598   
770.500000	3.099984   
771.000000	3.152742   
771.500000	3.209295   
772.000000	3.159007   
772.500000	3.054848   
773.000000	2.922242   
773.500000	2.877242   
774.000000	2.888469   
774.500000	2.985984   
775.000000	3.051265   
775.500000	3.081121   
776.000000	3.028045   
776.500000	3.052560   
777.000000	3.078924   
777.500000	3.049083   
778.000000	2.980378   
778.500000	2.988651   
779.000000	3.051765   
779.500000	3.022106   
780.000000	2.952000   
780.500000	2.901068   
781.000000	2.926765   
781.500000	2.935287   
782.000000	2.884719   
782.500000	2.728848   
783.000000	2.578371   
783.500000	2.604136   
784.000000	2.814954   
784.500000	2.995484   
785.000000	2.969393   
785.500000	2.871575   
786.000000	2.874787   
786.500000	2.844878   
787.000000	2.719431   
787.500000	2.624984   
788.000000	2.703151   
788.500000	2.853371   
789.000000	2.816462   
789.500000	2.659757   
790.000000	2.409098   
790.500000	2.316000   
791.000000	2.318954   
791.500000	2.554181   
792.000000	2.690257   
792.500000	2.710386   
793.000000	2.550015   
793.500000	2.494810   
794.000000	2.604575   
794.500000	2.712946   
795.000000	2.695045   
795.500000	2.544378   
796.000000	2.414893   
796.500000	2.281303   
797.000000	2.187348   
797.500000	2.101166   
798.000000	2.169075   
798.500000	2.294818   
799.000000	2.452068   
799.500000	2.539159   
800.000000	2.404507   
800.500000	2.178681   
801.000000	2.130295   
801.500000	2.311446   
802.000000	2.338553   
802.500000	2.123636   
803.000000	1.871136   
803.500000	1.890500   
804.000000	1.963515   
804.500000	1.865446   
805.000000	1.656628   
805.500000	1.515348   
806.000000	1.458537   
806.500000	1.492946   
807.000000	1.563765   
807.500000	1.624204   
808.000000	1.595704   
808.500000	1.561219   
809.000000	1.565333   
809.500000	1.529015   
810.000000	1.492742   
810.500000	1.428696   
811.000000	1.402659   
811.500000	1.339325   
812.000000	1.377090   
812.500000	1.492060   
813.000000	1.620696   
813.500000	1.507113   
814.000000	1.277500   
814.500000	1.062628   
815.000000	1.092015   
815.500000	1.189946   
816.000000	1.315734   
816.500000	1.302681   
817.000000	1.300909   
817.500000	1.200750   
818.000000	1.374439   
818.500000	1.547515   
819.000000	1.743712   
819.500000	1.729318   
820.000000	1.799159   
820.500000	1.789446   
821.000000	1.788530   
821.500000	1.678916   
822.000000	1.761303   
822.500000	1.821795   
823.000000	1.974666   
823.500000	2.187356   
824.000000	2.427666   
824.500000	2.322431   
825.000000	2.152530   
825.500000	2.094795   
826.000000	2.286500   
826.500000	2.401636   
827.000000	2.403083   
827.500000	2.280295   
828.000000	2.003560   
828.500000	1.663537   
829.000000	1.401939   
829.500000	1.303522   
830.000000	1.289681   
830.500000	1.338128   
831.000000	1.395863   
831.500000	1.385083   
832.000000	1.311840   
832.500000	1.215166   
833.000000	1.219553   
833.500000	1.206219   
834.000000	1.185333   
834.500000	1.126113   
835.000000	1.062954   
835.500000	1.056295   
836.000000	1.039628   
836.500000	0.953068   
837.000000	0.818924   
837.500000	0.810878   
838.000000	0.863492   
838.500000	0.887522   
839.000000	0.774719   
839.500000	0.758007   
840.000000	0.824053   
840.500000	0.903681   
841.000000	0.875143   
841.500000	0.899931   
842.000000	0.940810   
842.500000	0.903598   
843.000000	0.762272   
843.500000	0.569128   
844.000000	0.345431   
844.500000	0.053348   
845.000000	-0.009757  
845.500000	0.185727   
846.000000	0.423515   
846.500000	0.432166   
847.000000	0.383916   
847.500000	0.452522   
848.000000	0.467749   
848.500000	0.352106   
849.000000	0.214628   
849.500000	0.291424   
850.000000	0.369356   
850.500000	0.284659   
851.000000	0.161075   
851.500000	0.130886   
852.000000	0.235431   
852.500000	0.330689   
853.000000	0.347742   
853.500000	0.268765   
854.000000	0.150583   
854.500000	0.016628   
855.000000	-0.116325  
855.500000	-0.112234  
856.000000	-0.070515  
856.500000	0.096840   
857.000000	0.184469   
857.500000	0.238772   
858.000000	0.183166   
858.500000	0.080424   
859.000000	0.007204   
859.500000	0.005628   
860.000000	0.032621   
860.500000	0.059795   
861.000000	0.040901   
861.500000	-0.044750  
862.000000	-0.111636  
862.500000	-0.116143  
863.000000	-0.051295  
863.500000	0.047068   
864.000000	0.114454   
864.500000	0.188674   
865.000000	0.203636   
865.500000	0.152924   
866.000000	0.077863   
866.500000	0.030696   
867.000000	0.013401   
867.500000	0.025340   
868.000000	0.001787   
868.500000	-0.025068  
869.000000	-0.040166  
869.500000	0.046659   
870.000000	0.114825   
870.500000	0.059174   
871.000000	-0.150363  
871.500000	-0.239446  
872.000000	-0.129431  
872.500000	0.066878   
873.000000	0.108848   
873.500000	0.052992   
874.000000	-0.013909  
874.500000	0.004628   
875.000000	0.065863   
875.500000	0.038439   
876.000000	-0.126204  
876.500000	-0.279242  
877.000000	-0.302075  
877.500000	-0.248280  
878.000000	-0.316469  
878.500000	-0.345106  
879.000000	-0.239909  
879.500000	-0.010757  
880.000000	0.065893   
880.500000	0.057598   
881.000000	-0.004090  
881.500000	-0.029621  
882.000000	-0.143719  
882.500000	-0.241484  
883.000000	-0.246340  
883.500000	-0.158295  
884.000000	-0.090181  
884.500000	-0.085015  
885.000000	-0.100704  
885.500000	-0.003499  
886.000000	0.098234   
886.500000	0.086553   
887.000000	-0.097621  
887.500000	-0.171446  
888.000000	-0.129946  
888.500000	0.015333   
889.000000	0.024757   
889.500000	0.053954   
890.000000	0.013060   
890.500000	0.019848   
891.000000	-0.043340  
891.500000	-0.074090  
892.000000	-0.257901  
892.500000	-0.335318  
893.000000	-0.289575  
893.500000	-0.101515  
894.000000	-0.034916  
894.500000	-0.073106  
895.000000	-0.187371  
895.500000	-0.224545  
896.000000	-0.176015  
896.500000	-0.089128  
897.000000	-0.068901  
897.500000	-0.176856  

