PE FL                   SPECTRUM    ASCII       PEDS        1.60        
  -1
SAA3BD~1.SP
24/04/12
17:04:46.00
24/04/12
17:04:46.00
Jan

897.500000
1









LS55
405.00
5.00
5.00
SCAN
1
20
100
100
0
400
0
1
0
1
5
ON
450 405 
1 0 0
#HDR
-1
-1
#GR
NM

0.00002384185791015625
0.0
450.000000
0.500000
896
8
230.730848
-0.438840
#DATA
450.000000	-0.401000  
450.500000	-0.071196  
451.000000	0.039007   
451.500000	0.044318   
452.000000	-0.061878  
452.500000	-0.128522  
453.000000	-0.168318  
453.500000	0.104590   
454.000000	0.367469   
454.500000	0.410462   
455.000000	0.073469   
455.500000	-0.155181  
456.000000	-0.111492  
456.500000	0.005613   
457.000000	-0.002674  
457.500000	-0.108734  
458.000000	-0.066530  
458.500000	-0.024083  
459.000000	-0.039643  
459.500000	-0.106984  
460.000000	-0.120424  
460.500000	0.092810   
461.000000	0.334477   
461.500000	0.465189   
462.000000	0.301068   
462.500000	0.092378   
463.000000	-0.061454  
463.500000	-0.062598  
464.000000	-0.083045  
464.500000	-0.071015  
465.000000	-0.009106  
465.500000	-0.029128  
466.000000	-0.045007  
466.500000	-0.024159  
467.000000	0.045083   
467.500000	0.110810   
468.000000	0.134401   
468.500000	0.173212   
469.000000	0.140113   
469.500000	0.081833   
470.000000	0.040189   
470.500000	0.140659   
471.000000	0.158098   
471.500000	0.161719   
472.000000	0.112219   
472.500000	0.179568   
473.000000	0.236681   
473.500000	0.238000   
474.000000	0.136909   
474.500000	0.061924   
475.000000	0.072424   
475.500000	0.055439   
476.000000	0.008553   
476.500000	-0.076287  
477.000000	0.046681   
477.500000	0.158159   
478.000000	0.253742   
478.500000	0.163409   
479.000000	0.184363   
479.500000	0.105606   
480.000000	0.026265   
480.500000	-0.278780  
481.000000	-0.438840  
481.500000	-0.399840  
482.000000	0.051053   
482.500000	0.401696   
483.000000	0.468575   
483.500000	0.191939   
484.000000	0.005856   
484.500000	-0.054765  
485.000000	-0.011318  
485.500000	0.015924   
486.000000	0.060856   
486.500000	0.180083   
487.000000	0.273969   
487.500000	0.291303   
488.000000	0.117371   
488.500000	-0.068742  
489.000000	-0.076037  
489.500000	0.160734   
490.000000	0.383431   
490.500000	0.538916   
491.000000	0.568590   
491.500000	0.551924   
492.000000	0.414681   
492.500000	0.212810   
493.000000	0.131174   
493.500000	0.143371   
494.000000	0.131484   
494.500000	0.029431   
495.000000	0.052371   
495.500000	0.094416   
496.000000	0.120250   
496.500000	0.011939   
497.000000	0.010174   
497.500000	0.087477   
498.000000	0.148492   
498.500000	0.139522   
499.000000	0.004545   
499.500000	-0.025803  
500.000000	0.059962   
500.500000	0.300121   
501.000000	0.465431   
501.500000	0.531818   
502.000000	0.532083   
502.500000	0.483227   
503.000000	0.351969   
503.500000	0.204477   
504.000000	0.239075   
504.500000	0.441575   
505.000000	0.710060   
505.500000	0.870053   
506.000000	0.914098   
506.500000	0.876310   
507.000000	0.807621   
507.500000	0.837000   
508.000000	0.901143   
508.500000	1.024507   
509.000000	1.107159   
509.500000	1.191666   
510.000000	1.097916   
510.500000	1.125265   
511.000000	1.215848   
511.500000	1.415598   
512.000000	1.213053   
512.500000	0.983363   
513.000000	0.956196   
513.500000	1.228401   
514.000000	1.425583   
514.500000	1.478340   
515.000000	1.561522   
515.500000	1.723878   
516.000000	1.932295   
516.500000	1.962439   
517.000000	1.942272   
517.500000	1.814333   
518.000000	1.941772   
518.500000	1.953962   
519.000000	2.038780   
519.500000	2.032787   
520.000000	2.295878   
520.500000	2.283696   
521.000000	2.178840   
521.500000	1.921007   
522.000000	2.105287   
522.500000	2.449121   
523.000000	2.726946   
523.500000	2.733750   
524.000000	2.776704   
524.500000	2.929537   
525.000000	3.100689   
525.500000	3.086340   
526.000000	3.173287   
526.500000	3.562946   
527.000000	4.058840   
527.500000	4.334431   
528.000000	4.184719   
528.500000	4.081810   
529.000000	4.276219   
529.500000	4.839931   
530.000000	5.293310   
530.500000	5.655401   
531.000000	5.745128   
531.500000	5.968522   
532.000000	6.252560   
532.500000	6.494265   
533.000000	6.722121   
533.500000	7.003696   
534.000000	7.230068   
534.500000	7.529249   
535.000000	7.846803   
535.500000	8.270916   
536.000000	8.515621   
536.500000	8.684856   
537.000000	8.745712   
537.500000	9.241909   
538.000000	9.729492   
538.500000	10.225954  
539.000000	10.427113  
539.500000	10.689939  
540.000000	11.213530  
540.500000	11.798545  
541.000000	12.046651  
541.500000	11.915060  
542.000000	11.821204  
542.500000	11.914863  
543.000000	12.205643  
543.500000	12.405454  
544.000000	12.463590  
544.500000	12.417500  
545.000000	12.523727  
545.500000	12.525378  
546.000000	12.176280  
546.500000	11.784893  
547.000000	11.717083  
547.500000	11.848068  
548.000000	11.861234  
548.500000	11.736977  
549.000000	11.667924  
549.500000	11.897227  
550.000000	12.276840  
550.500000	12.455810  
551.000000	12.308734  
551.500000	11.876250  
552.000000	11.724984  
552.500000	11.544583  
553.000000	11.431037  
553.500000	11.640090  
554.000000	12.229795  
554.500000	12.704431  
555.000000	12.642295  
555.500000	12.697886  
556.000000	13.064803  
556.500000	14.068818  
557.000000	14.727765  
557.500000	14.954689  
558.000000	14.793553  
558.500000	14.845446  
559.000000	14.946696  
559.500000	14.895954  
560.000000	15.135856  
560.500000	15.868212  
561.000000	16.805628  
561.500000	17.169537  
562.000000	17.703386  
562.500000	18.606659  
563.000000	19.493590  
563.500000	19.643553  
564.000000	19.449598  
564.500000	19.405257  
565.000000	19.529643  
565.500000	19.552303  
566.000000	19.772409  
566.500000	20.571310  
567.000000	21.497037  
567.500000	22.234901  
568.000000	22.714818  
568.500000	23.190371  
569.000000	23.951916  
569.500000	24.738166  
570.000000	25.213545  
570.500000	24.738886  
571.000000	24.210613  
571.500000	24.317719  
572.000000	25.614537  
572.500000	26.555477  
573.000000	27.003340  
573.500000	27.037151  
574.000000	27.466750  
574.500000	28.048856  
575.000000	28.785840  
575.500000	29.243030  
576.000000	29.599257  
576.500000	29.474030  
577.000000	29.627863  
577.500000	30.309515  
578.000000	31.709128  
578.500000	32.944757  
579.000000	33.898696  
579.500000	34.271643  
580.000000	34.597765  
580.500000	34.911454  
581.000000	35.530060  
581.500000	36.084795  
582.000000	36.883371  
582.500000	36.812030  
583.000000	36.748666  
583.500000	36.758401  
584.000000	38.253015  
584.500000	40.162689  
585.000000	42.109946  
585.500000	43.118265  
586.000000	43.929484  
586.500000	44.364090  
587.000000	44.822992  
587.500000	45.662772  
588.000000	46.942666  
588.500000	48.727325  
589.000000	50.114022  
589.500000	50.939651  
590.000000	51.298840  
590.500000	51.910098  
591.000000	52.530537  
591.500000	53.621280  
592.000000	54.779916  
592.500000	55.615537  
593.000000	55.934295  
593.500000	56.325333  
594.000000	57.399856  
594.500000	58.581575  
595.000000	59.709833  
595.500000	60.571787  
596.000000	61.264613  
596.500000	61.506795  
597.000000	62.376393  
597.500000	64.386060  
598.000000	66.569575  
598.500000	67.215446  
599.000000	67.320340  
599.500000	67.985090  
600.000000	69.829484  
600.500000	71.964553  
601.000000	73.595348  
601.500000	74.482401  
602.000000	75.572356  
602.500000	77.442030  
603.000000	79.778272  
603.500000	81.569068  
604.000000	82.442090  
604.500000	83.702340  
605.000000	85.658424  
605.500000	87.770136  
606.000000	89.765166  
606.500000	91.044287  
607.000000	92.231916  
607.500000	93.155189  
608.000000	94.293757  
608.500000	95.469863  
609.000000	97.719568  
609.500000	100.410318 
610.000000	102.821250 
610.500000	103.481227 
611.000000	103.980750 
611.500000	105.461136 
612.000000	108.354401 
612.500000	111.255681 
613.000000	113.249833 
613.500000	114.532984 
614.000000	116.689212 
614.500000	119.330977 
615.000000	121.202477 
615.500000	121.903181 
616.000000	123.400068 
616.500000	125.618196 
617.000000	127.865265 
617.500000	129.480628 
618.000000	132.240325 
618.500000	135.034477 
619.000000	136.775750 
619.500000	137.773719 
620.000000	138.888174 
620.500000	141.630287 
621.000000	144.836636 
621.500000	148.471181 
622.000000	150.699469 
622.500000	152.624946 
623.000000	154.174833 
623.500000	155.928265 
624.000000	158.733901 
624.500000	160.852310 
625.000000	163.063393 
625.500000	164.492833 
626.000000	168.467325 
626.500000	171.326924 
627.000000	173.768462 
627.500000	174.564462 
628.000000	177.877045 
628.500000	181.267674 
629.000000	184.294651 
629.500000	185.915810 
630.000000	187.321045 
630.500000	188.066159 
631.000000	189.280022 
631.500000	192.079159 
632.000000	195.240977 
632.500000	198.137303 
633.000000	199.716325 
633.500000	201.223742 
634.000000	201.984946 
634.500000	203.371060 
635.000000	204.815015 
635.500000	207.543242 
636.000000	209.661378 
636.500000	213.148416 
637.000000	215.717689 
637.500000	217.022651 
638.000000	215.551045 
638.500000	215.449363 
639.000000	216.939848 
639.500000	219.531909 
640.000000	220.221878 
640.500000	220.210053 
641.000000	220.185825 
641.500000	220.924340 
642.000000	221.650977 
642.500000	223.341295 
643.000000	224.759742 
643.500000	225.718681 
644.000000	225.567242 
644.500000	226.065772 
645.000000	226.573666 
645.500000	226.934257 
646.000000	227.363083 
646.500000	228.944250 
647.000000	230.730848 
647.500000	229.782590 
648.000000	227.585484 
648.500000	224.913159 
649.000000	223.865242 
649.500000	222.957250 
650.000000	223.596348 
650.500000	223.780734 
651.000000	223.493530 
651.500000	222.004954 
652.000000	221.028098 
652.500000	219.401303 
653.000000	218.179401 
653.500000	217.078143 
654.000000	215.788325 
654.500000	213.237075 
655.000000	210.747083 
655.500000	208.781136 
656.000000	207.079106 
656.500000	204.216121 
657.000000	200.940530 
657.500000	198.553810 
658.000000	196.858545 
658.500000	195.814000 
659.000000	193.893431 
659.500000	190.578734 
660.000000	187.029446 
660.500000	185.271325 
661.000000	183.232219 
661.500000	179.641583 
662.000000	174.941257 
662.500000	171.834878 
663.000000	169.011174 
663.500000	165.760787 
664.000000	161.183401 
664.500000	157.231636 
665.000000	153.459954 
665.500000	150.589250 
666.000000	148.025424 
666.500000	145.388916 
667.000000	141.819250 
667.500000	138.347666 
668.000000	135.284931 
668.500000	132.245916 
669.000000	128.209772 
669.500000	124.310916 
670.000000	120.779840 
670.500000	117.721780 
671.000000	114.045416 
671.500000	111.200787 
672.000000	109.541712 
672.500000	108.388522 
673.000000	105.286030 
673.500000	100.822500 
674.000000	96.708893  
674.500000	94.512378  
675.000000	93.208121  
675.500000	91.557962  
676.000000	88.388628  
676.500000	84.128249  
677.000000	80.244106  
677.500000	77.925696  
678.000000	76.562424  
678.500000	74.349204  
679.000000	71.613174  
679.500000	69.481174  
680.000000	68.410863  
680.500000	66.778772  
681.000000	63.914734  
681.500000	60.972553  
682.000000	59.033583  
682.500000	58.045378  
683.000000	56.945469  
683.500000	54.915439  
684.000000	52.065886  
684.500000	49.835856  
685.000000	48.732825  
685.500000	48.402621  
686.000000	47.257666  
686.500000	46.066598  
687.000000	44.925689  
687.500000	44.133454  
688.000000	42.096424  
688.500000	39.977674  
689.000000	37.934143  
689.500000	37.010166  
690.000000	36.071401  
690.500000	35.051999  
691.000000	33.595106  
691.500000	32.481416  
692.000000	31.644530  
692.500000	31.014242  
693.000000	30.517719  
693.500000	30.490621  
694.000000	30.385969  
694.500000	29.491871  
695.000000	28.078765  
695.500000	26.744060  
696.000000	26.004628  
696.500000	25.304227  
697.000000	24.727469  
697.500000	23.732734  
698.000000	22.876507  
698.500000	22.109696  
699.000000	22.028500  
699.500000	21.764295  
700.000000	21.058772  
700.500000	20.109393  
701.000000	19.600924  
701.500000	19.663098  
702.000000	19.575666  
702.500000	19.019651  
703.000000	17.994424  
703.500000	17.093787  
704.000000	16.384128  
704.500000	16.144363  
705.000000	15.949098  
705.500000	15.634719  
706.000000	15.241734  
706.500000	15.017787  
707.000000	14.615507  
707.500000	13.932348  
708.000000	13.456015  
708.500000	13.338053  
709.000000	13.420734  
709.500000	13.353325  
710.000000	13.193962  
710.500000	12.726613  
711.000000	12.270356  
711.500000	11.933810  
712.000000	12.167946  
712.500000	12.145371  
713.000000	11.968272  
713.500000	11.667803  
714.000000	11.553181  
714.500000	11.242643  
715.000000	10.946037  
715.500000	10.631818  
716.000000	10.426454  
716.500000	10.165371  
717.000000	9.786371   
717.500000	9.575401   
718.000000	9.343909   
718.500000	9.212901   
719.000000	9.239787   
719.500000	9.482053   
720.000000	9.410833   
720.500000	8.983954   
721.000000	8.519636   
721.500000	8.334196   
722.000000	8.398575   
722.500000	8.442280   
723.000000	8.570659   
723.500000	8.356931   
724.000000	7.995840   
724.500000	7.348924   
725.000000	6.978416   
725.500000	6.952371   
726.000000	7.219287   
726.500000	7.505242   
727.000000	7.533265   
727.500000	7.388606   
728.000000	7.130469   
728.500000	6.858765   
729.000000	6.577787   
729.500000	6.666136   
730.000000	6.702462   
730.500000	6.821734   
731.000000	6.872295   
731.500000	6.949007   
732.000000	6.929772   
732.500000	6.797712   
733.000000	6.431515   
733.500000	6.142371   
734.000000	5.937818   
734.500000	5.694007   
735.000000	5.463484   
735.500000	5.468666   
736.000000	5.790257   
736.500000	5.953401   
737.000000	5.575954   
737.500000	5.239734   
738.000000	5.106719   
738.500000	5.136090   
739.000000	5.085106   
739.500000	5.180628   
740.000000	5.187151   
740.500000	5.154795   
741.000000	5.030871   
741.500000	4.987893   
742.000000	4.931742   
742.500000	4.885530   
743.000000	4.978621   
743.500000	5.118659   
744.000000	5.285810   
744.500000	5.242545   
745.000000	5.161499   
745.500000	4.807242   
746.000000	4.446250   
746.500000	4.133083   
747.000000	4.085196   
747.500000	4.112643   
748.000000	4.113409   
748.500000	4.007977   
749.000000	4.051977   
749.500000	4.165848   
750.000000	4.384977   
750.500000	4.441189   
751.000000	4.382787   
751.500000	4.283848   
752.000000	4.378795   
752.500000	4.345545   
753.000000	4.089704   
753.500000	3.719484   
754.000000	3.589303   
754.500000	3.600462   
755.000000	3.510795   
755.500000	3.303734   
756.000000	3.445636   
756.500000	3.671378   
757.000000	3.898992   
757.500000	3.812787   
758.000000	3.753037   
758.500000	3.606651   
759.000000	3.478598   
759.500000	3.337818   
760.000000	3.334575   
760.500000	3.443310   
761.000000	3.502068   
761.500000	3.613848   
762.000000	3.709265   
762.500000	3.719590   
763.000000	3.496848   
763.500000	3.217265   
764.000000	3.077712   
764.500000	3.142530   
765.000000	3.238090   
765.500000	3.263749   
766.000000	3.286772   
766.500000	3.352825   
767.000000	3.402037   
767.500000	3.374484   
768.000000	3.248818   
768.500000	3.268590   
769.000000	3.368015   
769.500000	3.467234   
770.000000	3.385181   
770.500000	3.347045   
771.000000	3.352984   
771.500000	3.381575   
772.000000	3.253537   
772.500000	3.162181   
773.000000	3.259022   
773.500000	3.414954   
774.000000	3.442143   
774.500000	3.213575   
775.000000	3.000371   
775.500000	2.882189   
776.000000	2.898780   
776.500000	2.881340   
777.000000	2.881280   
777.500000	2.891871   
778.000000	2.914363   
778.500000	2.977939   
779.000000	3.074106   
779.500000	3.135666   
780.000000	3.055416   
780.500000	2.961371   
781.000000	2.909803   
781.500000	2.961037   
782.000000	2.979742   
782.500000	2.963409   
783.000000	2.910181   
783.500000	2.890007   
784.000000	2.814750   
784.500000	2.774068   
785.000000	2.771439   
785.500000	2.851159   
786.000000	2.990840   
786.500000	3.068560   
787.000000	2.945545   
787.500000	2.666462   
788.000000	2.457250   
788.500000	2.339545   
789.000000	2.391666   
789.500000	2.449250   
790.000000	2.612765   
790.500000	2.642007   
791.000000	2.655795   
791.500000	2.655719   
792.000000	2.814901   
792.500000	2.675886   
793.000000	2.466560   
793.500000	2.228863   
794.000000	2.262356   
794.500000	2.221719   
795.000000	2.107840   
795.500000	2.036553   
796.000000	2.210848   
796.500000	2.415500   
797.000000	2.369454   
797.500000	2.206643   
798.000000	2.012772   
798.500000	2.048803   
799.000000	2.124772   
799.500000	2.160371   
800.000000	2.113696   
800.500000	2.076484   
801.000000	2.107272   
801.500000	2.071151   
802.000000	2.039007   
802.500000	1.909196   
803.000000	1.853712   
803.500000	1.777181   
804.000000	1.853606   
804.500000	1.885045   
805.000000	1.802750   
805.500000	1.662909   
806.000000	1.664181   
806.500000	1.693696   
807.000000	1.555424   
807.500000	1.318590   
808.000000	1.308386   
808.500000	1.466750   
809.000000	1.706734   
809.500000	1.830560   
810.000000	1.832454   
810.500000	1.709409   
811.000000	1.770098   
811.500000	1.886560   
812.000000	1.952113   
812.500000	1.787492   
813.000000	1.606477   
813.500000	1.549068   
814.000000	1.674909   
814.500000	1.787287   
815.000000	1.785969   
815.500000	1.640265   
816.000000	1.645507   
816.500000	1.779015   
817.000000	1.908818   
817.500000	1.911393   
818.000000	1.845712   
818.500000	1.821242   
819.000000	1.805863   
819.500000	1.792651   
820.000000	1.826401   
820.500000	1.921325   
821.000000	2.013553   
821.500000	2.154340   
822.000000	2.270272   
822.500000	2.361924   
823.000000	2.357174   
823.500000	2.241780   
824.000000	2.084242   
824.500000	2.005401   
825.000000	2.011803   
825.500000	2.056666   
826.000000	2.027477   
826.500000	1.910030   
827.000000	1.913022   
827.500000	2.111166   
828.000000	2.136189   
828.500000	1.929606   
829.000000	1.606984   
829.500000	1.551916   
830.000000	1.581840   
830.500000	1.543166   
831.000000	1.277924   
831.500000	1.105280   
832.000000	1.086060   
832.500000	1.070659   
833.000000	1.014681   
833.500000	0.917030   
834.000000	1.071765   
834.500000	1.251310   
835.000000	1.291386   
835.500000	1.128696   
836.000000	0.940810   
836.500000	0.859227   
837.000000	0.853000   
837.500000	0.896833   
838.000000	0.935765   
838.500000	0.971704   
839.000000	0.939719   
839.500000	0.893272   
840.000000	0.865787   
840.500000	0.907598   
841.000000	0.872689   
841.500000	0.701378   
842.000000	0.499992   
842.500000	0.583325   
843.000000	0.768393   
843.500000	0.888666   
844.000000	0.723969   
844.500000	0.531727   
845.000000	0.388916   
845.500000	0.481227   
846.000000	0.583522   
846.500000	0.643424   
847.000000	0.515621   
847.500000	0.386446   
848.000000	0.257431   
848.500000	0.153712   
849.000000	0.041772   
849.500000	0.078303   
850.000000	0.162553   
850.500000	0.141848   
851.000000	0.003583   
851.500000	-0.144030  
852.000000	-0.120204  
852.500000	-0.036893  
853.000000	0.048931   
853.500000	0.089386   
854.000000	0.128939   
854.500000	0.098803   
855.000000	0.073401   
855.500000	0.104856   
856.000000	0.126946   
856.500000	0.066310   
857.000000	-0.035060  
857.500000	-0.033098  
858.000000	0.025848   
858.500000	0.072522   
859.000000	0.004545   
859.500000	-0.122083  
860.000000	-0.214984  
860.500000	-0.127295  
861.000000	0.084674   
861.500000	0.231674   
862.000000	0.130719   
862.500000	-0.008204  
863.000000	0.004242   
863.500000	0.197272   
864.000000	0.272333   
864.500000	0.153386   
865.000000	-0.032924  
865.500000	-0.113734  
866.000000	-0.110992  
866.500000	-0.133333  
867.000000	-0.126477  
867.500000	-0.125954  
868.000000	-0.030416  
868.500000	-0.063348  
869.000000	-0.172939  
869.500000	-0.354810  
870.000000	-0.310386  
870.500000	-0.122159  
871.000000	0.066136   
871.500000	0.104371   
872.000000	0.030598   
872.500000	-0.021037  
873.000000	-0.067250  
873.500000	-0.106174  
874.000000	-0.145636  
874.500000	-0.222780  
875.000000	-0.252613  
875.500000	-0.289984  
876.000000	-0.252818  
876.500000	-0.213181  
877.000000	-0.098106  
877.500000	-0.033719  
878.000000	0.013378   
878.500000	-0.028484  
879.000000	-0.050363  
879.500000	-0.015719  
880.000000	0.047704   
880.500000	0.040848   
881.000000	-0.030295  
881.500000	-0.119545  
882.000000	-0.096053  
882.500000	-0.080568  
883.000000	-0.045704  
883.500000	-0.098977  
884.000000	-0.099568  
884.500000	-0.147356  
885.000000	-0.130878  
885.500000	-0.096856  
886.000000	-0.062227  
886.500000	-0.113424  
887.000000	-0.164219  
887.500000	-0.136280  
888.000000	-0.068818  
888.500000	0.004098   
889.000000	-0.032886  
889.500000	-0.142553  
890.000000	-0.260825  
890.500000	-0.227931  
891.000000	-0.068939  
891.500000	0.052393   
892.000000	0.039371   
892.500000	-0.008803  
893.000000	-0.030439  
893.500000	-0.021515  
894.000000	-0.030060  
894.500000	-0.073196  
895.000000	-0.105492  
895.500000	-0.103196  
896.000000	-0.107704  
896.500000	-0.144068  
897.000000	-0.123113  
897.500000	-0.047507  

