PE FL                   SPECTRUM    ASCII       PEDS        1.60        
  -1
SA8BC5~1.SP
24/04/12
15:43:29.00
24/04/12
15:43:29.00
Jan

897.500000
1









LS55
405.00
5.00
5.00
SCAN
1
20
100
100
0
400
0
1
0
1
5
ON
450 405 
1 0 0
#HDR
-1
-1
#GR
NM

0.00002384185791015625
0.0
450.000000
0.500000
896
8
373.136356
-0.292651
#DATA
450.000000	-0.276000  
450.500000	0.183212   
451.000000	0.359643   
451.500000	0.210689   
452.000000	0.163227   
452.500000	0.132606   
453.000000	0.144856   
453.500000	-0.034522  
454.000000	0.058848   
454.500000	0.161560   
455.000000	0.309787   
455.500000	0.149666   
456.000000	0.112386   
456.500000	0.072931   
457.000000	0.204000   
457.500000	0.147295   
458.000000	0.179462   
458.500000	0.178962   
459.000000	0.311537   
459.500000	0.313727   
460.000000	0.209098   
460.500000	0.053037   
461.000000	0.087840   
461.500000	0.163090   
462.000000	0.146643   
462.500000	0.005446   
463.000000	0.011992   
463.500000	0.203606   
464.000000	0.396553   
464.500000	0.370742   
465.000000	0.252871   
465.500000	0.261287   
466.000000	0.341083   
466.500000	0.264098   
467.000000	0.046878   
467.500000	-0.077568  
468.000000	-0.031068  
468.500000	-0.017030  
469.000000	-0.107916  
469.500000	-0.196893  
470.000000	-0.061878  
470.500000	0.173356   
471.000000	0.300696   
471.500000	0.244992   
472.000000	0.035295   
472.500000	-0.044318  
473.000000	-0.053128  
473.500000	0.098431   
474.000000	0.079696   
474.500000	0.069803   
475.000000	-0.008333  
475.500000	0.076310   
476.000000	0.073598   
476.500000	0.060310   
477.000000	0.016295   
477.500000	0.080734   
478.000000	0.089363   
478.500000	0.148871   
479.000000	0.260916   
479.500000	0.456780   
480.000000	0.456780   
480.500000	0.313825   
481.000000	0.020492   
481.500000	-0.079674  
482.000000	-0.069613  
482.500000	-0.014295  
483.000000	0.032606   
483.500000	0.075083   
484.000000	0.172348   
484.500000	0.404250   
485.000000	0.579840   
485.500000	0.626765   
486.000000	0.393787   
486.500000	0.286530   
487.000000	0.312780   
487.500000	0.492090   
488.000000	0.268159   
488.500000	0.098613   
489.000000	0.128651   
489.500000	0.317939   
490.000000	0.347901   
490.500000	0.187871   
491.000000	0.150833   
491.500000	0.185560   
492.000000	0.269189   
492.500000	0.212795   
493.000000	0.158265   
493.500000	-0.008409  
494.000000	-0.093189  
494.500000	-0.092757  
495.000000	0.061257   
495.500000	0.315916   
496.000000	0.576356   
496.500000	0.726212   
497.000000	0.686909   
497.500000	0.492053   
498.000000	0.296416   
498.500000	0.261106   
499.000000	0.344954   
499.500000	0.484249   
500.000000	0.541598   
500.500000	0.558643   
501.000000	0.463916   
501.500000	0.333734   
502.000000	0.291295   
502.500000	0.490674   
503.000000	0.731265   
503.500000	0.896666   
504.000000	0.806833   
504.500000	0.716719   
505.000000	0.689378   
505.500000	0.832257   
506.000000	0.899674   
506.500000	0.855303   
507.000000	0.747401   
507.500000	0.779189   
508.000000	0.837348   
508.500000	0.797136   
509.000000	0.742575   
509.500000	0.729590   
510.000000	0.855583   
510.500000	1.059371   
511.000000	1.255227   
511.500000	1.287939   
512.000000	1.124219   
512.500000	1.130780   
513.000000	1.305234   
513.500000	1.591863   
514.000000	1.624424   
514.500000	1.670371   
515.000000	1.569401   
515.500000	1.437469   
516.000000	1.191196   
516.500000	1.100696   
517.000000	1.237053   
517.500000	1.542098   
518.000000	1.898643   
518.500000	2.104553   
519.000000	2.233136   
519.500000	2.149704   
520.000000	2.067840   
520.500000	2.101409   
521.000000	2.355454   
521.500000	2.433265   
522.000000	2.357590   
522.500000	2.277196   
523.000000	2.426363   
523.500000	2.578469   
524.000000	2.642780   
524.500000	2.723272   
525.000000	2.950295   
525.500000	3.073068   
526.000000	3.110621   
526.500000	3.162204   
527.000000	3.259818   
527.500000	3.411287   
528.000000	3.485871   
528.500000	3.640666   
529.000000	3.739939   
529.500000	3.898613   
530.000000	4.068098   
530.500000	4.570189   
531.000000	5.003219   
531.500000	5.285219   
532.000000	5.213174   
532.500000	5.265757   
533.000000	5.512015   
533.500000	6.087356   
534.000000	6.465909   
534.500000	6.444909   
535.000000	6.154606   
535.500000	6.223295   
536.000000	6.839439   
536.500000	7.567303   
537.000000	7.894310   
537.500000	7.869946   
538.000000	8.039068   
538.500000	8.484446   
539.000000	8.971719   
539.500000	8.969401   
540.000000	8.953636   
540.500000	9.284886   
541.000000	10.022363  
541.500000	10.447250  
542.000000	10.466984  
542.500000	10.714795  
543.000000	11.522416  
543.500000	12.263090  
544.000000	12.397992  
544.500000	11.861431  
545.000000	11.263075  
545.500000	10.994250  
546.000000	11.206674  
546.500000	11.697022  
547.000000	12.224446  
547.500000	12.429916  
548.000000	12.388166  
548.500000	12.156340  
549.000000	11.838939  
549.500000	11.673863  
550.000000	11.648833  
550.500000	12.009469  
551.000000	12.560348  
551.500000	12.940719  
552.000000	12.681871  
552.500000	12.503060  
553.000000	12.763780  
553.500000	13.309545  
554.000000	13.524462  
554.500000	13.564159  
555.000000	13.567871  
555.500000	13.436106  
556.000000	13.257818  
556.500000	13.277901  
557.000000	13.898931  
557.500000	14.773681  
558.000000	15.477780  
558.500000	15.254212  
559.000000	14.565977  
559.500000	14.124174  
560.000000	14.647416  
560.500000	15.629098  
561.000000	16.578068  
561.500000	16.965636  
562.000000	16.897946  
562.500000	16.914060  
563.000000	17.615272  
563.500000	18.743939  
564.000000	19.223613  
564.500000	19.028477  
565.000000	18.921310  
565.500000	19.395590  
566.000000	20.219022  
566.500000	20.791977  
567.000000	21.632446  
567.500000	22.496318  
568.000000	23.359174  
568.500000	23.555871  
569.000000	23.739712  
569.500000	23.996272  
570.000000	24.890068  
570.500000	25.709121  
571.000000	26.403530  
571.500000	26.695424  
572.000000	27.065946  
572.500000	27.689204  
573.000000	28.732537  
573.500000	29.715128  
574.000000	30.493886  
574.500000	31.114530  
575.000000	31.684803  
575.500000	32.114265  
576.000000	32.346909  
576.500000	32.485212  
577.000000	32.910219  
577.500000	33.583939  
578.000000	34.437984  
578.500000	35.328159  
579.000000	35.898371  
579.500000	35.928833  
580.000000	36.066772  
580.500000	36.546454  
581.000000	37.250575  
581.500000	37.753613  
582.000000	38.186325  
582.500000	38.675719  
583.000000	39.558734  
583.500000	40.561431  
584.000000	41.537590  
584.500000	41.980962  
585.000000	42.183022  
585.500000	42.782469  
586.000000	44.404522  
586.500000	46.273234  
587.000000	47.866075  
587.500000	48.171666  
588.000000	48.643909  
588.500000	49.956560  
589.000000	52.127666  
589.500000	53.203999  
590.000000	53.771431  
590.500000	54.416522  
591.000000	56.029340  
591.500000	57.406712  
592.000000	58.400659  
592.500000	59.014386  
593.000000	60.128318  
593.500000	61.635613  
594.000000	64.156424  
594.500000	66.061681  
595.000000	66.932204  
595.500000	67.013439  
596.000000	67.702742  
596.500000	68.975598  
597.000000	70.749469  
597.500000	72.641583  
598.000000	74.455833  
598.500000	75.592674  
599.000000	76.559810  
599.500000	78.244621  
600.000000	80.955166  
600.500000	82.774977  
601.000000	84.051015  
601.500000	84.940674  
602.000000	86.576295  
602.500000	88.174977  
603.000000	89.805318  
603.500000	91.774113  
604.000000	94.569719  
604.500000	97.219166  
605.000000	99.069439  
605.500000	100.965977 
606.000000	102.756431 
606.500000	104.976098 
607.000000	106.378734 
607.500000	107.672742 
608.000000	109.296325 
608.500000	111.448128 
609.000000	113.450734 
609.500000	115.207128 
610.000000	117.130742 
610.500000	119.156159 
611.000000	121.866500 
611.500000	124.115272 
612.000000	126.850280 
612.500000	128.304174 
613.000000	129.893386 
613.500000	131.503750 
614.000000	134.983530 
614.500000	138.815090 
615.000000	142.964530 
615.500000	146.131492 
616.000000	149.003257 
616.500000	151.244378 
617.000000	153.862257 
617.500000	156.392810 
618.000000	158.438780 
618.500000	159.913734 
619.000000	162.300484 
619.500000	166.313628 
620.000000	171.232568 
620.500000	175.977606 
621.000000	179.851628 
621.500000	182.877719 
622.000000	186.072181 
622.500000	189.943462 
623.000000	193.081946 
623.500000	194.779606 
624.000000	196.289946 
624.500000	200.737295 
625.000000	206.848469 
625.500000	212.270371 
626.000000	215.401704 
626.500000	218.990583 
627.000000	223.558310 
627.500000	227.771128 
628.000000	229.665590 
628.500000	231.764462 
629.000000	235.926878 
629.500000	240.654598 
630.000000	245.261371 
630.500000	249.876750 
631.000000	255.346022 
631.500000	258.042386 
632.000000	259.417674 
632.500000	262.459356 
633.000000	268.802484 
633.500000	273.657590 
634.000000	276.305189 
634.500000	279.181348 
635.000000	284.112825 
635.500000	289.648901 
636.000000	292.655613 
636.500000	294.344621 
637.000000	296.442878 
637.500000	301.029856 
638.000000	307.766803 
638.500000	313.837962 
639.000000	317.221939 
639.500000	317.067636 
640.000000	317.868787 
640.500000	321.654424 
641.000000	328.824348 
641.500000	333.778643 
642.000000	336.137568 
642.500000	336.927931 
643.000000	339.282325 
643.500000	342.832022 
644.000000	347.601075 
644.500000	350.483681 
645.000000	350.727227 
645.500000	349.816734 
646.000000	352.108553 
646.500000	356.977090 
647.000000	359.669590 
647.500000	358.951340 
648.000000	359.044954 
648.500000	362.534765 
649.000000	366.592469 
649.500000	368.498507 
650.000000	366.823545 
650.500000	364.815128 
651.000000	365.107037 
651.500000	367.844583 
652.000000	371.760045 
652.500000	372.767818 
653.000000	370.978090 
653.500000	367.786909 
654.000000	368.540780 
654.500000	370.675984 
655.000000	373.136356 
655.500000	371.578590 
656.000000	369.924909 
656.500000	368.587287 
657.000000	369.143848 
657.500000	369.927568 
658.000000	370.438484 
658.500000	368.792060 
659.000000	365.050696 
659.500000	360.846727 
660.000000	359.198856 
660.500000	358.471431 
661.000000	357.047106 
661.500000	352.933303 
662.000000	348.601015 
662.500000	344.821772 
663.000000	342.687159 
663.500000	340.085424 
664.000000	337.600143 
664.500000	335.445257 
665.000000	334.344060 
665.500000	333.367560 
666.000000	330.094833 
666.500000	324.739696 
667.000000	319.405962 
667.500000	315.608666 
668.000000	310.790280 
668.500000	306.257742 
669.000000	302.585500 
669.500000	301.026628 
670.000000	296.526537 
670.500000	289.458234 
671.000000	281.622439 
671.500000	277.006848 
672.000000	273.366189 
672.500000	268.882265 
673.000000	262.087780 
673.500000	254.852166 
674.000000	249.162734 
674.500000	245.105318 
675.000000	241.216431 
675.500000	235.954037 
676.000000	230.442871 
676.500000	224.338090 
677.000000	219.245681 
677.500000	213.976113 
678.000000	210.250939 
678.500000	204.847287 
679.000000	199.603386 
679.500000	193.905613 
680.000000	189.663204 
680.500000	184.413590 
681.000000	179.145234 
681.500000	173.797128 
682.000000	169.660356 
682.500000	164.972810 
683.000000	159.577083 
683.500000	154.228772 
684.000000	150.151825 
684.500000	146.057015 
685.000000	141.759340 
685.500000	137.269954 
686.000000	133.272212 
686.500000	128.811515 
687.000000	123.978636 
687.500000	120.306643 
688.000000	117.940545 
688.500000	115.342462 
689.000000	112.091530 
689.500000	109.229553 
690.000000	106.818939 
690.500000	103.740136 
691.000000	99.803477  
691.500000	96.425431  
692.000000	93.817121  
692.500000	91.305795  
693.000000	88.809265  
693.500000	86.966030  
694.000000	85.045439  
694.500000	81.895704  
695.000000	77.890068  
695.500000	74.755295  
696.000000	72.985416  
696.500000	71.108795  
697.000000	68.490621  
697.500000	65.846560  
698.000000	64.290689  
698.500000	63.196681  
699.000000	61.702810  
699.500000	59.407939  
700.000000	57.253015  
700.500000	54.856477  
701.000000	52.649931  
701.500000	50.683128  
702.000000	49.709613  
702.500000	48.858545  
703.000000	47.744689  
703.500000	45.896204  
704.000000	44.260946  
704.500000	42.763742  
705.000000	41.665628  
705.500000	40.689378  
706.000000	39.733651  
706.500000	38.901143  
707.000000	37.998984  
707.500000	36.777977  
708.000000	35.321007  
708.500000	34.307234  
709.000000	33.686083  
709.500000	33.262219  
710.000000	32.485371  
710.500000	31.639060  
711.000000	30.802530  
711.500000	29.963196  
712.000000	29.622750  
712.500000	29.439083  
713.000000	28.888530  
713.500000	27.495742  
714.000000	26.119234  
714.500000	25.441386  
715.000000	25.087500  
715.500000	24.382507  
716.000000	23.616628  
716.500000	22.935340  
717.000000	22.586492  
717.500000	22.288833  
718.000000	22.047590  
718.500000	21.697810  
719.000000	21.208242  
719.500000	20.310234  
720.000000	19.829696  
720.500000	19.730045  
721.000000	19.746242  
721.500000	19.028363  
722.000000	17.812848  
722.500000	16.802083  
723.000000	16.539272  
723.500000	16.240583  
724.000000	15.795712  
724.500000	15.734484  
725.000000	16.070515  
725.500000	16.022969  
726.000000	15.333060  
726.500000	14.574856  
727.000000	14.213856  
727.500000	13.888621  
728.000000	13.488128  
728.500000	13.177704  
729.000000	13.195378  
729.500000	13.264787  
730.000000	13.054500  
730.500000	12.576189  
731.000000	11.724143  
731.500000	11.233666  
732.000000	11.051068  
732.500000	11.257037  
733.000000	11.269712  
733.500000	11.121128  
734.000000	10.894575  
734.500000	10.859803  
735.000000	10.909469  
735.500000	10.622242  
736.000000	10.186090  
736.500000	9.651363   
737.000000	9.288795   
737.500000	9.137878   
738.000000	9.125075   
738.500000	9.183272   
739.000000	9.168742   
739.500000	9.086530   
740.000000	8.849734   
740.500000	8.585613   
741.000000	8.350386   
741.500000	8.316386   
742.000000	8.295969   
742.500000	8.162272   
743.000000	7.955424   
743.500000	7.777530   
744.000000	7.591310   
744.500000	7.425946   
745.000000	7.191060   
745.500000	7.080068   
746.000000	7.005780   
746.500000	7.026931   
747.000000	6.949431   
747.500000	6.907348   
748.000000	6.875068   
748.500000	7.003272   
749.000000	6.952439   
749.500000	6.619931   
750.000000	6.163954   
750.500000	5.964378   
751.000000	6.171893   
751.500000	6.292909   
752.000000	6.171977   
752.500000	5.814537   
753.000000	5.467348   
753.500000	5.151901   
754.000000	5.211787   
754.500000	5.354833   
755.000000	5.557439   
755.500000	5.485227   
756.000000	5.472780   
756.500000	5.496280   
757.000000	5.656348   
757.500000	5.625250   
758.000000	5.583090   
758.500000	5.436803   
759.000000	5.396833   
759.500000	5.256015   
760.000000	5.029765   
760.500000	4.830696   
761.000000	4.872931   
761.500000	4.959340   
762.000000	5.038954   
762.500000	5.016780   
763.000000	5.082537   
763.500000	5.084613   
764.000000	5.063166   
764.500000	4.946606   
765.000000	4.851750   
765.500000	4.724954   
766.000000	4.560750   
766.500000	4.329234   
767.000000	4.128977   
767.500000	4.133007   
768.000000	4.223416   
768.500000	4.265712   
769.000000	4.148613   
769.500000	4.153636   
770.000000	4.374969   
770.500000	4.513999   
771.000000	4.207712   
771.500000	3.635659   
772.000000	3.283818   
772.500000	3.323371   
773.000000	3.452590   
773.500000	3.408939   
774.000000	3.315659   
774.500000	3.205560   
775.000000	3.114984   
775.500000	3.157803   
776.000000	3.361378   
776.500000	3.454189   
777.000000	3.410946   
777.500000	3.380810   
778.000000	3.352234   
778.500000	3.314825   
779.000000	3.309174   
779.500000	3.571462   
780.000000	3.778507   
780.500000	3.728242   
781.000000	3.355856   
781.500000	3.131272   
782.000000	3.095462   
782.500000	3.272787   
783.000000	3.353840   
783.500000	3.309416   
784.000000	3.238659   
784.500000	3.100704   
785.000000	2.915356   
785.500000	2.735257   
786.000000	2.827431   
786.500000	3.129083   
787.000000	3.453166   
787.500000	3.489878   
788.000000	3.272325   
788.500000	3.058007   
789.000000	3.024863   
789.500000	3.129212   
790.000000	3.072113   
790.500000	2.967151   
791.000000	2.891795   
791.500000	2.838196   
792.000000	2.615780   
792.500000	2.486734   
793.000000	2.573750   
793.500000	2.796431   
794.000000	2.792939   
794.500000	2.685416   
795.000000	2.545022   
795.500000	2.503371   
796.000000	2.438757   
796.500000	2.528590   
797.000000	2.781401   
797.500000	2.933575   
798.000000	2.890393   
798.500000	2.719250   
799.000000	2.591363   
799.500000	2.408522   
800.000000	2.376977   
800.500000	2.442090   
801.000000	2.561128   
801.500000	2.470113   
802.000000	2.372757   
802.500000	2.412431   
803.000000	2.527234   
803.500000	2.503212   
804.000000	2.317825   
804.500000	2.135893   
805.000000	2.088507   
805.500000	2.178469   
806.000000	2.169409   
806.500000	2.071515   
807.000000	2.056393   
807.500000	2.155507   
808.000000	2.119840   
808.500000	1.855969   
809.000000	1.501068   
809.500000	1.384356   
810.000000	1.528204   
810.500000	1.811962   
811.000000	2.048840   
811.500000	2.116628   
812.000000	1.898719   
812.500000	1.726181   
813.000000	1.715977   
813.500000	1.878022   
814.000000	1.977992   
814.500000	1.953174   
815.000000	1.800136   
815.500000	1.625075   
816.000000	1.525545   
816.500000	1.631659   
817.000000	1.711545   
817.500000	1.676439   
818.000000	1.622606   
818.500000	1.657575   
819.000000	1.555734   
819.500000	1.435106   
820.000000	1.402431   
820.500000	1.540924   
821.000000	1.684348   
821.500000	1.941181   
822.000000	2.313030   
822.500000	2.507674   
823.000000	2.449484   
823.500000	2.360772   
824.000000	2.330356   
824.500000	2.333515   
825.000000	2.288166   
825.500000	2.401030   
826.000000	2.555007   
826.500000	2.416219   
827.000000	2.028530   
827.500000	1.820310   
828.000000	1.928734   
828.500000	2.050742   
829.000000	1.893484   
829.500000	1.645492   
830.000000	1.523318   
830.500000	1.461606   
831.000000	1.380371   
831.500000	1.381560   
832.000000	1.287250   
832.500000	1.179530   
833.000000	1.141583   
833.500000	1.228674   
834.000000	1.263045   
834.500000	1.180818   
835.000000	1.095545   
835.500000	1.105424   
836.000000	1.095568   
836.500000	1.028606   
837.000000	0.921098   
837.500000	0.854515   
838.000000	0.828704   
838.500000	0.871318   
839.000000	0.898856   
839.500000	0.961750   
840.000000	0.929439   
840.500000	0.865901   
841.000000	0.740492   
841.500000	0.685734   
842.000000	0.693098   
842.500000	0.637651   
843.000000	0.626037   
843.500000	0.614825   
844.000000	0.763325   
844.500000	0.675901   
845.000000	0.577181   
845.500000	0.405606   
846.000000	0.506189   
846.500000	0.539553   
847.000000	0.521462   
847.500000	0.421810   
848.000000	0.400318   
848.500000	0.427719   
849.000000	0.463189   
849.500000	0.449992   
850.000000	0.430681   
850.500000	0.280651   
851.000000	0.072651   
851.500000	-0.108272  
852.000000	-0.030750  
852.500000	0.084181   
853.000000	0.186613   
853.500000	0.167037   
854.000000	0.276515   
854.500000	0.358696   
855.000000	0.317234   
855.500000	0.219893   
856.000000	0.193886   
856.500000	0.227863   
857.000000	0.296333   
857.500000	0.387643   
858.000000	0.430030   
858.500000	0.277507   
859.000000	-0.008712  
859.500000	-0.220621  
860.000000	-0.147053  
860.500000	-0.048333  
861.000000	0.014242   
861.500000	-0.026954  
862.000000	-0.021462  
862.500000	-0.092545  
863.000000	-0.150045  
863.500000	-0.078522  
864.000000	0.161659   
864.500000	0.249166   
865.000000	0.092863   
865.500000	-0.088704  
866.000000	-0.099098  
866.500000	0.017030   
867.000000	0.035174   
867.500000	0.050696   
868.000000	0.020196   
868.500000	-0.031234  
869.000000	-0.235022  
869.500000	-0.292651  
870.000000	-0.123477  
870.500000	0.194848   
871.000000	0.304446   
871.500000	0.130166   
872.000000	-0.012333  
872.500000	-0.143424  
873.000000	-0.185166  
873.500000	-0.254772  
874.000000	-0.076969  
874.500000	0.042106   
875.000000	0.044522   
875.500000	-0.128696  
876.000000	-0.134795  
876.500000	-0.028128  
877.000000	0.016977   
877.500000	-0.071356  
878.000000	-0.168568  
878.500000	-0.123901  
879.000000	-0.074515  
879.500000	-0.074924  
880.000000	-0.143666  
880.500000	-0.078992  
881.000000	0.007106   
881.500000	0.020257   
882.000000	-0.084499  
882.500000	-0.114522  
883.000000	-0.061916  
883.500000	-0.040977  
884.000000	-0.083931  
884.500000	-0.146946  
885.000000	-0.132401  
885.500000	-0.136666  
886.000000	-0.088643  
886.500000	-0.067606  
887.000000	-0.059060  
887.500000	-0.077136  
888.000000	-0.064742  
888.500000	-0.026143  
889.000000	-0.030469  
889.500000	0.021174   
890.000000	0.086719   
890.500000	0.102310   
891.000000	0.008310   
891.500000	-0.051265  
892.000000	-0.037446  
892.500000	-0.068340  
893.000000	-0.147689  
893.500000	-0.253272  
894.000000	-0.245484  
894.500000	-0.245189  
895.000000	-0.198318  
895.500000	-0.135492  
896.000000	-0.004128  
896.500000	0.073939   
897.000000	0.038530   
897.500000	-0.013689  

