PE FL                   SPECTRUM    ASCII       PEDS        1.60        
  -1
SAABC9~1.SP
24/04/12
16:54:47.00
24/04/12
16:54:47.00
Jan

897.500000
1









LS55
405.00
5.00
5.00
SCAN
1
20
100
100
0
400
0
1
0
1
5
ON
450 405 
1 0 0
#HDR
-1
-1
#GR
NM

0.00002384185791015625
0.0
450.000000
0.500000
896
8
228.208712
-0.294712
#DATA
450.000000	-0.271000  
450.500000	-0.118992  
451.000000	-0.080939  
451.500000	-0.135515  
452.000000	-0.135265  
452.500000	-0.022878  
453.000000	0.071143   
453.500000	0.089083   
454.000000	0.047651   
454.500000	-0.039378  
455.000000	-0.080916  
455.500000	-0.004053  
456.000000	0.200515   
456.500000	0.338219   
457.000000	0.345113   
457.500000	0.270590   
458.000000	0.259606   
458.500000	0.132174   
459.000000	-0.074409  
459.500000	-0.203340  
460.000000	-0.113075  
460.500000	0.029833   
461.000000	0.024613   
461.500000	-0.056924  
462.000000	-0.133674  
462.500000	-0.014530  
463.000000	0.053045   
463.500000	0.077227   
464.000000	-0.049681  
464.500000	-0.021196  
465.000000	0.008015   
465.500000	0.053371   
466.000000	-0.085742  
466.500000	-0.101371  
467.000000	-0.116401  
467.500000	-0.078159  
468.000000	-0.192356  
468.500000	-0.165916  
469.000000	-0.173893  
469.500000	-0.114666  
470.000000	-0.150128  
470.500000	-0.034954  
471.000000	0.018287   
471.500000	0.118000   
472.000000	0.153416   
472.500000	0.190196   
473.000000	0.097249   
473.500000	-0.052651  
474.000000	-0.087242  
474.500000	0.065954   
475.000000	0.255621   
475.500000	0.274871   
476.000000	0.103196   
476.500000	-0.120780  
477.000000	-0.251075  
477.500000	-0.200121  
478.000000	-0.123553  
478.500000	0.071924   
479.000000	0.099386   
479.500000	0.033401   
480.000000	-0.094795  
480.500000	0.013818   
481.000000	0.102939   
481.500000	0.065628   
482.000000	-0.126000  
482.500000	-0.117409  
483.000000	0.017204   
483.500000	0.126378   
484.000000	0.117833   
484.500000	0.070568   
485.000000	-0.016818  
485.500000	-0.098659  
486.000000	-0.157696  
486.500000	-0.157015  
487.000000	-0.012939  
487.500000	0.212810   
488.000000	0.352325   
488.500000	0.335734   
489.000000	0.279613   
489.500000	0.352333   
490.000000	0.372522   
490.500000	0.237613   
491.000000	0.018030   
491.500000	-0.067446  
492.000000	-0.112863  
492.500000	-0.160568  
493.000000	-0.145628  
493.500000	0.002106   
494.000000	0.062462   
494.500000	0.048537   
495.000000	0.040651   
495.500000	0.178575   
496.000000	0.221280   
496.500000	0.169833   
497.000000	0.059242   
497.500000	0.066045   
498.000000	0.155856   
498.500000	0.347590   
499.000000	0.579780   
499.500000	0.736954   
500.000000	0.738522   
500.500000	0.693840   
501.000000	0.585492   
501.500000	0.504378   
502.000000	0.434030   
502.500000	0.479416   
503.000000	0.576772   
503.500000	0.755992   
504.000000	0.898348   
504.500000	0.790409   
505.000000	0.578098   
505.500000	0.467007   
506.000000	0.697598   
506.500000	0.855568   
507.000000	0.911492   
507.500000	0.851636   
508.000000	0.920303   
508.500000	0.929030   
509.000000	0.908553   
509.500000	0.920553   
510.000000	0.917500   
510.500000	0.996946   
511.000000	1.086583   
511.500000	1.283280   
512.000000	1.271348   
512.500000	1.279651   
513.000000	1.296303   
513.500000	1.449484   
514.000000	1.484250   
514.500000	1.494810   
515.000000	1.508651   
515.500000	1.570098   
516.000000	1.503613   
516.500000	1.512280   
517.000000	1.618621   
517.500000	1.825765   
518.000000	1.888439   
518.500000	1.987742   
519.000000	2.101068   
519.500000	2.293393   
520.000000	2.392446   
520.500000	2.582045   
521.000000	2.801583   
521.500000	2.914613   
522.000000	2.859075   
522.500000	2.711325   
523.000000	2.637674   
523.500000	2.679575   
524.000000	2.736515   
524.500000	2.888121   
525.000000	3.148893   
525.500000	3.393704   
526.000000	3.356575   
526.500000	3.147242   
527.000000	3.118280   
527.500000	3.445560   
528.000000	3.859356   
528.500000	4.186083   
529.000000	4.465871   
529.500000	4.657909   
530.000000	4.837507   
530.500000	5.068909   
531.000000	5.401075   
531.500000	5.603674   
532.000000	5.738090   
532.500000	5.739431   
533.000000	5.915651   
533.500000	6.267393   
534.000000	7.036393   
534.500000	7.680659   
535.000000	7.922303   
535.500000	7.725106   
536.000000	7.591431   
536.500000	7.846848   
537.000000	8.259977   
537.500000	8.578772   
538.000000	8.753090   
538.500000	9.218204   
539.000000	9.972598   
539.500000	10.618060  
540.000000	10.885712  
540.500000	10.938674  
541.000000	11.194477  
541.500000	11.530181  
542.000000	11.831348  
542.500000	12.118590  
543.000000	12.307651  
543.500000	12.283977  
544.000000	11.956462  
544.500000	11.538886  
545.000000	11.110568  
545.500000	10.907606  
546.000000	10.981113  
546.500000	11.268272  
547.000000	11.589795  
547.500000	11.721189  
548.000000	11.771757  
548.500000	11.588674  
549.000000	11.348522  
549.500000	11.206946  
550.000000	11.414484  
550.500000	11.788113  
551.000000	12.048348  
551.500000	12.012166  
552.000000	11.855984  
552.500000	11.754234  
553.000000	11.687136  
553.500000	11.721431  
554.000000	11.832871  
554.500000	12.026772  
555.000000	12.372333  
555.500000	12.779871  
556.000000	13.025030  
556.500000	12.911143  
557.000000	12.589272  
557.500000	12.714856  
558.000000	13.448583  
558.500000	14.348484  
559.000000	15.003568  
559.500000	15.309000  
560.000000	15.220310  
560.500000	15.212924  
561.000000	15.743704  
561.500000	16.729310  
562.000000	17.363818  
562.500000	17.725106  
563.000000	18.128780  
563.500000	18.753500  
564.000000	19.103621  
564.500000	19.309613  
565.000000	19.446280  
565.500000	19.545674  
566.000000	19.505015  
566.500000	19.617803  
567.000000	20.216750  
567.500000	20.971136  
568.000000	21.567000  
568.500000	21.784234  
569.000000	22.043007  
569.500000	22.296484  
570.000000	22.476545  
570.500000	22.367750  
571.000000	22.682000  
571.500000	23.159833  
572.000000	23.636856  
572.500000	23.797181  
573.000000	24.595068  
573.500000	25.831219  
574.000000	27.029371  
574.500000	27.548257  
575.000000	27.784151  
575.500000	28.205227  
576.000000	28.709500  
576.500000	28.760659  
577.000000	28.591916  
577.500000	28.964386  
578.000000	29.857939  
578.500000	30.895886  
579.000000	31.353060  
579.500000	31.385196  
580.000000	31.252356  
580.500000	32.209090  
581.000000	33.541659  
581.500000	34.696787  
582.000000	35.338825  
582.500000	36.224045  
583.000000	36.844143  
583.500000	36.953712  
584.000000	36.886901  
584.500000	37.666863  
585.000000	39.125272  
585.500000	40.556946  
586.000000	41.593128  
586.500000	41.725303  
587.000000	41.379075  
587.500000	41.660090  
588.000000	43.129249  
588.500000	45.077272  
589.000000	46.728113  
589.500000	47.305007  
590.000000	46.888022  
590.500000	46.709242  
591.000000	47.649825  
591.500000	49.758181  
592.000000	50.570000  
592.500000	51.533454  
593.000000	52.644151  
593.500000	54.646893  
594.000000	54.951136  
594.500000	55.107007  
595.000000	55.490090  
595.500000	57.611628  
596.000000	59.118030  
596.500000	60.093628  
597.000000	60.812401  
597.500000	62.051696  
598.000000	63.590439  
598.500000	64.472022  
599.000000	65.197136  
599.500000	66.149969  
600.000000	67.586507  
600.500000	68.289189  
601.000000	69.426189  
601.500000	71.072492  
602.000000	73.147924  
602.500000	74.109242  
603.000000	74.957878  
603.500000	76.415318  
604.000000	78.366856  
604.500000	79.812954  
605.000000	81.191053  
605.500000	82.720931  
606.000000	84.292121  
606.500000	86.263159  
607.000000	88.345628  
607.500000	90.144787  
608.000000	91.330136  
608.500000	92.217303  
609.000000	93.128840  
609.500000	94.561992  
610.000000	96.630249  
610.500000	99.287712  
611.000000	101.812060 
611.500000	103.638007 
612.000000	104.940439 
612.500000	105.416151 
613.000000	106.428257 
613.500000	108.054484 
614.000000	110.284696 
614.500000	111.548909 
615.000000	113.901719 
615.500000	116.812606 
616.000000	119.987454 
616.500000	121.059272 
617.000000	122.405893 
617.500000	124.597681 
618.000000	127.388060 
618.500000	128.458204 
619.000000	129.510750 
619.500000	131.406590 
620.000000	134.493643 
620.500000	136.141833 
621.000000	137.574409 
621.500000	139.540537 
622.000000	143.521424 
622.500000	146.815356 
623.000000	149.645196 
623.500000	151.253962 
624.000000	153.318946 
624.500000	154.067204 
625.000000	155.079666 
625.500000	156.590689 
626.000000	161.225492 
626.500000	165.587689 
627.000000	168.518712 
627.500000	169.169712 
628.000000	170.923583 
628.500000	174.057628 
629.000000	178.161522 
629.500000	181.356060 
630.000000	182.684515 
630.500000	182.826537 
631.000000	182.272522 
631.500000	183.628257 
632.000000	186.008560 
632.500000	189.467840 
633.000000	192.030401 
633.500000	194.595431 
634.000000	196.598265 
634.500000	199.778636 
635.000000	202.251469 
635.500000	204.040962 
636.000000	204.362704 
636.500000	204.894219 
637.000000	205.576954 
637.500000	207.552795 
638.000000	210.204060 
638.500000	212.796613 
639.000000	213.815560 
639.500000	214.459598 
640.000000	216.484515 
640.500000	218.350598 
641.000000	218.652340 
641.500000	217.644356 
642.000000	218.411219 
642.500000	220.528530 
643.000000	222.811045 
643.500000	223.855886 
644.000000	224.580303 
644.500000	224.703227 
645.000000	224.827045 
645.500000	225.903015 
646.000000	227.566287 
646.500000	228.208712 
647.000000	227.407265 
647.500000	226.379590 
648.000000	226.220196 
648.500000	225.465356 
649.000000	225.245575 
649.500000	225.362280 
650.000000	225.633803 
650.500000	225.275818 
651.000000	224.860166 
651.500000	224.852189 
652.000000	223.099469 
652.500000	221.671416 
653.000000	220.427219 
653.500000	221.331068 
654.000000	219.112530 
654.500000	216.078750 
655.000000	213.234234 
655.500000	213.177825 
656.000000	212.767621 
656.500000	210.447068 
657.000000	207.142840 
657.500000	204.241098 
658.000000	202.349719 
658.500000	199.424893 
659.000000	196.898848 
659.500000	195.214325 
660.000000	193.984325 
660.500000	192.033136 
661.000000	190.120560 
661.500000	188.575628 
662.000000	186.046143 
662.500000	181.309583 
663.000000	176.516515 
663.500000	173.119143 
664.000000	171.091363 
664.500000	169.072590 
665.000000	167.019893 
665.500000	163.523136 
666.000000	159.301886 
666.500000	155.338378 
667.000000	151.988969 
667.500000	148.644780 
668.000000	145.121840 
668.500000	142.494462 
669.000000	140.098590 
669.500000	137.001287 
670.000000	133.560787 
670.500000	129.854272 
671.000000	125.734969 
671.500000	121.758901 
672.000000	118.862386 
672.500000	116.407196 
673.000000	113.469977 
673.500000	109.466757 
674.000000	105.398750 
674.500000	102.231174 
675.000000	99.456250  
675.500000	96.976507  
676.000000	94.009946  
676.500000	91.191878  
677.000000	88.675636  
677.500000	86.884530  
678.000000	84.918977  
678.500000	82.820295  
679.000000	80.203151  
679.500000	77.028295  
680.000000	73.947250  
680.500000	71.578636  
681.000000	70.266348  
681.500000	68.820787  
682.000000	66.902924  
682.500000	64.614992  
683.000000	62.329507  
683.500000	59.688977  
684.000000	57.710727  
684.500000	56.520553  
685.000000	55.660818  
685.500000	53.949371  
686.000000	51.934053  
686.500000	50.017863  
687.000000	48.637628  
687.500000	47.505590  
688.000000	46.238833  
688.500000	44.162628  
689.000000	41.402431  
689.500000	39.455348  
690.000000	38.717492  
690.500000	38.643628  
691.000000	37.947984  
691.500000	36.610833  
692.000000	35.086499  
692.500000	33.845204  
693.000000	32.972257  
693.500000	31.962166  
694.000000	31.217553  
694.500000	30.863621  
695.000000	30.789477  
695.500000	30.169015  
696.000000	29.256742  
696.500000	28.054015  
697.000000	26.686840  
697.500000	25.498530  
698.000000	25.005401  
698.500000	24.590386  
699.000000	23.462537  
699.500000	22.028053  
700.000000	21.732780  
700.500000	22.176250  
701.000000	22.439719  
701.500000	21.590954  
702.000000	20.593712  
702.500000	19.821643  
703.000000	19.626310  
703.500000	19.016780  
704.000000	18.324492  
704.500000	17.594537  
705.000000	17.415272  
705.500000	17.392484  
706.000000	17.085772  
706.500000	16.430810  
707.000000	15.514227  
707.500000	14.801136  
708.000000	14.272696  
708.500000	14.442037  
709.000000	14.525666  
709.500000	14.553053  
710.000000	13.783045  
710.500000	13.285840  
711.000000	13.122037  
711.500000	13.402325  
712.000000	13.292431  
712.500000	13.043340  
713.000000	12.607651  
713.500000	12.223606  
714.000000	11.645363  
714.500000	11.124795  
715.000000	10.781606  
715.500000	10.786863  
716.000000	10.737742  
716.500000	10.924219  
717.000000	10.877651  
717.500000	10.678098  
718.000000	10.062113  
718.500000	9.653318   
719.000000	9.486446   
719.500000	9.781469   
720.000000	9.955530   
720.500000	9.791250   
721.000000	9.269530   
721.500000	8.822590   
722.000000	8.755333   
722.500000	8.683325   
723.000000	8.398318   
723.500000	8.103742   
724.000000	8.078219   
724.500000	8.116204   
725.000000	8.047833   
725.500000	7.894356   
726.000000	7.785477   
726.500000	7.720856   
727.000000	7.630878   
727.500000	7.542651   
728.000000	7.313181   
728.500000	7.037181   
729.000000	6.817651   
729.500000	6.893386   
730.000000	7.126257   
730.500000	7.157636   
731.000000	6.936219   
731.500000	6.547000   
732.000000	6.338037   
732.500000	6.157106   
733.000000	6.170060   
733.500000	6.069416   
734.000000	6.184666   
734.500000	6.117318   
735.000000	6.185636   
735.500000	5.954901   
736.000000	5.773757   
736.500000	5.625053   
737.000000	5.939931   
737.500000	6.209310   
738.000000	6.246530   
738.500000	5.821696   
739.000000	5.307454   
739.500000	4.912310   
740.000000	4.899151   
740.500000	5.037939   
741.000000	5.035522   
741.500000	4.807871   
742.000000	4.771553   
742.500000	4.949734   
743.000000	5.161234   
743.500000	5.207257   
744.000000	5.235136   
744.500000	5.200924   
745.000000	5.069659   
745.500000	5.035386   
746.000000	5.032022   
746.500000	5.082257   
747.000000	5.058977   
747.500000	4.974287   
748.000000	4.656090   
748.500000	4.275143   
749.000000	4.033969   
749.500000	4.025568   
750.000000	4.334734   
750.500000	4.544265   
751.000000	4.773234   
751.500000	4.628946   
752.000000	4.515143   
752.500000	4.105643   
753.000000	3.919969   
753.500000	3.846636   
754.000000	4.154083   
754.500000	4.295704   
755.000000	4.289787   
755.500000	4.157113   
756.000000	4.068553   
756.500000	3.993545   
757.000000	3.849181   
757.500000	3.717818   
758.000000	3.661545   
758.500000	3.765757   
759.000000	3.855613   
759.500000	3.881757   
760.000000	3.792886   
760.500000	3.630439   
761.000000	3.440833   
761.500000	3.290621   
762.000000	3.213674   
762.500000	3.348583   
763.000000	3.650234   
763.500000	4.008613   
764.000000	4.113128   
764.500000	3.947613   
765.000000	3.649189   
765.500000	3.516257   
766.000000	3.557037   
766.500000	3.690681   
767.000000	3.686106   
767.500000	3.423250   
768.000000	3.125810   
768.500000	2.951863   
769.000000	3.085916   
769.500000	3.258681   
770.000000	3.493401   
770.500000	3.523242   
771.000000	3.423765   
771.500000	3.127060   
772.000000	3.054045   
772.500000	3.105727   
773.000000	3.181090   
773.500000	3.087053   
774.000000	2.976878   
774.500000	2.991651   
775.000000	3.107250   
775.500000	3.221848   
776.000000	3.222924   
776.500000	3.104310   
777.000000	2.987386   
777.500000	2.916893   
778.000000	2.966530   
778.500000	2.783227   
779.000000	2.568833   
779.500000	2.354484   
780.000000	2.497704   
780.500000	2.670636   
781.000000	2.907689   
781.500000	2.942212   
782.000000	3.005848   
782.500000	3.007454   
783.000000	2.968909   
783.500000	2.858159   
784.000000	2.778924   
784.500000	2.736303   
785.000000	2.703287   
785.500000	2.718734   
786.000000	2.720393   
786.500000	2.744439   
787.000000	2.659750   
787.500000	2.596621   
788.000000	2.698363   
788.500000	2.809242   
789.000000	2.790916   
789.500000	2.628757   
790.000000	2.556999   
790.500000	2.664272   
791.000000	2.797083   
791.500000	2.765681   
792.000000	2.562689   
792.500000	2.407818   
793.000000	2.378795   
793.500000	2.596098   
794.000000	2.790757   
794.500000	2.835121   
795.000000	2.589431   
795.500000	2.300310   
796.000000	2.170075   
796.500000	2.294136   
797.000000	2.370424   
797.500000	2.233984   
798.000000	1.906560   
798.500000	1.782583   
799.000000	1.902219   
799.500000	2.098401   
800.000000	2.031500   
800.500000	1.761257   
801.000000	1.620590   
801.500000	1.792840   
802.000000	1.983931   
802.500000	1.871409   
803.000000	1.510416   
803.500000	1.338015   
804.000000	1.482053   
804.500000	1.799780   
805.000000	1.936583   
805.500000	1.939712   
806.000000	1.785818   
806.500000	1.738583   
807.000000	1.685787   
807.500000	1.693787   
808.000000	1.722909   
808.500000	1.928462   
809.000000	2.083757   
809.500000	1.995545   
810.000000	1.601446   
810.500000	1.364537   
811.000000	1.378636   
811.500000	1.522939   
812.000000	1.561848   
812.500000	1.536977   
813.000000	1.464075   
813.500000	1.476681   
814.000000	1.505257   
814.500000	1.639500   
815.000000	1.742000   
815.500000	1.768704   
816.000000	1.622333   
816.500000	1.393280   
817.000000	1.261878   
817.500000	1.278053   
818.000000	1.348545   
818.500000	1.330265   
819.000000	1.435022   
819.500000	1.562712   
820.000000	1.768181   
820.500000	1.897227   
821.000000	2.007151   
821.500000	2.099909   
822.000000	2.069060   
822.500000	2.159537   
823.000000	2.300469   
823.500000	2.506696   
824.000000	2.446537   
824.500000	2.264090   
825.000000	2.069454   
825.500000	2.103242   
826.000000	2.264651   
826.500000	2.276250   
827.000000	2.088621   
827.500000	1.803242   
828.000000	1.757515   
828.500000	1.827946   
829.000000	1.812719   
829.500000	1.604318   
830.000000	1.500075   
830.500000	1.505484   
831.000000	1.464174   
831.500000	1.285242   
832.000000	1.109750   
832.500000	1.059560   
833.000000	1.043674   
833.500000	1.050636   
834.000000	1.030007   
834.500000	1.019075   
835.000000	0.973765   
835.500000	0.898916   
836.000000	0.772280   
836.500000	0.724098   
837.000000	0.785848   
837.500000	0.863886   
838.000000	0.846424   
838.500000	0.845060   
839.000000	0.923363   
839.500000	0.986916   
840.000000	0.929886   
840.500000	0.783310   
841.000000	0.743780   
841.500000	0.776575   
842.000000	0.805575   
842.500000	0.729181   
843.000000	0.623893   
843.500000	0.562931   
844.000000	0.612121   
844.500000	0.679068   
845.000000	0.712174   
845.500000	0.746098   
846.000000	0.676060   
846.500000	0.478015   
847.000000	0.315053   
847.500000	0.313227   
848.000000	0.478863   
848.500000	0.580613   
849.000000	0.485977   
849.500000	0.247257   
850.000000	0.103992   
850.500000	0.133136   
851.000000	0.275060   
851.500000	0.285053   
852.000000	0.153492   
852.500000	0.031037   
853.000000	0.077803   
853.500000	0.198424   
854.000000	0.235090   
854.500000	0.196696   
855.000000	0.158575   
855.500000	0.231636   
856.000000	0.253363   
856.500000	0.249287   
857.000000	0.221303   
857.500000	0.275121   
858.000000	0.268348   
858.500000	0.180560   
859.000000	-0.003742  
859.500000	-0.141537  
860.000000	-0.077318  
860.500000	0.077363   
861.000000	0.174643   
861.500000	0.134757   
862.000000	0.144265   
862.500000	0.124689   
863.000000	0.078401   
863.500000	0.005757   
864.000000	0.056053   
864.500000	-0.007356  
865.000000	-0.164795  
865.500000	-0.294712  
866.000000	-0.172431  
866.500000	0.000954   
867.000000	0.020363   
867.500000	-0.109871  
868.000000	-0.238522  
868.500000	-0.158765  
869.000000	0.026409   
869.500000	0.188477   
870.000000	0.116916   
870.500000	0.039977   
871.000000	0.000946   
871.500000	0.072212   
872.000000	0.097068   
872.500000	0.152727   
873.000000	0.129000   
873.500000	0.078159   
874.000000	0.037924   
874.500000	0.050356   
875.000000	0.032318   
875.500000	-0.083325  
876.000000	-0.217015  
876.500000	-0.267454  
877.000000	-0.218242  
877.500000	-0.144787  
878.000000	-0.081469  
878.500000	-0.045318  
879.000000	0.014583   
879.500000	0.086143   
880.000000	0.161083   
880.500000	0.182159   
881.000000	0.162636   
881.500000	0.036681   
882.000000	-0.054696  
882.500000	-0.125856  
883.000000	-0.087272  
883.500000	-0.056371  
884.000000	0.059636   
884.500000	0.063136   
885.000000	0.028348   
885.500000	-0.078742  
886.000000	-0.033704  
886.500000	0.020030   
887.000000	0.081818   
887.500000	0.021121   
888.000000	-0.024143  
888.500000	-0.079000  
889.000000	-0.080060  
889.500000	-0.054030  
890.000000	-0.016818  
890.500000	-0.002696  
891.000000	0.018113   
891.500000	-0.040522  
892.000000	-0.084856  
892.500000	-0.094840  
893.000000	-0.010507  
893.500000	-0.031878  
894.000000	-0.070681  
894.500000	-0.114772  
895.000000	-0.005651  
895.500000	0.050719   
896.000000	0.122356   
896.500000	0.099106   
897.000000	0.019606   
897.500000	-0.155500  

