PE FL                   SPECTRUM    ASCII       PEDS        1.60        
  -1
SA9BAD~1.SP
24/04/12
16:06:18.00
24/04/12
16:06:18.00
Jan

897.500000
1









LS55
405.00
5.00
5.00
SCAN
1
20
100
100
0
400
0
1
0
1
5
ON
450 405 
1 0 0
#HDR
-1
-1
#GR
NM

0.00002384185791015625
0.0
450.000000
0.500000
896
8
340.488598
-0.284772
#DATA
450.000000	-0.000000  
450.500000	-0.003750  
451.000000	0.123189   
451.500000	0.282878   
452.000000	0.299484   
452.500000	0.115234   
453.000000	-0.123416  
453.500000	-0.266318  
454.000000	-0.232636  
454.500000	-0.080613  
455.000000	0.095992   
455.500000	0.190719   
456.000000	0.207977   
456.500000	0.218303   
457.000000	0.157416   
457.500000	0.139265   
458.000000	0.116083   
458.500000	0.157931   
459.000000	0.072553   
459.500000	0.030848   
460.000000	-0.009666  
460.500000	0.098704   
461.000000	0.092848   
461.500000	0.095295   
462.000000	0.060909   
462.500000	0.256666   
463.000000	0.306727   
463.500000	0.255189   
464.000000	-0.017363  
464.500000	-0.159143  
465.000000	-0.191833  
465.500000	-0.052803  
466.000000	0.045159   
466.500000	0.026325   
467.000000	0.004053   
467.500000	0.114666   
468.000000	0.314045   
468.500000	0.288446   
469.000000	0.107696   
469.500000	-0.009446  
470.000000	-0.069007  
470.500000	-0.033560  
471.000000	0.036939   
471.500000	0.144378   
472.000000	0.145340   
472.500000	0.226977   
473.000000	0.345439   
473.500000	0.391053   
474.000000	0.224545   
474.500000	0.100401   
475.000000	0.081719   
475.500000	-0.018143  
476.000000	-0.182212  
476.500000	-0.275492  
477.000000	-0.198772  
477.500000	-0.005992  
478.000000	0.238750   
478.500000	0.349530   
479.000000	0.300886   
479.500000	0.179833   
480.000000	0.200409   
480.500000	0.196204   
481.000000	0.029386   
481.500000	-0.144856  
482.000000	-0.064265  
482.500000	0.045606   
483.000000	0.083068   
483.500000	0.039818   
484.000000	0.262409   
484.500000	0.340515   
485.000000	0.321916   
485.500000	0.094704   
486.000000	0.171500   
486.500000	0.233159   
487.000000	0.309765   
487.500000	0.205000   
488.000000	0.202651   
488.500000	0.209696   
489.000000	0.205568   
489.500000	0.177439   
490.000000	0.026553   
490.500000	-0.019424  
491.000000	0.070083   
491.500000	0.285121   
492.000000	0.336037   
492.500000	0.259098   
493.000000	0.127666   
493.500000	0.089030   
494.000000	0.147242   
494.500000	0.296878   
495.000000	0.402772   
495.500000	0.292439   
496.000000	0.085219   
496.500000	0.085219   
497.000000	0.270901   
497.500000	0.464719   
498.000000	0.346492   
498.500000	0.236606   
499.000000	0.186242   
499.500000	0.297363   
500.000000	0.214901   
500.500000	0.291303   
501.000000	0.464954   
501.500000	0.774128   
502.000000	0.756250   
502.500000	0.561340   
503.000000	0.447606   
503.500000	0.550545   
504.000000	0.787719   
504.500000	0.934325   
505.000000	0.931939   
505.500000	0.776424   
506.000000	0.712075   
506.500000	0.686492   
507.000000	0.710954   
507.500000	0.696371   
508.000000	0.757462   
508.500000	0.859113   
509.000000	0.960075   
509.500000	0.999545   
510.000000	0.999984   
510.500000	0.934287   
511.000000	0.848121   
511.500000	0.859409   
512.000000	0.984878   
512.500000	1.062053   
513.000000	1.001015   
513.500000	0.982477   
514.000000	1.025234   
514.500000	1.029962   
515.000000	0.969469   
515.500000	1.031113   
516.000000	1.136462   
516.500000	1.307750   
517.000000	1.503287   
517.500000	1.939795   
518.000000	2.252545   
518.500000	2.307174   
519.000000	2.038378   
519.500000	1.987439   
520.000000	2.129750   
520.500000	2.292439   
521.000000	2.242310   
521.500000	2.161719   
522.000000	2.250416   
522.500000	2.445136   
523.000000	2.484000   
523.500000	2.419098   
524.000000	2.468939   
524.500000	2.719893   
525.000000	2.831962   
525.500000	2.894909   
526.000000	2.819840   
526.500000	3.247424   
527.000000	3.721386   
527.500000	4.156522   
528.000000	4.090598   
528.500000	4.096666   
529.000000	3.966924   
529.500000	3.893689   
530.000000	3.724295   
530.500000	3.982545   
531.000000	4.393265   
531.500000	4.583863   
532.000000	4.417022   
532.500000	4.420060   
533.000000	4.685825   
533.500000	5.085681   
534.000000	5.503636   
534.500000	6.219348   
535.000000	6.810939   
535.500000	7.183893   
536.000000	7.172734   
536.500000	7.266090   
537.000000	7.221219   
537.500000	7.375325   
538.000000	7.526068   
538.500000	8.098015   
539.000000	8.701659   
539.500000	9.378886   
540.000000	9.884522   
540.500000	10.038757  
541.000000	10.108015  
541.500000	10.450871  
542.000000	11.105590  
542.500000	11.700280  
543.000000	12.067007  
543.500000	11.989196  
544.000000	11.677939  
544.500000	11.314310  
545.000000	10.963204  
545.500000	10.963204  
546.000000	11.139992  
546.500000	11.789840  
547.000000	12.149931  
547.500000	12.111098  
548.000000	11.419318  
548.500000	11.234166  
549.000000	11.262045  
549.500000	11.692219  
550.000000	11.513045  
550.500000	11.453424  
551.000000	11.376113  
551.500000	11.867560  
552.000000	12.019893  
552.500000	12.244515  
553.000000	12.172174  
553.500000	12.410530  
554.000000	12.521977  
554.500000	12.581022  
555.000000	12.594984  
555.500000	12.733348  
556.000000	12.985553  
556.500000	13.272340  
557.000000	13.295424  
557.500000	13.344477  
558.000000	13.645939  
558.500000	14.350303  
559.000000	14.861712  
559.500000	14.977181  
560.000000	14.653924  
560.500000	14.653689  
561.000000	15.269189  
561.500000	16.166166  
562.000000	16.789651  
562.500000	16.813022  
563.000000	16.536363  
563.500000	16.572924  
564.000000	17.085954  
564.500000	17.939098  
565.000000	18.556053  
565.500000	19.137371  
566.000000	19.713628  
566.500000	20.717712  
567.000000	21.517446  
567.500000	21.962886  
568.000000	21.959583  
568.500000	22.398280  
569.000000	22.948606  
569.500000	23.570325  
570.000000	23.852424  
570.500000	24.136568  
571.000000	24.157272  
571.500000	24.479621  
572.000000	25.200121  
572.500000	26.087439  
573.000000	26.399310  
573.500000	26.395265  
574.000000	26.908787  
574.500000	28.422265  
575.000000	30.020583  
575.500000	30.648295  
576.000000	30.634000  
576.500000	31.009946  
577.000000	32.028143  
577.500000	32.818249  
578.000000	32.743272  
578.500000	32.462916  
579.000000	32.782734  
579.500000	33.552257  
580.000000	34.390454  
580.500000	35.265939  
581.000000	35.599257  
581.500000	35.729765  
582.000000	35.851840  
582.500000	37.195106  
583.000000	38.702090  
583.500000	39.689840  
584.000000	39.737037  
584.500000	40.059121  
585.000000	40.807136  
585.500000	41.862265  
586.000000	43.087749  
586.500000	44.253939  
587.000000	45.246825  
587.500000	45.832780  
588.000000	46.507931  
588.500000	47.926871  
589.000000	49.772909  
589.500000	51.639121  
590.000000	52.386356  
590.500000	52.719477  
591.000000	53.324143  
591.500000	54.966280  
592.000000	56.735303  
592.500000	58.205212  
593.000000	58.983825  
593.500000	59.759181  
594.000000	60.941734  
594.500000	62.546674  
595.000000	63.552651  
595.500000	64.652022  
596.000000	65.231340  
596.500000	66.534946  
597.000000	67.891348  
597.500000	69.644280  
598.000000	70.735689  
598.500000	72.226060  
599.000000	73.954825  
599.500000	75.827219  
600.000000	76.904492  
600.500000	77.447030  
601.000000	78.775507  
601.500000	80.615030  
602.000000	82.581742  
602.500000	84.647386  
603.000000	86.849189  
603.500000	88.973106  
604.000000	90.171825  
604.500000	91.222659  
605.000000	92.377181  
605.500000	94.565462  
606.000000	96.250727  
606.500000	97.826371  
607.000000	99.327999  
607.500000	101.903757 
608.000000	104.898909 
608.500000	107.286553 
609.000000	108.539234 
609.500000	109.733303 
610.000000	111.828219 
610.500000	114.675787 
611.000000	116.638734 
611.500000	118.151401 
612.000000	119.452833 
612.500000	121.976143 
613.000000	124.934022 
613.500000	128.568348 
614.000000	131.014856 
614.500000	133.384363 
615.000000	135.313250 
615.500000	137.735568 
616.000000	140.314818 
616.500000	143.562234 
617.000000	146.719393 
617.500000	149.306257 
618.000000	150.835757 
618.500000	152.256189 
619.000000	154.292674 
619.500000	157.681257 
620.000000	161.924492 
620.500000	166.074522 
621.000000	168.381159 
621.500000	170.618303 
622.000000	173.658393 
622.500000	178.766507 
623.000000	182.718946 
623.500000	186.002242 
624.000000	188.020583 
624.500000	193.318219 
625.000000	198.123477 
625.500000	202.470325 
626.000000	202.436439 
626.500000	204.160469 
627.000000	206.541893 
627.500000	211.561810 
628.000000	214.809886 
628.500000	219.072484 
629.000000	223.409575 
629.500000	228.960068 
630.000000	233.088553 
630.500000	236.495969 
631.000000	239.187159 
631.500000	242.706545 
632.000000	245.683075 
632.500000	247.991545 
633.000000	250.256583 
633.500000	253.704128 
634.000000	258.037484 
634.500000	261.189787 
635.000000	264.274431 
635.500000	266.799727 
636.000000	270.945227 
636.500000	275.864969 
637.000000	281.120643 
637.500000	284.289053 
638.000000	285.128878 
638.500000	286.714022 
639.000000	289.341265 
639.500000	293.727492 
640.000000	298.521765 
640.500000	303.897977 
641.000000	306.487606 
641.500000	307.230037 
642.000000	309.302560 
642.500000	314.264189 
643.000000	319.144909 
643.500000	320.390651 
644.000000	319.314871 
644.500000	318.411606 
645.000000	319.575272 
645.500000	322.237818 
646.000000	325.179984 
646.500000	325.982628 
647.000000	327.112515 
647.500000	328.771121 
648.000000	331.912030 
648.500000	332.907401 
649.000000	333.370856 
649.500000	332.642015 
650.000000	333.425931 
650.500000	334.332227 
651.000000	336.160250 
651.500000	337.387893 
652.000000	337.374734 
652.500000	337.113265 
653.000000	337.002924 
653.500000	338.331765 
654.000000	340.071196 
654.500000	340.488598 
655.000000	338.137159 
655.500000	334.900507 
656.000000	332.686068 
656.500000	331.947977 
657.000000	331.897378 
657.500000	332.384287 
658.000000	332.122765 
658.500000	329.662462 
659.000000	325.950598 
659.500000	324.205234 
660.000000	323.649856 
660.500000	322.814803 
661.000000	320.694484 
661.500000	317.030909 
662.000000	311.660401 
662.500000	305.967500 
663.000000	302.626227 
663.500000	301.887454 
664.000000	302.280356 
664.500000	300.045257 
665.000000	296.473151 
665.500000	291.687878 
666.000000	287.269666 
666.500000	281.496090 
667.000000	276.754583 
667.500000	273.052818 
668.000000	270.651371 
668.500000	266.603424 
669.000000	262.729174 
669.500000	259.351053 
670.000000	255.817537 
670.500000	249.823424 
671.000000	244.406954 
671.500000	239.690098 
672.000000	235.709560 
672.500000	229.284810 
673.000000	223.401606 
673.500000	217.919810 
674.000000	214.196666 
674.500000	209.458734 
675.000000	204.458606 
675.500000	198.431386 
676.000000	193.919977 
676.500000	189.580583 
677.000000	185.551166 
677.500000	180.091916 
678.000000	174.890666 
678.500000	170.733863 
679.000000	167.492477 
679.500000	163.903946 
680.000000	159.648643 
680.500000	155.103712 
681.000000	150.589424 
681.500000	146.584477 
682.000000	141.940537 
682.500000	137.656916 
683.000000	133.395712 
683.500000	129.642204 
684.000000	125.043174 
684.500000	120.814272 
685.000000	117.114250 
685.500000	114.376590 
686.000000	111.041507 
686.500000	107.522666 
687.000000	103.978530 
687.500000	100.624674 
688.000000	97.909621  
688.500000	94.892901  
689.000000	92.419439  
689.500000	89.657492  
690.000000	87.496318  
690.500000	85.260287  
691.000000	83.586045  
691.500000	80.909340  
692.000000	77.576128  
692.500000	73.373962  
693.000000	70.441818  
693.500000	68.646999  
694.000000	67.100098  
694.500000	65.841560  
695.000000	64.820159  
695.500000	63.010803  
696.000000	59.908507  
696.500000	57.191151  
697.000000	55.770871  
697.500000	55.043545  
698.000000	53.294022  
698.500000	50.987643  
699.000000	49.366484  
699.500000	48.334772  
700.000000	47.262045  
700.500000	45.365750  
701.000000	43.716507  
701.500000	42.672893  
702.000000	41.868780  
702.500000	40.522439  
703.000000	38.781053  
703.500000	37.513469  
704.000000	36.911734  
704.500000	36.349750  
705.000000	35.274310  
705.500000	33.989621  
706.000000	33.180924  
706.500000	32.861401  
707.000000	32.489325  
707.500000	31.606212  
708.000000	30.813825  
708.500000	29.812522  
709.000000	28.699424  
709.500000	27.618522  
710.000000	27.034409  
710.500000	26.596575  
711.000000	26.083833  
711.500000	25.401719  
712.000000	25.038765  
712.500000	24.453977  
713.000000	23.497030  
713.500000	22.447068  
714.000000	22.168000  
714.500000	22.325280  
715.000000	22.211257  
715.500000	21.552143  
716.000000	20.889856  
716.500000	20.519295  
717.000000	19.838757  
717.500000	19.076674  
718.000000	18.387000  
718.500000	18.019446  
719.000000	17.578825  
719.500000	17.066780  
720.000000	17.004181  
720.500000	17.131659  
721.000000	17.010121  
721.500000	16.170424  
722.000000	15.553674  
722.500000	14.936166  
723.000000	14.596439  
723.500000	14.111083  
724.000000	13.989068  
724.500000	13.973772  
725.000000	13.771272  
725.500000	13.208977  
726.000000	12.554469  
726.500000	11.970227  
727.000000	11.772636  
727.500000	12.002265  
728.000000	12.140651  
728.500000	11.918265  
729.000000	11.480424  
729.500000	11.412848  
730.000000	11.388083  
730.500000	11.431159  
731.000000	11.288750  
731.500000	11.157204  
732.000000	10.706189  
732.500000	10.267590  
733.000000	9.966856   
733.500000	9.872022   
734.000000	9.742083   
734.500000	9.489363   
735.000000	9.437242   
735.500000	9.440015   
736.000000	9.644954   
736.500000	9.666575   
737.000000	9.329409   
737.500000	8.660431   
738.000000	8.110462   
738.500000	7.805613   
739.000000	7.743121   
739.500000	7.687348   
740.000000	7.601151   
740.500000	7.290166   
741.000000	6.842795   
741.500000	6.661833   
742.000000	6.889999   
742.500000	7.392356   
743.000000	7.870606   
743.500000	7.979151   
744.000000	7.656719   
744.500000	7.097689   
745.000000	6.748265   
745.500000	6.598121   
746.000000	6.432204   
746.500000	6.258924   
747.000000	6.465484   
747.500000	6.701575   
748.000000	6.692136   
748.500000	6.306484   
749.000000	5.927977   
749.500000	5.681999   
750.000000	5.553727   
750.500000	5.531250   
751.000000	5.656227   
751.500000	5.746742   
752.000000	5.755401   
752.500000	5.513143   
753.000000	5.193060   
753.500000	5.051250   
754.000000	5.180537   
754.500000	5.337378   
755.000000	5.187242   
755.500000	4.895234   
756.000000	4.756984   
756.500000	4.946977   
757.000000	5.034121   
757.500000	5.005651   
758.000000	4.738954   
758.500000	4.562583   
759.000000	4.480174   
759.500000	4.615204   
760.000000	4.719439   
760.500000	4.594348   
761.000000	4.353310   
761.500000	4.158287   
762.000000	4.260856   
762.500000	4.586939   
763.000000	4.835378   
763.500000	4.621840   
764.000000	3.956696   
764.500000	3.495257   
765.000000	3.599378   
765.500000	4.052378   
766.000000	4.312924   
766.500000	4.319416   
767.000000	4.126439   
767.500000	3.864378   
768.000000	3.727454   
768.500000	3.684325   
769.000000	3.785363   
769.500000	3.773053   
770.000000	3.823469   
770.500000	3.858666   
771.000000	4.009333   
771.500000	3.958901   
772.000000	3.800227   
772.500000	3.526840   
773.000000	3.472893   
773.500000	3.506515   
774.000000	3.596651   
774.500000	3.564954   
775.000000	3.543106   
775.500000	3.489568   
776.000000	3.312121   
776.500000	3.103030   
777.000000	2.993250   
777.500000	3.082477   
778.000000	3.229893   
778.500000	3.200613   
779.000000	3.123651   
779.500000	3.159909   
780.000000	3.314371   
780.500000	3.335560   
781.000000	3.287204   
781.500000	3.228863   
782.000000	3.166621   
782.500000	3.041136   
783.000000	2.923234   
783.500000	2.978242   
784.000000	3.023734   
784.500000	3.017121   
785.000000	3.068931   
785.500000	3.249803   
786.000000	3.255931   
786.500000	3.084295   
787.000000	2.911416   
787.500000	3.002098   
788.000000	3.072606   
788.500000	3.197818   
789.000000	3.152924   
789.500000	3.060962   
790.000000	2.794469   
790.500000	2.726098   
791.000000	2.834810   
791.500000	2.945984   
792.000000	2.806893   
792.500000	2.559515   
793.000000	2.470181   
793.500000	2.474219   
794.000000	2.589530   
794.500000	2.670734   
795.000000	2.808037   
795.500000	2.882704   
796.000000	2.899287   
796.500000	2.830719   
797.000000	2.651643   
797.500000	2.431522   
798.000000	2.281196   
798.500000	2.372810   
799.000000	2.488015   
799.500000	2.500780   
800.000000	2.135454   
800.500000	1.947000   
801.000000	1.919886   
801.500000	2.092007   
802.000000	2.020340   
802.500000	1.907689   
803.000000	1.925196   
803.500000	2.291522   
804.000000	2.334537   
804.500000	2.180409   
805.000000	1.945681   
805.500000	1.956628   
806.000000	1.958090   
806.500000	1.864378   
807.000000	1.775075   
807.500000	1.837477   
808.000000	1.943250   
808.500000	1.812696   
809.000000	1.760257   
809.500000	1.685825   
810.000000	1.848833   
810.500000	1.911075   
811.000000	1.962606   
811.500000	1.926780   
812.000000	1.941083   
812.500000	1.850522   
813.000000	1.699204   
813.500000	1.529401   
814.000000	1.423704   
814.500000	1.339765   
815.000000	1.289575   
815.500000	1.269227   
816.000000	1.325318   
816.500000	1.479068   
817.000000	1.689484   
817.500000	1.779856   
818.000000	1.683583   
818.500000	1.538090   
819.000000	1.479143   
819.500000	1.498295   
820.000000	1.611083   
820.500000	1.795606   
821.000000	2.060530   
821.500000	2.154348   
822.000000	2.065098   
822.500000	1.951401   
823.000000	1.961189   
823.500000	2.088765   
824.000000	2.335537   
824.500000	2.557098   
825.000000	2.558045   
825.500000	2.317575   
826.000000	2.080037   
826.500000	2.028507   
827.000000	2.151863   
827.500000	2.223696   
828.000000	2.116007   
828.500000	1.905719   
829.000000	1.619159   
829.500000	1.417954   
830.000000	1.376143   
830.500000	1.365909   
831.000000	1.347628   
831.500000	1.261348   
832.000000	1.245409   
832.500000	1.166810   
833.000000	1.137340   
833.500000	1.072818   
834.000000	1.237757   
834.500000	1.380272   
835.000000	1.405295   
835.500000	1.226893   
836.000000	1.043954   
836.500000	0.937189   
837.000000	0.990954   
837.500000	1.105484   
838.000000	1.138984   
838.500000	0.922265   
839.000000	0.658151   
839.500000	0.628424   
840.000000	0.781787   
840.500000	0.922454   
841.000000	0.880022   
841.500000	0.861325   
842.000000	0.881507   
842.500000	0.826863   
843.000000	0.645386   
843.500000	0.523257   
844.000000	0.516386   
844.500000	0.648401   
845.000000	0.838916   
845.500000	0.909227   
846.000000	0.794212   
846.500000	0.539348   
847.000000	0.354075   
847.500000	0.340863   
848.000000	0.404515   
848.500000	0.503734   
849.000000	0.556212   
849.500000	0.553575   
850.000000	0.424098   
850.500000	0.220303   
851.000000	0.037454   
851.500000	0.103636   
852.000000	0.343545   
852.500000	0.415522   
853.000000	0.319893   
853.500000	0.242742   
854.000000	0.344492   
854.500000	0.359803   
855.000000	0.237909   
855.500000	0.085151   
856.000000	0.058530   
856.500000	0.120537   
857.000000	0.180545   
857.500000	0.255909   
858.000000	0.133931   
858.500000	0.010916   
859.000000	-0.076143  
859.500000	0.045916   
860.000000	0.117159   
860.500000	0.141992   
861.000000	0.034962   
861.500000	-0.032295  
862.000000	-0.091613  
862.500000	-0.023371  
863.000000	0.122643   
863.500000	0.216469   
864.000000	0.190136   
864.500000	0.112719   
865.000000	0.046303   
865.500000	0.039015   
866.000000	-0.001765  
866.500000	-0.029992  
867.000000	-0.065598  
867.500000	-0.067484  
868.000000	-0.016431  
868.500000	0.069916   
869.000000	0.078537   
869.500000	-0.000560  
870.000000	-0.119121  
870.500000	-0.197424  
871.000000	-0.147159  
871.500000	-0.012250  
872.000000	0.127075   
872.500000	0.145643   
873.000000	0.048803   
873.500000	0.004954   
874.000000	0.005545   
874.500000	0.041462   
875.000000	0.010469   
875.500000	-0.010128  
876.000000	-0.059075  
876.500000	-0.011280  
877.000000	-0.018075  
877.500000	0.004750   
878.000000	-0.089098  
878.500000	-0.112356  
879.000000	-0.146227  
879.500000	-0.106333  
880.000000	-0.088454  
880.500000	-0.052121  
881.000000	-0.094356  
881.500000	-0.173719  
882.000000	-0.153121  
882.500000	-0.123446  
883.000000	-0.085000  
883.500000	-0.147825  
884.000000	-0.111674  
884.500000	-0.089113  
885.000000	0.018227   
885.500000	0.047151   
886.000000	0.089287   
886.500000	0.117818   
887.000000	0.141636   
887.500000	0.080962   
888.000000	-0.069674  
888.500000	-0.185446  
889.000000	-0.220734  
889.500000	-0.195590  
890.000000	-0.257325  
890.500000	-0.284772  
891.000000	-0.240689  
891.500000	-0.142772  
892.000000	-0.056128  
892.500000	0.029212   
893.000000	0.107810   
893.500000	0.106931   
894.000000	0.096787   
894.500000	0.054469   
895.000000	0.043196   
895.500000	-0.007083  
896.000000	-0.011742  
896.500000	0.032007   
897.000000	0.091484   
897.500000	0.105257   

