PE FL                   SPECTRUM    ASCII       PEDS        1.60        
  -1
SA93CD~1.SP
24/04/12
16:10:34.00
24/04/12
16:10:34.00
Jan

897.500000
1









LS55
405.00
5.00
5.00
SCAN
1
20
100
100
0
400
0
1
0
1
5
ON
450 405 
1 0 0
#HDR
-1
-1
#GR
NM

0.00002384185791015625
0.0
450.000000
0.500000
896
8
340.136939
-0.327840
#DATA
450.000000	0.066999   
450.500000	0.256916   
451.000000	0.435272   
451.500000	0.537507   
452.000000	0.276515   
452.500000	0.014212   
453.000000	-0.194371  
453.500000	-0.113787  
454.000000	-0.118515  
454.500000	-0.087136  
455.000000	-0.050507  
455.500000	0.056984   
456.000000	0.265219   
456.500000	0.449227   
457.000000	0.475401   
457.500000	0.279651   
458.000000	0.183181   
458.500000	0.108924   
459.000000	0.031689   
459.500000	-0.172856  
460.000000	-0.161484  
460.500000	0.005280   
461.000000	0.289340   
461.500000	0.440181   
462.000000	0.366310   
462.500000	-0.003295  
463.000000	-0.318030  
463.500000	-0.327840  
464.000000	-0.061848  
464.500000	0.155250   
465.000000	0.194280   
465.500000	0.054825   
466.000000	-0.126204  
466.500000	-0.146106  
467.000000	0.066462   
467.500000	0.287166   
468.000000	0.280734   
468.500000	0.152318   
469.000000	0.108613   
469.500000	0.255750   
470.000000	0.369818   
470.500000	0.381530   
471.000000	0.345507   
471.500000	0.281628   
472.000000	0.159113   
472.500000	-0.009022  
473.000000	-0.030530  
473.500000	0.099378   
474.000000	0.392515   
474.500000	0.460242   
475.000000	0.285075   
475.500000	-0.066219  
476.000000	-0.239431  
476.500000	-0.215825  
477.000000	-0.131606  
477.500000	-0.095045  
478.000000	0.020749   
478.500000	0.214575   
479.000000	0.302954   
479.500000	0.291015   
480.000000	0.188227   
480.500000	-0.003765  
481.000000	-0.154924  
481.500000	-0.120712  
482.000000	0.144946   
482.500000	0.209893   
483.000000	0.033636   
483.500000	-0.150439  
484.000000	0.008189   
484.500000	0.209810   
485.000000	0.232083   
485.500000	0.055098   
486.000000	0.048257   
486.500000	0.170803   
487.000000	0.275484   
487.500000	0.216909   
488.000000	0.075068   
488.500000	0.078871   
489.000000	0.184734   
489.500000	0.246393   
490.000000	0.236280   
490.500000	0.194234   
491.000000	0.219128   
491.500000	0.189363   
492.000000	0.155106   
492.500000	0.000530   
493.000000	0.011272   
493.500000	0.020628   
494.000000	0.169522   
494.500000	0.147348   
495.000000	0.191371   
495.500000	0.267462   
496.000000	0.477583   
496.500000	0.527568   
497.000000	0.544719   
497.500000	0.561818   
498.000000	0.565318   
498.500000	0.440462   
499.000000	0.246636   
499.500000	0.175765   
500.000000	0.259810   
500.500000	0.381234   
501.000000	0.437946   
501.500000	0.478560   
502.000000	0.580181   
502.500000	0.697848   
503.000000	0.757462   
503.500000	0.722174   
504.000000	0.605492   
504.500000	0.552568   
505.000000	0.590424   
505.500000	0.834545   
506.000000	0.942727   
506.500000	1.051151   
507.000000	0.963969   
507.500000	0.957931   
508.000000	0.856598   
508.500000	1.006196   
509.000000	1.132969   
509.500000	1.230765   
510.000000	1.128840   
510.500000	1.081969   
511.000000	1.099575   
511.500000	1.157863   
512.000000	1.165151   
512.500000	1.204159   
513.000000	1.284522   
513.500000	1.362196   
514.000000	1.302848   
514.500000	1.213431   
515.000000	1.166257   
515.500000	1.374181   
516.000000	1.534901   
516.500000	1.775696   
517.000000	1.853393   
517.500000	2.021507   
518.000000	1.997462   
518.500000	1.998553   
519.000000	1.905886   
519.500000	2.015946   
520.000000	2.138045   
520.500000	2.316310   
521.000000	2.445257   
521.500000	2.482780   
522.000000	2.433893   
522.500000	2.398810   
523.000000	2.529727   
523.500000	2.737219   
524.000000	2.736272   
524.500000	2.654651   
525.000000	2.724416   
525.500000	2.896409   
526.000000	2.991272   
526.500000	3.019310   
527.000000	3.220568   
527.500000	3.363750   
528.000000	3.450310   
528.500000	3.446424   
529.000000	3.901522   
529.500000	4.377000   
530.000000	4.667462   
530.500000	4.559734   
531.000000	4.458719   
531.500000	4.545833   
532.000000	4.823977   
532.500000	4.983848   
533.000000	5.315257   
533.500000	5.787545   
534.000000	6.268143   
534.500000	6.448121   
535.000000	6.521696   
535.500000	6.542765   
536.000000	6.819765   
536.500000	7.291159   
537.000000	7.887090   
537.500000	8.374659   
538.000000	8.588545   
538.500000	8.684787   
539.000000	9.020295   
539.500000	9.369530   
540.000000	9.765242   
540.500000	10.143568  
541.000000	10.776068  
541.500000	11.071545  
542.000000	11.052931  
542.500000	10.807765  
543.000000	11.028651  
543.500000	11.341272  
544.000000	11.563257  
544.500000	11.569825  
545.000000	11.770113  
545.500000	11.903636  
546.000000	12.073984  
546.500000	12.291272  
547.000000	12.428143  
547.500000	12.121613  
548.000000	11.536893  
548.500000	11.504863  
549.000000	11.945159  
549.500000	12.445204  
550.000000	12.174196  
550.500000	11.849477  
551.000000	11.590113  
551.500000	11.579128  
552.000000	11.615121  
552.500000	11.905257  
553.000000	12.276068  
553.500000	12.252515  
554.000000	11.992886  
554.500000	11.782795  
555.000000	12.018666  
555.500000	12.388227  
556.000000	12.711469  
556.500000	12.891500  
557.000000	13.127696  
557.500000	13.565113  
558.000000	13.912015  
558.500000	13.950045  
559.000000	13.835015  
559.500000	14.119401  
560.000000	14.614462  
560.500000	15.167121  
561.000000	15.618128  
561.500000	16.054712  
562.000000	16.429886  
562.500000	16.559560  
563.000000	16.596492  
563.500000	16.899621  
564.000000	17.707750  
564.500000	18.506946  
565.000000	19.233689  
565.500000	19.825492  
566.000000	20.770242  
566.500000	21.632272  
567.000000	22.143477  
567.500000	22.186212  
568.000000	22.038272  
568.500000	22.173545  
569.000000	22.635151  
569.500000	23.419613  
570.000000	23.750931  
570.500000	24.108575  
571.000000	24.482204  
571.500000	25.198439  
572.000000	25.634333  
572.500000	26.241893  
573.000000	26.871409  
573.500000	28.008310  
574.000000	29.342977  
574.500000	30.635265  
575.000000	31.066931  
575.500000	30.795613  
576.000000	30.420742  
576.500000	30.901590  
577.000000	31.508106  
577.500000	31.988257  
578.000000	32.026651  
578.500000	32.880871  
579.000000	33.957386  
579.500000	34.980568  
580.000000	35.032651  
580.500000	35.069325  
581.000000	35.649893  
581.500000	37.008424  
582.000000	38.111053  
582.500000	38.748431  
583.000000	39.242310  
583.500000	39.693803  
584.000000	40.047242  
584.500000	40.310265  
585.000000	41.217409  
585.500000	42.493143  
586.000000	43.474916  
586.500000	43.993477  
587.000000	44.677136  
587.500000	45.696098  
588.000000	46.571446  
588.500000	46.820416  
589.000000	47.168090  
589.500000	48.040469  
590.000000	49.862969  
590.500000	52.117946  
591.000000	54.400893  
591.500000	55.963371  
592.000000	57.244090  
592.500000	57.803613  
593.000000	58.972598  
593.500000	60.628803  
594.000000	62.300742  
594.500000	63.086856  
595.000000	63.083310  
595.500000	63.404749  
596.000000	64.859037  
596.500000	66.635712  
597.000000	67.909689  
597.500000	68.760772  
598.000000	69.951409  
598.500000	70.840159  
599.000000	71.710446  
599.500000	72.439507  
600.000000	73.921318  
600.500000	75.748954  
601.000000	77.568757  
601.500000	79.575553  
602.000000	81.318075  
602.500000	83.451606  
603.000000	85.309477  
603.500000	87.902356  
604.000000	89.511378  
604.500000	90.892681  
605.000000	92.364674  
605.500000	94.798166  
606.000000	97.227545  
606.500000	99.065325  
607.000000	100.011568 
607.500000	100.949416 
608.000000	103.615454 
608.500000	107.032446 
609.000000	109.256878 
609.500000	109.618977 
610.000000	110.299598 
610.500000	112.137166 
611.000000	114.998946 
611.500000	117.968696 
612.000000	121.905787 
612.500000	125.134757 
613.000000	126.462500 
613.500000	126.443969 
614.000000	127.164393 
614.500000	129.556166 
615.000000	132.705386 
615.500000	136.623962 
616.000000	139.476143 
616.500000	143.396750 
617.000000	146.805628 
617.500000	150.667424 
618.000000	152.323765 
618.500000	153.970666 
619.000000	155.984113 
619.500000	160.550121 
620.000000	164.052916 
620.500000	165.473416 
621.000000	166.892257 
621.500000	170.803015 
622.000000	177.047810 
622.500000	181.191613 
623.000000	183.907924 
623.500000	186.678803 
624.000000	191.957446 
624.500000	195.947462 
625.000000	199.263681 
625.500000	200.579098 
626.000000	202.552469 
626.500000	204.931598 
627.000000	208.577022 
627.500000	212.381681 
628.000000	216.629393 
628.500000	219.954666 
629.000000	223.812113 
629.500000	228.138924 
630.000000	232.733454 
630.500000	237.048901 
631.000000	240.824522 
631.500000	243.838924 
632.000000	245.653681 
632.500000	248.301931 
633.000000	251.239750 
633.500000	255.388174 
634.000000	258.543962 
634.500000	263.334113 
635.000000	267.895515 
635.500000	271.404848 
636.000000	272.293250 
636.500000	273.296931 
637.000000	277.203772 
637.500000	282.773053 
638.000000	288.520734 
638.500000	290.993174 
639.000000	292.781424 
639.500000	294.486015 
640.000000	299.685083 
640.500000	304.349590 
641.000000	307.380409 
641.500000	307.891250 
642.000000	308.544310 
642.500000	311.115151 
643.000000	314.331886 
643.500000	317.853689 
644.000000	319.417795 
644.500000	321.555151 
645.000000	322.054916 
645.500000	324.602621 
646.000000	326.580318 
646.500000	328.488106 
647.000000	328.991431 
647.500000	330.670772 
648.000000	332.441121 
648.500000	333.932507 
649.000000	334.108393 
649.500000	334.206492 
650.000000	335.527871 
650.500000	336.142249 
651.000000	336.118219 
651.500000	335.364280 
652.000000	335.466386 
652.500000	336.867363 
653.000000	339.371272 
653.500000	340.136939 
654.000000	338.554810 
654.500000	336.840810 
655.000000	336.430636 
655.500000	337.191174 
656.000000	335.939151 
656.500000	333.401022 
657.000000	330.233310 
657.500000	327.751113 
658.000000	325.809113 
658.500000	324.403659 
659.000000	323.749696 
659.500000	322.691477 
660.000000	321.229704 
660.500000	319.483613 
661.000000	317.752295 
661.500000	316.129863 
662.000000	314.675909 
662.500000	312.666409 
663.000000	308.811234 
663.500000	304.133159 
664.000000	299.215045 
664.500000	296.487484 
665.000000	294.152068 
665.500000	291.006886 
666.000000	285.180825 
666.500000	280.132727 
667.000000	277.578272 
667.500000	276.654477 
668.000000	272.648886 
668.500000	266.110954 
669.000000	259.751500 
669.500000	254.654007 
670.000000	250.004500 
670.500000	246.465257 
671.000000	243.329363 
671.500000	239.063575 
672.000000	232.285575 
672.500000	225.543651 
673.000000	219.813818 
673.500000	215.259060 
674.000000	210.639878 
674.500000	205.683469 
675.000000	200.593568 
675.500000	196.017409 
676.000000	192.063295 
676.500000	187.596659 
677.000000	181.664409 
677.500000	176.311818 
678.000000	172.023765 
678.500000	168.989196 
679.000000	165.315840 
679.500000	161.571303 
680.000000	156.663340 
680.500000	151.408166 
681.000000	145.585742 
681.500000	140.831446 
682.000000	137.442689 
682.500000	134.391651 
683.000000	130.549742 
683.500000	126.455765 
684.000000	123.057363 
684.500000	120.239606 
685.000000	116.904136 
685.500000	112.960636 
686.000000	109.468818 
686.500000	106.549727 
687.000000	103.660393 
687.500000	100.182931 
688.000000	95.998492  
688.500000	91.907712  
689.000000	89.058825  
689.500000	87.549242  
690.000000	86.128007  
690.500000	83.638340  
691.000000	80.344310  
691.500000	77.478712  
692.000000	74.988060  
692.500000	72.507053  
693.000000	69.605469  
693.500000	67.168204  
694.000000	65.631962  
694.500000	64.755325  
695.000000	63.339098  
695.500000	60.813303  
696.000000	57.552128  
696.500000	54.620871  
697.000000	53.495871  
697.500000	53.044219  
698.000000	52.299484  
698.500000	50.308053  
699.000000	48.221431  
699.500000	46.286712  
700.000000	44.993545  
700.500000	43.856863  
701.000000	43.197522  
701.500000	42.499780  
702.000000	41.253545  
702.500000	39.605590  
703.000000	38.264386  
703.500000	37.106378  
704.000000	35.954015  
704.500000	34.835015  
705.000000	34.095212  
705.500000	33.644553  
706.000000	32.750469  
706.500000	31.639212  
707.000000	31.012954  
707.500000	30.827492  
708.000000	30.464560  
708.500000	29.327113  
709.000000	27.995613  
709.500000	26.830454  
710.000000	26.390378  
710.500000	26.220916  
711.000000	26.108999  
711.500000	25.327583  
712.000000	24.000090  
712.500000	22.856704  
713.000000	22.418962  
713.500000	22.499553  
714.000000	22.276386  
714.500000	21.901560  
715.000000	21.184196  
715.500000	20.439053  
716.000000	19.485818  
716.500000	18.998295  
717.000000	18.789871  
717.500000	18.844931  
718.000000	18.432560  
718.500000	17.684310  
719.000000	16.918469  
719.500000	16.410166  
720.000000	16.135590  
720.500000	15.775780  
721.000000	15.475962  
721.500000	14.834636  
722.000000	14.339196  
722.500000	14.014871  
723.000000	14.192939  
723.500000	14.381901  
724.000000	14.378848  
724.500000	14.023742  
725.000000	13.537477  
725.500000	13.280871  
726.000000	13.251075  
726.500000	13.273356  
727.000000	12.827848  
727.500000	12.055030  
728.000000	11.239992  
728.500000	10.821780  
729.000000	10.783053  
729.500000	10.901712  
730.000000	10.753204  
730.500000	10.405022  
731.000000	10.200613  
731.500000	10.174856  
732.000000	10.017954  
732.500000	9.785590   
733.000000	9.840939   
733.500000	9.954962   
734.000000	9.974946   
734.500000	9.602204   
735.000000	9.028227   
735.500000	8.374583   
736.000000	8.194742   
736.500000	8.181878   
737.000000	8.302022   
737.500000	8.313886   
738.000000	8.409598   
738.500000	8.625946   
739.000000	8.673787   
739.500000	8.507340   
740.000000	8.028295   
740.500000	7.573348   
741.000000	7.216689   
741.500000	7.083886   
742.000000	6.833166   
742.500000	6.760075   
743.000000	6.888598   
743.500000	7.137659   
744.000000	7.079696   
744.500000	6.803613   
745.000000	6.527810   
745.500000	6.467212   
746.000000	6.577242   
746.500000	6.634863   
747.000000	6.385310   
747.500000	5.948545   
748.000000	5.690386   
748.500000	5.930530   
749.000000	6.301204   
749.500000	6.332575   
750.000000	5.932469   
750.500000	5.688045   
751.000000	5.740340   
751.500000	5.749477   
752.000000	5.472075   
752.500000	5.046621   
753.000000	4.901545   
753.500000	4.897356   
754.000000	5.160287   
754.500000	5.385893   
755.000000	5.502196   
755.500000	5.168280   
756.000000	4.809030   
756.500000	4.690803   
757.000000	4.811606   
757.500000	4.763424   
758.000000	4.675159   
758.500000	4.785060   
759.000000	4.915356   
759.500000	4.803712   
760.000000	4.586424   
760.500000	4.515507   
761.000000	4.494446   
761.500000	4.403053   
762.000000	4.199515   
762.500000	4.268340   
763.000000	4.501037   
763.500000	4.694871   
764.000000	4.500719   
764.500000	4.179946   
765.000000	4.073689   
765.500000	4.318295   
766.000000	4.528348   
766.500000	4.567530   
767.000000	4.528613   
767.500000	4.294151   
768.000000	3.888189   
768.500000	3.536401   
769.000000	3.503628   
769.500000	3.593628   
770.000000	3.588439   
770.500000	3.442136   
771.000000	3.300053   
771.500000	3.214772   
772.000000	3.293674   
772.500000	3.411909   
773.000000	3.476742   
773.500000	3.317136   
774.000000	3.221954   
774.500000	3.192454   
775.000000	3.263272   
775.500000	3.366212   
776.000000	3.450068   
776.500000	3.439727   
777.000000	3.335250   
777.500000	3.364924   
778.000000	3.447106   
778.500000	3.369659   
779.000000	3.004037   
779.500000	2.708818   
780.000000	2.750651   
780.500000	2.928946   
781.000000	2.965742   
781.500000	2.861590   
782.000000	3.023265   
782.500000	3.344727   
783.000000	3.538295   
783.500000	3.359204   
784.000000	3.147287   
784.500000	3.009568   
785.000000	3.023871   
785.500000	3.017863   
786.000000	3.094166   
786.500000	3.113401   
787.000000	3.109856   
787.500000	3.003818   
788.000000	2.893446   
788.500000	2.870151   
789.000000	2.940757   
789.500000	2.980378   
790.000000	2.840954   
790.500000	2.762121   
791.000000	2.776757   
791.500000	2.892704   
792.000000	2.874454   
792.500000	2.792022   
793.000000	2.714333   
793.500000	2.626992   
794.000000	2.600037   
794.500000	2.563780   
795.000000	2.642984   
795.500000	2.696310   
796.000000	2.712250   
796.500000	2.584219   
797.000000	2.395340   
797.500000	2.271689   
798.000000	2.264310   
798.500000	2.389840   
799.000000	2.350409   
799.500000	2.289250   
800.000000	2.086560   
800.500000	2.040696   
801.000000	2.023303   
801.500000	2.201121   
802.000000	2.363598   
802.500000	2.579727   
803.000000	2.533530   
803.500000	2.319553   
804.000000	1.994030   
804.500000	1.863250   
805.000000	1.901068   
805.500000	1.963424   
806.000000	1.937984   
806.500000	1.906196   
807.000000	1.847386   
807.500000	1.709484   
808.000000	1.549909   
808.500000	1.607106   
809.000000	1.736765   
809.500000	1.849151   
810.000000	1.758265   
810.500000	1.871977   
811.000000	1.914492   
811.500000	2.022704   
812.000000	1.830515   
812.500000	1.667356   
813.000000	1.548507   
813.500000	1.689719   
814.000000	1.822818   
814.500000	1.909553   
815.000000	1.800590   
815.500000	1.634227   
816.000000	1.546621   
816.500000	1.585204   
817.000000	1.707825   
817.500000	1.780833   
818.000000	1.781219   
818.500000	1.772015   
819.000000	1.888219   
819.500000	1.898818   
820.000000	1.847136   
820.500000	1.729500   
821.000000	1.736931   
821.500000	1.864704   
822.000000	2.026045   
822.500000	2.158469   
823.000000	2.127818   
823.500000	2.222977   
824.000000	2.306303   
824.500000	2.450454   
825.000000	2.473765   
825.500000	2.436969   
826.000000	2.323022   
826.500000	2.259090   
827.000000	2.313424   
827.500000	2.274409   
828.000000	2.003946   
828.500000	1.721189   
829.000000	1.705136   
829.500000	1.782143   
830.000000	1.608446   
830.500000	1.347992   
831.000000	1.180780   
831.500000	1.233000   
832.000000	1.208856   
832.500000	1.186946   
833.000000	1.031446   
833.500000	0.930825   
834.000000	0.837189   
834.500000	1.014272   
835.000000	1.127848   
835.500000	1.195356   
836.000000	1.055537   
836.500000	1.053431   
837.000000	1.128492   
837.500000	1.142106   
838.000000	0.983787   
838.500000	0.861371   
839.000000	0.920159   
839.500000	1.024090   
840.000000	1.115848   
840.500000	1.092477   
841.000000	1.064393   
841.500000	0.955439   
842.000000	0.774484   
842.500000	0.657954   
843.000000	0.696916   
843.500000	0.805272   
844.000000	0.785628   
844.500000	0.649833   
845.000000	0.566537   
845.500000	0.606265   
846.000000	0.680310   
846.500000	0.638310   
847.000000	0.512545   
847.500000	0.288553   
848.000000	0.142128   
848.500000	0.093636   
849.000000	0.206030   
849.500000	0.226340   
850.000000	0.280484   
850.500000	0.288628   
851.000000	0.333090   
851.500000	0.194750   
852.000000	0.006159   
852.500000	-0.124742  
853.000000	0.045075   
853.500000	0.257037   
854.000000	0.402265   
854.500000	0.293166   
855.000000	0.164598   
855.500000	0.063196   
856.000000	0.036886   
856.500000	-0.084818  
857.000000	-0.049863  
857.500000	0.039431   
858.000000	0.162242   
858.500000	0.070871   
859.000000	0.016772   
859.500000	0.022000   
860.000000	0.106977   
860.500000	0.076628   
861.000000	0.021439   
861.500000	-0.102492  
862.000000	-0.112045  
862.500000	-0.087704  
863.000000	0.009401   
863.500000	0.022462   
864.000000	0.053310   
864.500000	0.022719   
865.000000	-0.007037  
865.500000	-0.074159  
866.000000	-0.029340  
866.500000	0.011265   
867.000000	0.040757   
867.500000	0.054666   
868.000000	0.104575   
868.500000	0.036681   
869.000000	-0.084530  
869.500000	-0.124333  
870.000000	0.003742   
870.500000	0.115863   
871.000000	0.115681   
871.500000	0.097939   
872.000000	0.139250   
872.500000	0.195181   
873.000000	0.152007   
873.500000	0.086757   
874.000000	-0.008628  
874.500000	-0.023507  
875.000000	-0.053363  
875.500000	-0.008121  
876.000000	0.008856   
876.500000	0.001242   
877.000000	-0.086196  
877.500000	-0.124106  
878.000000	-0.064484  
878.500000	0.005719   
879.000000	0.053598   
879.500000	0.002560   
880.000000	0.049780   
880.500000	0.062083   
881.000000	0.040303   
881.500000	-0.125856  
882.000000	-0.289719  
882.500000	-0.317848  
883.000000	-0.195939  
883.500000	-0.051545  
884.000000	0.032431   
884.500000	0.110727   
885.000000	0.127462   
885.500000	0.136530   
886.000000	0.177765   
886.500000	0.152348   
887.000000	0.085659   
887.500000	-0.077681  
888.000000	-0.016909  
888.500000	0.089356   
889.000000	0.190037   
889.500000	0.054537   
890.000000	0.014303   
890.500000	-0.022712  
891.000000	0.050106   
891.500000	0.057825   
892.000000	0.067265   
892.500000	0.040674   
893.000000	0.033795   
893.500000	-0.000151  
894.000000	0.005560   
894.500000	-0.009159  
895.000000	0.033325   
895.500000	0.044189   
896.000000	0.049575   
896.500000	-0.043075  
897.000000	-0.093886  
897.500000	-0.126871  

