PE FL                   SPECTRUM    ASCII       PEDS        1.60        
  -1
SA8B95~1.SP
24/04/12
15:34:55.00
24/04/12
15:34:55.00
Jan

897.500000
1









LS55
405.00
5.00
5.00
SCAN
1
20
100
100
0
400
0
1
0
1
5
ON
450 405 
1 0 0
#HDR
-1
-1
#GR
NM

0.00002384185791015625
0.0
450.000000
0.500000
896
8
393.860734
-0.235242
#DATA
450.000000	0.463000   
450.500000	0.277128   
451.000000	-0.011204  
451.500000	-0.235242  
452.000000	-0.195583  
452.500000	-0.134446  
453.000000	-0.031924  
453.500000	0.058265   
454.000000	0.221651   
454.500000	0.339522   
455.000000	0.235507   
455.500000	0.040780   
456.000000	-0.108462  
456.500000	-0.059446  
457.000000	-0.013143  
457.500000	0.008636   
458.000000	0.093946   
458.500000	0.441189   
459.000000	0.716757   
459.500000	0.610515   
460.000000	0.284151   
460.500000	0.058583   
461.000000	0.089560   
461.500000	0.101340   
462.000000	0.042431   
462.500000	-0.105931  
463.000000	-0.131295  
463.500000	-0.092318  
464.000000	0.028984   
464.500000	0.225916   
465.000000	0.294583   
465.500000	0.249090   
466.000000	0.082833   
466.500000	0.170628   
467.000000	0.235734   
467.500000	0.225833   
468.000000	-0.016424  
468.500000	-0.016393  
469.000000	0.107098   
469.500000	0.324606   
470.000000	0.464719   
470.500000	0.497909   
471.000000	0.417696   
471.500000	0.282954   
472.000000	0.251378   
472.500000	0.292113   
473.000000	0.395636   
473.500000	0.405590   
474.000000	0.427750   
474.500000	0.221750   
475.000000	-0.004242  
475.500000	-0.101113  
476.000000	0.056060   
476.500000	0.105416   
477.000000	0.033840   
477.500000	-0.159628  
478.000000	-0.010924  
478.500000	0.215075   
479.000000	0.449037   
479.500000	0.430946   
480.000000	0.309143   
480.500000	0.257765   
481.000000	0.388674   
481.500000	0.549545   
482.000000	0.450303   
482.500000	0.198356   
483.000000	-0.020257  
483.500000	0.099318   
484.000000	0.248053   
484.500000	0.408863   
485.000000	0.438409   
485.500000	0.422750   
486.000000	0.272007   
486.500000	0.179068   
487.000000	0.217439   
487.500000	0.426659   
488.000000	0.556333   
488.500000	0.569613   
489.000000	0.471234   
489.500000	0.371628   
490.000000	0.349295   
490.500000	0.343681   
491.000000	0.318151   
491.500000	0.252462   
492.000000	0.245181   
492.500000	0.251462   
493.000000	0.152174   
493.500000	0.041507   
494.000000	0.073742   
494.500000	0.161310   
495.000000	0.064257   
495.500000	-0.047689  
496.000000	-0.057840  
496.500000	0.181803   
497.000000	0.336621   
497.500000	0.322295   
498.000000	0.160939   
498.500000	0.219560   
499.000000	0.461545   
499.500000	0.745401   
500.000000	0.794462   
500.500000	0.774106   
501.000000	0.726250   
501.500000	0.631280   
502.000000	0.484545   
502.500000	0.520272   
503.000000	0.611704   
503.500000	0.665674   
504.000000	0.595545   
504.500000	0.513310   
505.000000	0.415772   
505.500000	0.403560   
506.000000	0.514295   
506.500000	0.626325   
507.000000	0.676371   
507.500000	0.705303   
508.000000	0.831749   
508.500000	0.862189   
509.000000	0.838174   
509.500000	0.834651   
510.000000	0.938977   
510.500000	1.163598   
511.000000	1.302818   
511.500000	1.434363   
512.000000	1.343659   
512.500000	1.216659   
513.000000	0.889666   
513.500000	0.809621   
514.000000	0.938780   
514.500000	1.319037   
515.000000	1.416053   
515.500000	1.454037   
516.000000	1.633893   
516.500000	1.855136   
517.000000	1.878219   
517.500000	1.727689   
518.000000	1.616090   
518.500000	1.523325   
519.000000	1.616689   
519.500000	1.867787   
520.000000	2.202787   
520.500000	2.377340   
521.000000	2.507371   
521.500000	2.557962   
522.000000	2.530984   
522.500000	2.599272   
523.000000	2.789068   
523.500000	2.904265   
524.000000	2.774909   
524.500000	2.692787   
525.000000	2.757053   
525.500000	2.883666   
526.000000	2.949628   
526.500000	3.238393   
527.000000	3.572712   
527.500000	3.770318   
528.000000	3.770037   
528.500000	3.844272   
529.000000	3.932068   
529.500000	4.119583   
530.000000	4.172484   
530.500000	4.600560   
531.000000	4.983984   
531.500000	5.266818   
532.000000	5.181439   
532.500000	5.361560   
533.000000	5.575113   
533.500000	5.913939   
534.000000	5.915893   
534.500000	5.971371   
535.000000	6.025575   
535.500000	6.171803   
536.000000	6.514636   
536.500000	7.005848   
537.000000	7.470742   
537.500000	7.905280   
538.000000	8.453022   
538.500000	8.848522   
539.000000	9.028757   
539.500000	8.979992   
540.000000	9.329727   
540.500000	9.682393   
541.000000	10.140022  
541.500000	10.497113  
542.000000	11.033780  
542.500000	11.203939  
543.000000	11.363742  
543.500000	11.394765  
544.000000	11.519174  
544.500000	11.537143  
545.000000	11.639643  
545.500000	11.915522  
546.000000	12.286856  
546.500000	12.381795  
547.000000	12.240818  
547.500000	12.089545  
548.000000	12.049674  
548.500000	12.358530  
549.000000	12.807530  
549.500000	13.211772  
550.000000	13.230681  
550.500000	13.213212  
551.000000	12.889090  
551.500000	12.576166  
552.000000	12.087946  
552.500000	11.845007  
553.000000	12.105810  
553.500000	12.647606  
554.000000	13.012719  
554.500000	13.120424  
555.000000	13.224439  
555.500000	13.414189  
556.000000	13.651196  
556.500000	13.693931  
557.000000	13.753628  
557.500000	13.800946  
558.000000	14.008318  
558.500000	14.403136  
559.000000	14.813954  
559.500000	14.893037  
560.000000	15.108553  
560.500000	15.442318  
561.000000	15.742053  
561.500000	15.892098  
562.000000	16.267106  
562.500000	17.247924  
563.000000	18.133159  
563.500000	18.594015  
564.000000	18.615750  
564.500000	18.890348  
565.000000	19.576545  
565.500000	20.341924  
566.000000	20.650712  
566.500000	20.539772  
567.000000	20.794553  
567.500000	21.603060  
568.000000	22.256492  
568.500000	22.628878  
569.000000	23.448916  
569.500000	24.880181  
570.000000	25.901166  
570.500000	26.199878  
571.000000	25.889310  
571.500000	26.517333  
572.000000	27.510606  
572.500000	28.928015  
573.000000	29.880742  
573.500000	30.735090  
574.000000	31.195689  
574.500000	31.562500  
575.000000	31.414674  
575.500000	31.246121  
576.000000	32.186378  
576.500000	33.215901  
577.000000	34.261939  
577.500000	34.272159  
578.000000	34.843143  
578.500000	35.198113  
579.000000	35.808492  
579.500000	36.029893  
580.000000	37.095401  
580.500000	37.898696  
581.000000	38.299378  
581.500000	38.292795  
582.000000	38.566303  
582.500000	39.208090  
583.000000	39.867984  
583.500000	40.342431  
584.000000	41.043795  
584.500000	42.440015  
585.000000	43.851303  
585.500000	44.922560  
586.000000	45.461439  
586.500000	46.495931  
587.000000	48.114674  
587.500000	49.501159  
588.000000	50.277689  
588.500000	51.137757  
589.000000	52.496962  
589.500000	53.872818  
590.000000	54.948598  
590.500000	56.024999  
591.000000	57.713545  
591.500000	59.108871  
592.000000	59.863083  
592.500000	61.052818  
593.000000	63.108992  
593.500000	65.074136  
594.000000	66.312416  
594.500000	66.817522  
595.000000	67.497196  
595.500000	68.576363  
596.000000	70.485712  
596.500000	72.591439  
597.000000	74.796371  
597.500000	76.383522  
598.000000	78.253386  
598.500000	79.883712  
599.000000	81.471696  
599.500000	82.650378  
600.000000	83.882265  
600.500000	85.453363  
601.000000	87.149204  
601.500000	88.565954  
602.000000	89.568795  
602.500000	91.312295  
603.000000	93.761568  
603.500000	96.857431  
604.000000	99.364234  
604.500000	101.395272 
605.000000	102.423484 
605.500000	103.429007 
606.000000	104.761265 
606.500000	106.531848 
607.000000	108.089234 
607.500000	110.055083 
608.000000	112.071893 
608.500000	114.722901 
609.000000	117.376628 
609.500000	121.048477 
610.000000	124.316446 
610.500000	126.485143 
611.000000	127.817143 
611.500000	129.458545 
612.000000	131.541500 
612.500000	133.566848 
613.000000	137.137325 
613.500000	141.251121 
614.000000	145.695083 
614.500000	147.444992 
615.000000	148.607212 
615.500000	149.963181 
616.000000	153.145742 
616.500000	156.953924 
617.000000	161.057045 
617.500000	164.313840 
618.000000	167.358765 
618.500000	171.101795 
619.000000	175.228734 
619.500000	179.125325 
620.000000	182.620143 
620.500000	186.259621 
621.000000	190.041431 
621.500000	193.367931 
622.000000	195.520106 
622.500000	198.053348 
623.000000	201.310901 
623.500000	205.082893 
624.000000	208.166378 
624.500000	211.001901 
625.000000	214.821818 
625.500000	220.002431 
626.000000	224.090780 
626.500000	226.971803 
627.000000	230.397462 
627.500000	235.170340 
628.000000	240.243401 
628.500000	245.502431 
629.000000	251.156916 
629.500000	256.834893 
630.000000	258.824378 
630.500000	259.642371 
631.000000	261.358666 
631.500000	266.333696 
632.000000	271.990053 
632.500000	277.893053 
633.000000	282.355674 
633.500000	286.487424 
634.000000	289.246621 
634.500000	292.867689 
635.000000	297.905106 
635.500000	304.005613 
636.000000	309.800780 
636.500000	315.450931 
637.000000	319.104371 
637.500000	321.301863 
638.000000	322.489515 
638.500000	325.891590 
639.000000	329.541984 
639.500000	332.778484 
640.000000	333.344537 
640.500000	336.898280 
641.000000	341.824575 
641.500000	348.128643 
642.000000	351.359522 
642.500000	354.036007 
643.000000	355.581500 
643.500000	359.016393 
644.000000	362.305053 
644.500000	365.605280 
645.000000	366.978772 
645.500000	368.056651 
646.000000	369.438537 
646.500000	374.173477 
647.000000	379.259537 
647.500000	383.555765 
648.000000	382.711272 
648.500000	381.732939 
649.000000	382.450825 
649.500000	386.754386 
650.000000	389.636363 
650.500000	389.473378 
651.000000	387.089856 
651.500000	385.807689 
652.000000	386.963795 
652.500000	389.098977 
653.000000	390.525651 
653.500000	389.782734 
654.000000	388.214681 
654.500000	388.052310 
655.000000	389.771901 
655.500000	391.571818 
656.000000	390.942128 
656.500000	390.721598 
657.000000	392.157598 
657.500000	393.860734 
658.000000	391.679166 
658.500000	387.342939 
659.000000	384.162878 
659.500000	383.556704 
660.000000	382.469060 
660.500000	380.114613 
661.000000	376.688098 
661.500000	374.143037 
662.000000	371.791560 
662.500000	369.518462 
663.000000	365.888090 
663.500000	362.638727 
664.000000	359.440787 
664.500000	356.732969 
665.000000	353.066886 
665.500000	349.258863 
666.000000	344.378863 
666.500000	340.267166 
667.000000	336.375348 
667.500000	333.300795 
668.000000	329.245924 
668.500000	324.919219 
669.000000	320.895606 
669.500000	317.566606 
670.000000	313.032795 
670.500000	307.826833 
671.000000	302.498280 
671.500000	296.139356 
672.000000	288.992909 
672.500000	282.249780 
673.000000	277.074128 
673.500000	272.824674 
674.000000	269.179265 
674.500000	264.631424 
675.000000	259.075446 
675.500000	252.447439 
676.000000	247.183098 
676.500000	242.655000 
677.000000	238.145310 
677.500000	231.999818 
678.000000	227.010439 
678.500000	221.771295 
679.000000	216.462250 
679.500000	209.809575 
680.000000	203.800712 
680.500000	198.115863 
681.000000	193.711439 
681.500000	189.247234 
682.000000	185.494000 
682.500000	180.950742 
683.000000	175.579280 
683.500000	169.415772 
684.000000	163.356530 
684.500000	157.882325 
685.000000	153.449727 
685.500000	148.916022 
686.000000	144.178075 
686.500000	139.458227 
687.000000	135.283378 
687.500000	131.509386 
688.000000	127.825696 
688.500000	124.074712 
689.000000	119.995303 
689.500000	115.957787 
690.000000	112.852477 
690.500000	110.812121 
691.000000	108.005568 
691.500000	104.447106 
692.000000	100.582492 
692.500000	98.197636  
693.000000	96.222909  
693.500000	93.886704  
694.000000	90.025848  
694.500000	86.557128  
695.000000	83.953560  
695.500000	82.012719  
696.000000	79.301007  
696.500000	75.933333  
697.000000	73.027318  
697.500000	71.004295  
698.000000	69.209174  
698.500000	67.180704  
699.000000	65.100984  
699.500000	63.293015  
700.000000	61.582606  
700.500000	59.692242  
701.000000	57.798628  
701.500000	56.348219  
702.000000	54.989310  
702.500000	53.449363  
703.000000	51.933848  
703.500000	50.408393  
704.000000	49.047446  
704.500000	47.303212  
705.000000	45.836000  
705.500000	44.550348  
706.000000	43.492249  
706.500000	42.393515  
707.000000	41.267378  
707.500000	39.929553  
708.000000	38.784992  
708.500000	37.946613  
709.000000	36.988643  
709.500000	35.769022  
710.000000	34.717462  
710.500000	34.155446  
711.000000	33.554977  
711.500000	32.377340  
712.000000	31.839030  
712.500000	31.606515  
713.000000	31.115924  
713.500000	29.646174  
714.000000	28.444833  
714.500000	27.673530  
715.000000	27.468136  
715.500000	26.654431  
716.000000	26.015106  
716.500000	25.340386  
717.000000	24.823598  
717.500000	23.917022  
718.000000	22.981227  
718.500000	22.006265  
719.000000	21.434090  
719.500000	20.868416  
720.000000	20.507795  
720.500000	20.424431  
721.000000	20.288393  
721.500000	19.854325  
722.000000	19.309772  
722.500000	18.532848  
723.000000	17.843174  
723.500000	17.267431  
724.000000	17.077431  
724.500000	16.801825  
725.000000	16.634409  
725.500000	16.247643  
726.000000	16.049068  
726.500000	15.501325  
727.000000	14.793196  
727.500000	14.445598  
728.000000	14.533075  
728.500000	14.573219  
729.000000	14.306825  
729.500000	13.991651  
730.000000	13.809204  
730.500000	13.736939  
731.000000	13.306628  
731.500000	12.761454  
732.000000	12.412189  
732.500000	12.264037  
733.000000	11.970212  
733.500000	11.539689  
734.000000	11.378719  
734.500000	11.497060  
735.000000	11.394924  
735.500000	10.791325  
736.000000	10.430704  
736.500000	10.390545  
737.000000	10.567568  
737.500000	10.307234  
738.000000	9.933333   
738.500000	9.376977   
739.000000	9.230106   
739.500000	9.369818   
740.000000	9.709674   
740.500000	9.620045   
741.000000	9.246924   
741.500000	8.856401   
742.000000	8.627522   
742.500000	8.518856   
743.000000	8.265022   
743.500000	7.929871   
744.000000	7.467242   
744.500000	7.390250   
745.000000	7.636719   
745.500000	7.915924   
746.000000	7.762439   
746.500000	7.518492   
747.000000	7.343348   
747.500000	7.224454   
748.000000	7.043742   
748.500000	7.076378   
749.000000	7.250166   
749.500000	7.320083   
750.000000	6.948590   
750.500000	6.510931   
751.000000	6.181765   
751.500000	6.114962   
752.000000	6.217719   
752.500000	6.246363   
753.000000	6.019856   
753.500000	5.648340   
754.000000	5.516000   
754.500000	5.536333   
755.000000	5.439651   
755.500000	5.066931   
756.000000	4.915136   
756.500000	5.066530   
757.000000	5.354643   
757.500000	5.458575   
758.000000	5.326484   
758.500000	5.300462   
759.000000	5.500553   
759.500000	5.692424   
760.000000	5.495901   
760.500000	5.223583   
761.000000	5.171825   
761.500000	5.331303   
762.000000	5.307810   
762.500000	5.327545   
763.000000	5.279757   
763.500000	5.134818   
764.000000	4.767151   
764.500000	4.513818   
765.000000	4.482734   
765.500000	4.537840   
766.000000	4.614363   
766.500000	4.708666   
767.000000	4.675416   
767.500000	4.452439   
768.000000	4.445840   
768.500000	4.473772   
769.000000	4.407916   
769.500000	4.092325   
770.000000	3.832280   
770.500000	3.706333   
771.000000	3.644825   
771.500000	3.557893   
772.000000	3.601772   
772.500000	3.808863   
773.000000	4.080431   
773.500000	4.214022   
774.000000	4.043962   
774.500000	3.644083   
775.000000	3.335272   
775.500000	3.225219   
776.000000	3.264234   
776.500000	3.353636   
777.000000	3.499227   
777.500000	3.544909   
778.000000	3.490757   
778.500000	3.369446   
779.000000	3.296893   
779.500000	3.170121   
780.000000	3.179477   
780.500000	3.243287   
781.000000	3.416878   
781.500000	3.404454   
782.000000	3.383333   
782.500000	3.224643   
783.000000	3.129401   
783.500000	3.057181   
784.000000	3.200454   
784.500000	3.412795   
785.000000	3.483454   
785.500000	3.409462   
786.000000	3.241416   
786.500000	3.172977   
787.000000	3.141015   
787.500000	3.127742   
788.000000	3.026363   
788.500000	3.008045   
789.000000	2.952848   
789.500000	2.923674   
790.000000	2.751356   
790.500000	2.697295   
791.000000	2.745356   
791.500000	2.936765   
792.000000	2.979500   
792.500000	2.971795   
793.000000	2.896984   
793.500000	2.929590   
794.000000	2.889234   
794.500000	2.677681   
795.000000	2.462757   
795.500000	2.437636   
796.000000	2.575568   
796.500000	2.738401   
797.000000	2.741727   
797.500000	2.697522   
798.000000	2.619871   
798.500000	2.719590   
799.000000	2.805462   
799.500000	2.866924   
800.000000	2.761598   
800.500000	2.692446   
801.000000	2.560469   
801.500000	2.424189   
802.000000	2.356053   
802.500000	2.398560   
803.000000	2.358310   
803.500000	2.210356   
804.000000	2.205659   
804.500000	2.297409   
805.000000	2.289606   
805.500000	2.013969   
806.000000	1.763833   
806.500000	1.768681   
807.000000	2.004477   
807.500000	2.118666   
808.000000	2.123530   
808.500000	2.202151   
809.000000	2.296613   
809.500000	2.286090   
810.000000	2.073295   
810.500000	2.037962   
811.000000	2.046098   
811.500000	2.102916   
812.000000	1.960030   
812.500000	1.967734   
813.000000	1.833818   
813.500000	1.795037   
814.000000	1.813969   
814.500000	1.943871   
815.000000	1.931378   
815.500000	1.780651   
816.000000	1.682363   
816.500000	1.694393   
817.000000	1.686984   
817.500000	1.585386   
818.000000	1.636780   
818.500000	1.803583   
819.000000	1.971931   
819.500000	1.982416   
820.000000	2.033984   
820.500000	2.173712   
821.000000	2.363598   
821.500000	2.276242   
822.000000	2.126318   
822.500000	2.182886   
823.000000	2.443136   
823.500000	2.585340   
824.000000	2.505840   
824.500000	2.461212   
825.000000	2.430522   
825.500000	2.478712   
826.000000	2.485083   
826.500000	2.588916   
827.000000	2.479287   
827.500000	2.275068   
828.000000	2.074090   
828.500000	2.098742   
829.000000	2.038863   
829.500000	1.925439   
830.000000	1.633977   
830.500000	1.455265   
831.000000	1.346954   
831.500000	1.327287   
832.000000	1.232333   
832.500000	1.109628   
833.000000	1.007924   
833.500000	1.081628   
834.000000	1.140015   
834.500000	1.161121   
835.000000	1.055303   
835.500000	1.049613   
836.000000	1.090030   
836.500000	1.220666   
837.000000	1.176939   
837.500000	1.006037   
838.000000	0.775946   
838.500000	0.725924   
839.000000	0.768068   
839.500000	0.833598   
840.000000	0.799090   
840.500000	0.870916   
841.000000	0.945818   
841.500000	1.045643   
842.000000	0.889787   
842.500000	0.783204   
843.000000	0.620151   
843.500000	0.649037   
844.000000	0.638749   
844.500000	0.687409   
845.000000	0.648575   
845.500000	0.657196   
846.000000	0.593401   
846.500000	0.452734   
847.000000	0.234280   
847.500000	0.136075   
848.000000	0.234424   
848.500000	0.390969   
849.000000	0.392727   
849.500000	0.374628   
850.000000	0.305219   
850.500000	0.319257   
851.000000	0.296553   
851.500000	0.349280   
852.000000	0.250469   
852.500000	0.120765   
853.000000	0.093553   
853.500000	0.267984   
854.000000	0.422810   
854.500000	0.416954   
855.000000	0.369719   
855.500000	0.292227   
856.000000	0.237204   
856.500000	0.124000   
857.000000	0.106772   
857.500000	0.092280   
858.000000	0.095287   
858.500000	0.109371   
859.000000	0.171015   
859.500000	0.201287   
860.000000	0.213128   
860.500000	0.180696   
861.000000	0.177696   
861.500000	0.174090   
862.000000	0.232204   
862.500000	0.225022   
863.000000	0.167060   
863.500000	0.037340   
864.000000	0.026969   
864.500000	0.052242   
865.000000	0.072053   
865.500000	0.061681   
866.000000	0.055916   
866.500000	0.060727   
867.000000	-0.023424  
867.500000	-0.102393  
868.000000	-0.125833  
868.500000	-0.106628  
869.000000	-0.067287  
869.500000	-0.015462  
870.000000	0.082681   
870.500000	0.072984   
871.000000	0.020931   
871.500000	-0.085469  
872.000000	-0.110340  
872.500000	-0.136484  
873.000000	-0.105765  
873.500000	-0.064977  
874.000000	-0.062053  
874.500000	-0.070015  
875.000000	-0.016704  
875.500000	0.057310   
876.000000	0.044431   
876.500000	0.021772   
877.000000	0.046833   
877.500000	0.110840   
878.000000	0.109303   
878.500000	0.080037   
879.000000	0.000257   
879.500000	-0.068924  
880.000000	-0.125121  
880.500000	-0.089916  
881.000000	-0.020999  
881.500000	0.016537   
882.000000	0.079848   
882.500000	0.131916   
883.000000	0.190992   
883.500000	0.121174   
884.000000	0.014234   
884.500000	-0.131871  
885.000000	-0.098863  
885.500000	0.023265   
886.000000	0.137287   
886.500000	0.152318   
887.000000	0.153212   
887.500000	0.187060   
888.000000	0.150007   
888.500000	0.005045   
889.000000	-0.148113  
889.500000	-0.203424  
890.000000	-0.170696  
890.500000	-0.100227  
891.000000	0.019121   
891.500000	0.125174   
892.000000	0.146712   
892.500000	0.070575   
893.000000	-0.058393  
893.500000	-0.117007  
894.000000	-0.106250  
894.500000	-0.135651  
895.000000	-0.201015  
895.500000	-0.214568  
896.000000	-0.120643  
896.500000	-0.024901  
897.000000	-0.020507  
897.500000	-0.113446  

