PE FL                   SPECTRUM    ASCII       PEDS        1.60        
  -1
S20P.SP
24/04/05
12:54:05.00
24/04/05
12:55:28.00
Jan

900.500000
1









LS55
455.00
5.00
5.00
SCAN
1
20
100
100
0
400
0
1
0
1
5
ON
900 455 
1 0 0
#HDR
-1
-1
#GR
NM

0.00002384185791015625
0.0
460.000000
0.500000
882
8
141.212121
-0.489583
#DATA
460.000000	0.151000   
460.500000	-0.102833  
461.000000	-0.130462  
461.500000	-0.102053  
462.000000	-0.160606  
462.500000	-0.120462  
463.000000	0.090984   
463.500000	0.243462   
464.000000	0.037143   
464.500000	-0.301310  
465.000000	-0.489583  
465.500000	-0.396871  
466.000000	-0.201068  
466.500000	-0.064280  
467.000000	-0.038469  
467.500000	-0.119840  
468.000000	-0.140568  
468.500000	-0.169886  
469.000000	-0.215446  
469.500000	-0.253871  
470.000000	-0.207636  
470.500000	-0.107303  
471.000000	-0.039439  
471.500000	0.088704   
472.000000	0.179393   
472.500000	0.263500   
473.000000	0.181318   
473.500000	0.037318   
474.000000	-0.204590  
474.500000	-0.227318  
475.000000	-0.041037  
475.500000	0.279871   
476.000000	0.329727   
476.500000	0.215924   
477.000000	-0.080106  
477.500000	-0.261780  
478.000000	-0.244878  
478.500000	-0.007340  
479.000000	0.154696   
479.500000	0.104060   
480.000000	-0.000780  
480.500000	-0.073492  
481.000000	-0.092856  
481.500000	-0.142075  
482.000000	-0.203196  
482.500000	-0.329007  
483.000000	-0.399356  
483.500000	-0.298416  
484.000000	-0.069348  
484.500000	0.049022   
485.000000	0.049174   
485.500000	-0.030363  
486.000000	0.066310   
486.500000	0.063954   
487.000000	0.081833   
487.500000	-0.109363  
488.000000	-0.068840  
488.500000	-0.106007  
489.000000	-0.102106  
489.500000	-0.166848  
490.000000	-0.125098  
490.500000	-0.155636  
491.000000	-0.191022  
491.500000	-0.144818  
492.000000	-0.028992  
492.500000	-0.018772  
493.000000	-0.038962  
493.500000	0.013090   
494.000000	0.145469   
494.500000	0.080810   
495.000000	0.040749   
495.500000	-0.011477  
496.000000	0.054795   
496.500000	0.107128   
497.000000	0.209053   
497.500000	0.260856   
498.000000	0.343583   
498.500000	0.394962   
499.000000	0.440704   
499.500000	0.445363   
500.000000	0.510136   
500.500000	0.693689   
501.000000	0.835742   
501.500000	0.814916   
502.000000	0.656810   
502.500000	0.593977   
503.000000	0.611045   
503.500000	0.718765   
504.000000	0.696537   
504.500000	0.881575   
505.000000	1.069128   
505.500000	1.221242   
506.000000	1.072287   
506.500000	1.184045   
507.000000	1.571636   
507.500000	2.034833   
508.000000	2.062772   
508.500000	1.995212   
509.000000	2.107204   
509.500000	2.384734   
510.000000	2.514568   
510.500000	2.476287   
511.000000	2.391212   
511.500000	2.389553   
512.000000	2.443704   
512.500000	2.622681   
513.000000	2.801507   
513.500000	2.866893   
514.000000	2.849840   
514.500000	2.964500   
515.000000	3.139886   
515.500000	3.332272   
516.000000	3.425431   
516.500000	3.611727   
517.000000	3.578181   
517.500000	3.402727   
518.000000	3.033484   
518.500000	2.962636   
519.000000	3.005257   
519.500000	3.212666   
520.000000	3.290590   
520.500000	3.413606   
521.000000	3.478022   
521.500000	3.513053   
522.000000	3.452840   
522.500000	3.325909   
523.000000	3.341803   
523.500000	3.482613   
524.000000	3.697659   
524.500000	3.675931   
525.000000	3.508515   
525.500000	3.281393   
526.000000	3.360484   
526.500000	3.460386   
527.000000	3.495409   
527.500000	3.409749   
528.000000	3.327212   
528.500000	3.290030   
529.000000	3.223030   
529.500000	3.252250   
530.000000	3.407848   
530.500000	3.716840   
531.000000	3.920939   
531.500000	3.915280   
532.000000	3.684931   
532.500000	3.493234   
533.000000	3.474090   
533.500000	3.428780   
534.000000	3.293977   
534.500000	3.120530   
535.000000	3.199424   
535.500000	3.433992   
536.000000	3.536803   
536.500000	3.270037   
537.000000	2.989037   
537.500000	2.991621   
538.000000	3.170545   
538.500000	3.263068   
539.000000	3.377598   
539.500000	3.533121   
540.000000	3.646128   
540.500000	3.596606   
541.000000	3.666810   
541.500000	3.888181   
542.000000	4.030515   
542.500000	3.784409   
543.000000	3.582977   
543.500000	3.539181   
544.000000	3.881749   
544.500000	4.082212   
545.000000	4.055712   
545.500000	3.777871   
546.000000	3.823454   
546.500000	3.955946   
547.000000	4.076492   
547.500000	3.863590   
548.000000	3.669977   
548.500000	3.639303   
549.000000	3.719106   
549.500000	3.634242   
550.000000	3.537772   
550.500000	3.770401   
551.000000	4.289999   
551.500000	4.838704   
552.000000	4.851727   
552.500000	4.469848   
553.000000	4.061803   
553.500000	4.234742   
554.000000	4.495590   
554.500000	4.685090   
555.000000	4.574159   
555.500000	4.706757   
556.000000	4.866621   
556.500000	5.072469   
557.000000	4.961613   
557.500000	4.780265   
558.000000	4.523643   
558.500000	4.498651   
559.000000	4.578363   
559.500000	4.632431   
560.000000	4.719666   
560.500000	4.854181   
561.000000	4.892068   
561.500000	4.604424   
562.000000	4.372992   
562.500000	4.218886   
563.000000	4.206621   
563.500000	4.172553   
564.000000	4.244439   
564.500000	4.229325   
565.000000	4.242871   
565.500000	4.316098   
566.000000	4.414106   
566.500000	4.502696   
567.000000	4.549083   
567.500000	4.571886   
568.000000	4.377727   
568.500000	4.128795   
569.000000	4.084030   
569.500000	4.154553   
570.000000	4.059954   
570.500000	3.955143   
571.000000	4.183106   
571.500000	4.440893   
572.000000	4.443742   
572.500000	4.252522   
573.000000	4.239409   
573.500000	4.308439   
574.000000	4.329871   
574.500000	4.417568   
575.000000	4.677439   
575.500000	4.853606   
576.000000	4.843757   
576.500000	4.557628   
577.000000	4.286848   
577.500000	4.246530   
578.000000	4.535212   
578.500000	4.769310   
579.000000	4.784969   
579.500000	4.619590   
580.000000	4.532325   
580.500000	4.406840   
581.000000	4.391401   
581.500000	4.563196   
582.000000	4.945568   
582.500000	5.096272   
583.000000	4.971833   
583.500000	4.666484   
584.000000	4.435113   
584.500000	4.470621   
585.000000	4.621803   
585.500000	4.765893   
586.000000	4.695287   
586.500000	4.798136   
587.000000	5.037765   
587.500000	5.490999   
588.000000	5.684454   
588.500000	5.656121   
589.000000	5.461356   
589.500000	5.480128   
590.000000	5.672212   
590.500000	6.037939   
591.000000	6.117515   
591.500000	6.020477   
592.000000	5.789401   
592.500000	5.625287   
593.000000	5.636946   
593.500000	5.932568   
594.000000	6.362083   
594.500000	6.579121   
595.000000	6.591757   
595.500000	6.448030   
596.000000	6.386060   
596.500000	6.354666   
597.000000	6.327143   
597.500000	6.222810   
598.000000	6.053848   
598.500000	6.135651   
599.000000	6.461333   
599.500000	6.877439   
600.000000	6.952939   
600.500000	6.735712   
601.000000	6.461416   
601.500000	6.499378   
602.000000	7.006734   
602.500000	7.581242   
603.000000	7.818250   
603.500000	7.725151   
604.000000	7.787977   
604.500000	7.920454   
605.000000	8.121469   
605.500000	8.083878   
606.000000	8.087469   
606.500000	8.039098   
607.000000	8.222499   
607.500000	8.369356   
608.000000	8.708462   
608.500000	8.820242   
609.000000	8.912075   
609.500000	8.896803   
610.000000	8.978386   
610.500000	8.964416   
611.000000	8.935075   
611.500000	8.971833   
612.000000	9.069386   
612.500000	9.115113   
613.000000	9.093227   
613.500000	9.000234   
614.000000	8.850431   
614.500000	8.295803   
615.000000	7.745007   
615.500000	7.385113   
616.000000	7.538916   
616.500000	7.669719   
617.000000	7.770196   
617.500000	7.728833   
618.000000	7.814780   
618.500000	7.884219   
619.000000	8.056795   
619.500000	8.394909   
620.000000	8.743962   
620.500000	8.784280   
621.000000	8.604712   
621.500000	8.661257   
622.000000	9.136075   
622.500000	9.733356   
623.000000	10.147022  
623.500000	10.360007  
624.000000	10.381083  
624.500000	10.355174  
625.000000	10.449340  
625.500000	10.729348  
626.000000	10.991068  
626.500000	11.337901  
627.000000	11.630053  
627.500000	11.858060  
628.000000	11.790515  
628.500000	12.324083  
629.000000	13.039916  
629.500000	13.672113  
630.000000	13.460568  
630.500000	13.763810  
631.000000	14.256484  
631.500000	14.920962  
632.000000	15.093333  
632.500000	15.394856  
633.000000	15.650568  
633.500000	15.862712  
634.000000	16.187651  
634.500000	16.857166  
635.000000	17.628340  
635.500000	18.141681  
636.000000	18.449015  
636.500000	18.804287  
637.000000	19.344818  
637.500000	20.151386  
638.000000	20.743765  
638.500000	21.078143  
639.000000	21.256704  
639.500000	21.780484  
640.000000	22.653568  
640.500000	23.619727  
641.000000	24.524287  
641.500000	25.177621  
642.000000	25.639553  
642.500000	26.031363  
643.000000	26.708522  
643.500000	27.756257  
644.000000	28.586659  
644.500000	29.291037  
645.000000	29.960113  
645.500000	31.025015  
646.000000	32.096946  
646.500000	33.042409  
647.000000	33.839166  
647.500000	34.926318  
648.000000	36.327348  
648.500000	37.659901  
649.000000	38.763424  
649.500000	39.422863  
650.000000	40.373795  
650.500000	41.754810  
651.000000	42.991659  
651.500000	43.767022  
652.000000	44.219371  
652.500000	45.304530  
653.000000	46.687136  
653.500000	48.001818  
654.000000	49.087712  
654.500000	50.810931  
655.000000	52.557128  
655.500000	54.331196  
656.000000	55.789257  
656.500000	57.796318  
657.000000	59.645242  
657.500000	61.016833  
658.000000	61.749030  
658.500000	62.728295  
659.000000	63.794189  
659.500000	64.693681  
660.000000	65.828765  
660.500000	67.308083  
661.000000	68.720939  
661.500000	69.842083  
662.000000	71.732689  
662.500000	74.313121  
663.000000	76.556946  
663.500000	77.971340  
664.000000	79.158621  
664.500000	81.114613  
665.000000	83.053310  
665.500000	84.693106  
666.000000	86.150765  
666.500000	87.774537  
667.000000	89.642083  
667.500000	91.843075  
668.000000	93.818477  
668.500000	95.563030  
669.000000	96.878545  
669.500000	97.720575  
670.000000	98.286689  
670.500000	99.342810  
671.000000	100.531234 
671.500000	101.795984 
672.000000	103.425030 
672.500000	105.701401 
673.000000	108.204909 
673.500000	110.021772 
674.000000	111.948863 
674.500000	113.063303 
675.000000	113.916893 
675.500000	114.118674 
676.000000	116.103393 
676.500000	117.810303 
677.000000	118.891810 
677.500000	119.257250 
678.000000	121.110659 
678.500000	123.346924 
679.000000	125.576893 
679.500000	127.422598 
680.000000	129.184356 
680.500000	130.205083 
681.000000	130.836901 
681.500000	131.604166 
682.000000	132.913909 
682.500000	133.722969 
683.000000	134.474704 
683.500000	135.021409 
684.000000	136.754628 
684.500000	137.862507 
685.000000	138.575530 
685.500000	137.210015 
686.000000	136.840106 
686.500000	137.550378 
687.000000	140.088363 
687.500000	141.143780 
688.000000	141.212121 
688.500000	140.044840 
689.000000	139.336204 
689.500000	139.003469 
690.000000	138.595348 
690.500000	137.243053 
691.000000	135.175583 
691.500000	133.484310 
692.000000	133.831909 
692.500000	134.750272 
693.000000	135.001954 
693.500000	133.733348 
694.000000	132.054984 
694.500000	129.781401 
695.000000	128.085401 
695.500000	126.553727 
696.000000	124.592022 
696.500000	121.889424 
697.000000	118.612439 
697.500000	116.449598 
698.000000	114.481318 
698.500000	112.841984 
699.000000	110.268083 
699.500000	108.083969 
700.000000	105.847674 
700.500000	104.992477 
701.000000	103.573393 
701.500000	101.310606 
702.000000	98.425803  
702.500000	95.994962  
703.000000	93.739522  
703.500000	91.710780  
704.000000	90.203878  
704.500000	88.812295  
705.000000	86.364037  
705.500000	82.903068  
706.000000	80.056098  
706.500000	78.629537  
707.000000	78.148757  
707.500000	77.290106  
708.000000	75.278666  
708.500000	72.001765  
709.000000	68.915204  
709.500000	66.466871  
710.000000	64.684401  
710.500000	63.059765  
711.000000	61.792022  
711.500000	60.664719  
712.000000	59.213893  
712.500000	57.427151  
713.000000	55.752439  
713.500000	54.723833  
714.000000	54.261893  
714.500000	53.291696  
715.000000	51.454719  
715.500000	49.055151  
716.000000	47.257431  
716.500000	45.619492  
717.000000	43.804174  
717.500000	41.938015  
718.000000	41.030265  
718.500000	40.647560  
719.000000	40.063992  
719.500000	39.173454  
720.000000	38.034060  
720.500000	36.827765  
721.000000	35.453287  
721.500000	34.195060  
722.000000	33.515575  
722.500000	33.074628  
723.000000	32.484250  
723.500000	31.255053  
724.000000	29.687621  
724.500000	28.253992  
725.000000	27.848727  
725.500000	27.806075  
726.000000	27.687969  
726.500000	26.554598  
727.000000	25.187719  
727.500000	24.501477  
728.000000	24.612893  
728.500000	24.798613  
729.000000	24.252212  
729.500000	23.214856  
730.000000	22.141810  
730.500000	21.580674  
731.000000	21.217962  
731.500000	21.007962  
732.000000	20.477886  
732.500000	19.672340  
733.000000	18.904787  
733.500000	18.608136  
734.000000	18.641143  
734.500000	18.296128  
735.000000	17.507477  
735.500000	16.917053  
736.000000	16.717818  
736.500000	16.604189  
737.000000	16.240931  
737.500000	15.820636  
738.000000	15.325250  
738.500000	14.886151  
739.000000	14.574219  
739.500000	14.359613  
740.000000	13.879500  
740.500000	13.290507  
741.000000	12.824477  
741.500000	12.852613  
742.000000	12.799462  
742.500000	12.687257  
743.000000	12.368946  
743.500000	12.226128  
744.000000	12.142689  
744.500000	12.071772  
745.000000	11.738931  
745.500000	11.409204  
746.000000	11.163393  
746.500000	10.706492  
747.000000	10.214742  
747.500000	9.809431   
748.000000	9.848583   
748.500000	9.955628   
749.000000	10.105416  
749.500000	9.927689   
750.000000	9.732613   
750.500000	9.436151   
751.000000	9.336659   
751.500000	9.194166   
752.000000	8.902931   
752.500000	8.506848   
753.000000	8.208037   
753.500000	8.061727   
754.000000	7.825356   
754.500000	7.747446   
755.000000	7.580893   
755.500000	7.642712   
756.000000	7.595333   
756.500000	7.523666   
757.000000	7.181984   
757.500000	6.926257   
758.000000	6.957924   
758.500000	7.111931   
759.000000	7.011628   
759.500000	6.629000   
760.000000	6.371446   
760.500000	6.467931   
761.000000	6.768909   
761.500000	6.897712   
762.000000	6.795871   
762.500000	6.706196   
763.000000	6.540045   
763.500000	6.268757   
764.000000	5.978924   
764.500000	5.957265   
765.000000	6.209174   
765.500000	6.359886   
766.000000	6.283613   
766.500000	6.010515   
767.000000	5.673386   
767.500000	5.459916   
768.000000	5.524840   
768.500000	5.712545   
769.000000	5.742363   
769.500000	5.661310   
770.000000	5.495803   
770.500000	5.489893   
771.000000	5.341068   
771.500000	5.161250   
772.000000	4.938439   
772.500000	4.835409   
773.000000	4.700636   
773.500000	4.470469   
774.000000	4.340871   
774.500000	4.316060   
775.000000	4.396242   
775.500000	4.341750   
776.000000	4.382689   
776.500000	4.404386   
777.000000	4.290856   
777.500000	4.034371   
778.000000	3.940598   
778.500000	4.070106   
779.000000	4.175121   
779.500000	4.077893   
780.000000	3.993151   
780.500000	3.977439   
781.000000	3.947393   
781.500000	3.744083   
782.000000	3.531643   
782.500000	3.566121   
783.000000	3.770272   
783.500000	4.004810   
784.000000	3.884083   
784.500000	3.644053   
785.000000	3.363818   
785.500000	3.261113   
786.000000	3.067424   
786.500000	3.137196   
787.000000	3.327242   
787.500000	3.492621   
788.000000	3.332833   
788.500000	3.065704   
789.000000	2.856015   
789.500000	2.810628   
790.000000	2.852636   
790.500000	3.008992   
791.000000	3.168227   
791.500000	3.127265   
792.000000	3.023765   
792.500000	3.042553   
793.000000	3.147227   
793.500000	3.247371   
794.000000	3.215818   
794.500000	3.058333   
795.000000	2.871159   
795.500000	2.793507   
796.000000	2.780037   
796.500000	2.738545   
797.000000	2.647977   
797.500000	2.651204   
798.000000	2.680098   
798.500000	2.675992   
799.000000	2.639696   
799.500000	2.822969   
800.000000	2.945409   
800.500000	2.942780   
801.000000	2.719545   
801.500000	2.594507   
802.000000	2.537151   
802.500000	2.614356   
803.000000	2.700060   
803.500000	2.710340   
804.000000	2.560151   
804.500000	2.445765   
805.000000	2.445825   
805.500000	2.505568   
806.000000	2.487674   
806.500000	2.422234   
807.000000	2.430681   
807.500000	2.483651   
808.000000	2.597007   
808.500000	2.764992   
809.000000	2.861022   
809.500000	2.678037   
810.000000	2.431871   
810.500000	2.295090   
811.000000	2.422522   
811.500000	2.601659   
812.000000	2.676704   
812.500000	2.580196   
813.000000	2.390537   
813.500000	2.327401   
814.000000	2.343515   
814.500000	2.376371   
815.000000	2.245348   
815.500000	2.115734   
816.000000	1.994939   
816.500000	2.089386   
817.000000	2.335348   
817.500000	2.596250   
818.000000	2.493515   
818.500000	2.237121   
819.000000	2.143272   
819.500000	2.373765   
820.000000	2.457515   
820.500000	2.474151   
821.000000	2.503939   
821.500000	2.780492   
822.000000	2.821848   
822.500000	2.746310   
823.000000	2.671871   
823.500000	2.749742   
824.000000	2.756901   
824.500000	2.864893   
825.000000	3.083053   
825.500000	3.208651   
826.000000	3.009166   
826.500000	2.784522   
827.000000	2.707371   
827.500000	2.678886   
828.000000	2.554386   
828.500000	2.341704   
829.000000	2.220750   
829.500000	2.192628   
830.000000	2.344318   
830.500000	2.415583   
831.000000	2.301037   
831.500000	1.987242   
832.000000	1.878416   
832.500000	1.869401   
833.000000	1.969075   
833.500000	1.895280   
834.000000	1.725083   
834.500000	1.453954   
835.000000	1.346234   
835.500000	1.354515   
836.000000	1.389628   
836.500000	1.211954   
837.000000	1.006303   
837.500000	0.923310   
838.000000	0.942598   
838.500000	0.988015   
839.000000	0.951984   
839.500000	0.876409   
840.000000	0.779189   
840.500000	0.772666   
841.000000	0.860893   
841.500000	1.019780   
842.000000	1.055174   
842.500000	0.965848   
843.000000	0.761651   
843.500000	0.658181   
844.000000	0.728272   
844.500000	0.876833   
845.000000	0.925765   
845.500000	0.852848   
846.000000	0.782143   
846.500000	0.771659   
847.000000	0.822340   
847.500000	0.795613   
848.000000	0.653143   
848.500000	0.473159   
849.000000	0.462265   
849.500000	0.474424   
850.000000	0.424136   
850.500000	0.294590   
851.000000	0.253825   
851.500000	0.237143   
852.000000	0.158386   
852.500000	0.100393   
853.000000	0.083189   
853.500000	0.143977   
854.000000	0.174500   
854.500000	0.344340   
855.000000	0.485295   
855.500000	0.594121   
856.000000	0.471848   
856.500000	0.277068   
857.000000	0.126053   
857.500000	0.076939   
858.000000	0.036545   
858.500000	-0.051439  
859.000000	-0.099356  
859.500000	-0.092090  
860.000000	-0.004568  
860.500000	0.032613   
861.000000	0.011606   
861.500000	-0.100037  
862.000000	-0.129280  
862.500000	-0.063750  
863.000000	0.060045   
863.500000	0.068303   
864.000000	0.052727   
864.500000	0.042651   
865.000000	0.043409   
865.500000	-0.041393  
866.000000	-0.112083  
866.500000	-0.238416  
867.000000	-0.266431  
867.500000	-0.234272  
868.000000	-0.085113  
868.500000	0.002159   
869.000000	0.037916   
869.500000	-0.007280  
870.000000	-0.018666  
870.500000	-0.023878  
871.000000	-0.036681  
871.500000	-0.033045  
872.000000	-0.081386  
872.500000	-0.043424  
873.000000	-0.019310  
873.500000	-0.001409  
874.000000	-0.028075  
874.500000	-0.014325  
875.000000	-0.089568  
875.500000	-0.181704  
876.000000	-0.215931  
876.500000	-0.225787  
877.000000	-0.272553  
877.500000	-0.302303  
878.000000	-0.093378  
878.500000	0.137734   
879.000000	0.250931   
879.500000	0.138371   
880.000000	0.062242   
880.500000	0.073863   
881.000000	0.145098   
881.500000	0.156939   
882.000000	0.027704   
882.500000	-0.029219  
883.000000	0.013916   
883.500000	0.125613   
884.000000	0.119636   
884.500000	0.000583   
885.000000	-0.123780  
885.500000	-0.178712  
886.000000	-0.141704  
886.500000	-0.133575  
887.000000	-0.100856  
887.500000	-0.062962  
888.000000	0.069022   
888.500000	0.141757   
889.000000	0.113454   
889.500000	0.044265   
890.000000	0.013962   
890.500000	-0.000916  
891.000000	-0.032628  
891.500000	-0.118159  
892.000000	-0.135295  
892.500000	-0.134106  
893.000000	-0.124666  
893.500000	-0.177378  
894.000000	-0.232666  
894.500000	-0.220492  
895.000000	-0.153704  
895.500000	-0.032984  
896.000000	0.035227   
896.500000	0.078212   
897.000000	0.036212   
897.500000	0.004681   
898.000000	-0.071068  
898.500000	-0.012696  
899.000000	0.122833   
899.500000	0.198378   
900.000000	-0.002787  
900.500000	-0.482999  

