PE FL                   SPECTRUM    ASCII       PEDS        1.60        
  -1
S04P.SP
24/04/05
11:58:59.00
24/04/05
12:00:22.00
Jan

900.500000
1









LS55
455.00
5.00
5.00
SCAN
1
20
100
100
0
400
0
1
0
1
5
ON
900 455 
1 0 0
#HDR
-1
-1
#GR
NM

0.00002384185791015625
0.0
460.000000
0.500000
882
8
257.648242
-0.333000
#DATA
460.000000	0.031000   
460.500000	-0.066000  
461.000000	0.035810   
461.500000	0.244318   
462.000000	0.343643   
462.500000	0.275371   
463.000000	0.214022   
463.500000	0.304984   
464.000000	0.253378   
464.500000	0.053143   
465.000000	-0.089787  
465.500000	0.062075   
466.000000	0.231053   
466.500000	0.232151   
467.000000	0.085749   
467.500000	0.024204   
468.000000	0.053537   
468.500000	-0.005681  
469.000000	-0.092159  
469.500000	-0.092560  
470.000000	0.071825   
470.500000	0.068053   
471.000000	-0.103257  
471.500000	-0.207878  
472.000000	0.011712   
472.500000	0.257045   
473.000000	0.277174   
473.500000	0.072022   
474.000000	0.026795   
474.500000	0.192818   
475.000000	0.322545   
475.500000	0.270833   
476.000000	0.118575   
476.500000	0.131227   
477.000000	0.188946   
477.500000	0.255007   
478.000000	0.183621   
478.500000	0.245007   
479.000000	0.305454   
479.500000	0.324098   
480.000000	0.179090   
480.500000	0.038507   
481.000000	-0.030393  
481.500000	-0.046606  
482.000000	0.031181   
482.500000	0.043484   
483.000000	0.089946   
483.500000	0.005772   
484.000000	0.065734   
484.500000	0.074007   
485.000000	0.145939   
485.500000	0.029590   
486.000000	-0.102500  
486.500000	-0.193666  
487.000000	-0.046568  
487.500000	0.175378   
488.000000	0.300643   
488.500000	0.360189   
489.000000	0.349575   
489.500000	0.344537   
490.000000	0.255484   
490.500000	0.175181   
491.000000	0.032204   
491.500000	-0.042333  
492.000000	-0.052416  
492.500000	0.007886   
493.000000	-0.023621  
493.500000	-0.047878  
494.000000	0.016719   
494.500000	0.246704   
495.000000	0.395803   
495.500000	0.401742   
496.000000	0.344469   
496.500000	0.365340   
497.000000	0.381856   
497.500000	0.313916   
498.000000	0.257734   
498.500000	0.343053   
499.000000	0.413704   
499.500000	0.378090   
500.000000	0.391280   
500.500000	0.583318   
501.000000	0.683045   
501.500000	0.616750   
502.000000	0.448310   
502.500000	0.526090   
503.000000	0.689045   
503.500000	0.779924   
504.000000	0.752363   
504.500000	0.698590   
505.000000	0.634606   
505.500000	0.567477   
506.000000	0.687666   
506.500000	0.925189   
507.000000	1.069166   
507.500000	0.932469   
508.000000	0.752098   
508.500000	0.755833   
509.000000	0.840492   
509.500000	0.917053   
510.000000	0.884969   
510.500000	0.876643   
511.000000	0.826931   
511.500000	0.800431   
512.000000	0.821371   
512.500000	0.881227   
513.000000	1.052037   
513.500000	1.120507   
514.000000	1.220204   
514.500000	1.106924   
515.000000	1.209340   
515.500000	1.327818   
516.000000	1.560378   
516.500000	1.486242   
517.000000	1.414363   
517.500000	1.473166   
518.000000	1.802469   
518.500000	2.034250   
519.000000	1.968401   
519.500000	1.713856   
520.000000	1.565750   
520.500000	1.788356   
521.000000	2.072810   
521.500000	2.101848   
522.000000	1.874833   
522.500000	1.775333   
523.000000	1.790363   
523.500000	1.859015   
524.000000	1.840000   
524.500000	1.906962   
525.000000	2.016871   
525.500000	2.140098   
526.000000	2.183242   
526.500000	2.241234   
527.000000	2.350310   
527.500000	2.483560   
528.000000	2.515234   
528.500000	2.423939   
529.000000	2.390681   
529.500000	2.418909   
530.000000	2.454128   
530.500000	2.443462   
531.000000	2.536287   
531.500000	2.550765   
532.000000	2.509803   
532.500000	2.398863   
533.000000	2.363030   
533.500000	2.343159   
534.000000	2.419280   
534.500000	2.460181   
535.000000	2.511772   
535.500000	2.501803   
536.000000	2.539454   
536.500000	2.692628   
537.000000	2.871901   
537.500000	2.959212   
538.000000	2.931628   
538.500000	2.948606   
539.000000	3.026386   
539.500000	3.086015   
540.000000	3.117325   
540.500000	3.315416   
541.000000	3.637250   
541.500000	3.907704   
542.000000	4.068280   
542.500000	4.192727   
543.000000	4.354681   
543.500000	4.669363   
544.000000	5.146962   
544.500000	5.460931   
545.000000	5.463386   
545.500000	5.433439   
546.000000	5.730212   
546.500000	6.027598   
547.000000	6.094719   
547.500000	5.902287   
548.000000	6.062234   
548.500000	6.283037   
549.000000	6.600098   
549.500000	6.780507   
550.000000	7.267696   
550.500000	7.766727   
551.000000	8.256484   
551.500000	8.375106   
552.000000	8.423393   
552.500000	8.483128   
553.000000	8.684553   
553.500000	8.737409   
554.000000	8.727613   
554.500000	8.945765   
555.000000	9.449772   
555.500000	9.760689   
556.000000	9.926583   
556.500000	9.898204   
557.000000	10.211863  
557.500000	10.431575  
558.000000	10.651068  
558.500000	10.536628  
559.000000	10.498022  
559.500000	10.267696  
560.000000	10.372613  
560.500000	10.275265  
561.000000	10.159765  
561.500000	9.948840   
562.000000	10.147946  
562.500000	10.411613  
563.000000	10.652803  
563.500000	10.539507  
564.000000	10.478136  
564.500000	10.718553  
565.000000	11.079090  
565.500000	11.334803  
566.000000	11.358924  
566.500000	11.473939  
567.000000	11.821250  
567.500000	12.166886  
568.000000	12.082568  
568.500000	11.861295  
569.000000	11.950492  
569.500000	12.374636  
570.000000	12.871204  
570.500000	13.128348  
571.000000	13.325537  
571.500000	13.560954  
572.000000	13.686204  
572.500000	14.021356  
573.000000	14.162136  
573.500000	14.161696  
574.000000	13.926416  
574.500000	14.385719  
575.000000	14.999696  
575.500000	15.704492  
576.000000	16.113810  
576.500000	16.821704  
577.000000	17.474590  
577.500000	17.806863  
578.000000	17.619962  
578.500000	17.751522  
579.000000	17.856166  
579.500000	18.199772  
580.000000	18.302265  
580.500000	18.622757  
581.000000	18.806068  
581.500000	19.440030  
582.000000	19.989371  
582.500000	20.372833  
583.000000	20.790992  
583.500000	21.218257  
584.000000	21.750287  
584.500000	21.900136  
585.000000	22.022295  
585.500000	22.106750  
586.000000	22.006234  
586.500000	22.169022  
587.000000	22.994416  
587.500000	24.344272  
588.000000	24.994840  
588.500000	25.222848  
589.000000	25.133939  
589.500000	25.182287  
590.000000	25.220553  
590.500000	25.737863  
591.000000	26.713083  
591.500000	27.519598  
592.000000	27.765969  
592.500000	27.654742  
593.000000	28.051325  
593.500000	28.832356  
594.000000	29.744143  
594.500000	30.456886  
595.000000	31.207431  
595.500000	31.915568  
596.000000	32.183318  
596.500000	32.498583  
597.000000	32.817666  
597.500000	33.338401  
598.000000	33.651780  
598.500000	34.280757  
599.000000	34.986272  
599.500000	35.541136  
600.000000	35.996393  
600.500000	36.258242  
601.000000	36.532696  
601.500000	36.723265  
602.000000	37.528121  
602.500000	37.943477  
603.000000	38.327689  
603.500000	38.744636  
604.000000	40.186219  
604.500000	41.391522  
605.000000	42.236469  
605.500000	42.557227  
606.000000	43.054462  
606.500000	43.070265  
607.000000	43.262037  
607.500000	43.378189  
608.000000	43.754128  
608.500000	43.835522  
609.000000	44.116477  
609.500000	44.341840  
610.000000	44.940704  
610.500000	45.431007  
611.000000	45.743356  
611.500000	45.530015  
612.000000	45.022757  
612.500000	44.529446  
613.000000	43.764477  
613.500000	43.608689  
614.000000	44.507250  
614.500000	46.213136  
615.000000	46.919250  
615.500000	46.680719  
616.000000	46.043250  
616.500000	46.635424  
617.000000	47.848931  
617.500000	49.574068  
618.000000	50.696946  
618.500000	51.080022  
619.000000	50.738575  
619.500000	50.626477  
620.000000	51.279901  
620.500000	52.582878  
621.000000	53.777727  
621.500000	54.319136  
622.000000	55.354924  
622.500000	56.742416  
623.000000	58.109969  
623.500000	58.881984  
624.000000	60.066553  
624.500000	60.522446  
625.000000	61.298318  
625.500000	61.869666  
626.000000	63.784393  
626.500000	65.132106  
627.000000	66.803939  
627.500000	68.630492  
628.000000	71.308234  
628.500000	72.564128  
629.000000	72.530189  
629.500000	72.459265  
630.000000	73.446636  
630.500000	75.424507  
631.000000	77.739621  
631.500000	80.372181  
632.000000	82.853886  
632.500000	83.976666  
633.000000	84.468030  
633.500000	85.299840  
634.000000	87.838583  
634.500000	90.640984  
635.000000	93.670886  
635.500000	95.663840  
636.000000	96.973689  
636.500000	97.665984  
637.000000	99.670083  
637.500000	102.797409 
638.000000	105.416909 
638.500000	107.121856 
639.000000	108.557727 
639.500000	110.922280 
640.000000	113.682704 
640.500000	116.621825 
641.000000	119.554977 
641.500000	122.290356 
642.000000	124.358962 
642.500000	126.268568 
643.000000	128.535242 
643.500000	130.917303 
644.000000	133.723401 
644.500000	136.140219 
645.000000	138.898613 
645.500000	142.002204 
646.000000	145.799946 
646.500000	149.288628 
647.000000	152.454621 
647.500000	154.465492 
648.000000	156.404530 
648.500000	158.148310 
649.000000	160.983969 
649.500000	164.847719 
650.000000	169.311545 
650.500000	172.291878 
651.000000	174.735242 
651.500000	177.037484 
652.000000	180.861151 
652.500000	184.709583 
653.000000	188.086196 
653.500000	190.825553 
654.000000	194.270477 
654.500000	197.703068 
655.000000	200.545946 
655.500000	202.974128 
656.000000	206.459386 
656.500000	210.572037 
657.000000	214.357143 
657.500000	217.572030 
658.000000	220.912757 
658.500000	225.280674 
659.000000	228.347560 
659.500000	229.931219 
660.000000	229.794681 
660.500000	230.631840 
661.000000	232.349446 
661.500000	235.832909 
662.000000	239.644924 
662.500000	243.022757 
663.000000	245.976136 
663.500000	247.465181 
664.000000	247.795469 
664.500000	247.850037 
665.000000	249.555575 
665.500000	252.242507 
666.000000	253.954545 
666.500000	254.376621 
667.000000	254.969659 
667.500000	256.394984 
668.000000	256.916242 
668.500000	256.733098 
669.000000	256.781424 
669.500000	257.072659 
670.000000	257.648242 
670.500000	256.678439 
671.000000	255.454969 
671.500000	254.687083 
672.000000	254.958287 
672.500000	253.641787 
673.000000	251.583553 
673.500000	249.041166 
674.000000	247.825181 
674.500000	246.693628 
675.000000	245.973628 
675.500000	244.965219 
676.000000	243.945431 
676.500000	241.859575 
677.000000	239.949454 
677.500000	237.457007 
678.000000	234.497734 
678.500000	230.462477 
679.000000	227.146363 
679.500000	224.299166 
680.000000	223.239090 
680.500000	220.905545 
681.000000	217.708704 
681.500000	213.751166 
682.000000	210.281189 
682.500000	206.624045 
683.000000	203.237068 
683.500000	199.788431 
684.000000	196.113196 
684.500000	191.309795 
685.000000	186.328250 
685.500000	182.929401 
686.000000	181.304363 
686.500000	178.585992 
687.000000	174.533363 
687.500000	169.654068 
688.000000	166.691439 
688.500000	164.146113 
689.000000	160.849628 
689.500000	155.384962 
690.000000	151.002340 
690.500000	147.527393 
691.000000	144.989424 
691.500000	141.128234 
692.000000	137.877325 
692.500000	133.971068 
693.000000	130.647954 
693.500000	126.614886 
694.000000	122.855969 
694.500000	118.736500 
695.000000	115.000727 
695.500000	112.106590 
696.000000	109.738848 
696.500000	106.988204 
697.000000	103.597386 
697.500000	100.503909 
698.000000	97.998863  
698.500000	95.132431  
699.000000	92.120265  
699.500000	89.030522  
700.000000	86.752015  
700.500000	84.906045  
701.000000	83.139477  
701.500000	80.838522  
702.000000	77.810909  
702.500000	75.000030  
703.000000	72.199772  
703.500000	70.404492  
704.000000	68.515856  
704.500000	66.902113  
705.000000	64.690946  
705.500000	62.451234  
706.000000	60.279856  
706.500000	59.083522  
707.000000	58.493613  
707.500000	57.786348  
708.000000	56.116666  
708.500000	53.582575  
709.000000	51.436871  
709.500000	50.462727  
710.000000	49.664598  
710.500000	48.389553  
711.000000	46.934166  
711.500000	45.715030  
712.000000	43.974689  
712.500000	42.294174  
713.000000	41.206856  
713.500000	41.234666  
714.000000	40.894992  
714.500000	40.034371  
715.000000	38.439348  
715.500000	36.940742  
716.000000	35.452189  
716.500000	34.577507  
717.000000	33.771946  
717.500000	33.353446  
718.000000	33.026106  
718.500000	32.368166  
719.000000	31.207840  
719.500000	30.092356  
720.000000	29.498893  
720.500000	29.213545  
721.000000	28.694848  
721.500000	27.899356  
722.000000	27.347174  
722.500000	27.153363  
723.000000	26.790984  
723.500000	25.997053  
724.000000	25.071174  
724.500000	24.587765  
725.000000	24.226757  
725.500000	23.510484  
726.000000	22.832000  
726.500000	22.389113  
727.000000	21.788068  
727.500000	20.803916  
728.000000	20.161128  
728.500000	20.073234  
729.000000	20.057606  
729.500000	19.688401  
730.000000	19.068939  
730.500000	18.616310  
731.000000	18.393962  
731.500000	18.290242  
732.000000	18.185015  
732.500000	17.687666  
733.000000	17.052871  
733.500000	16.706871  
734.000000	16.919992  
734.500000	16.946280  
735.000000	16.475090  
735.500000	15.513924  
736.000000	14.921189  
736.500000	14.669772  
737.000000	14.445075  
737.500000	14.242553  
738.000000	14.318621  
738.500000	14.516712  
739.000000	14.346984  
739.500000	13.702098  
740.000000	13.209242  
740.500000	13.007409  
741.000000	12.783939  
741.500000	12.279575  
742.000000	11.978666  
742.500000	12.213075  
743.000000	12.719901  
743.500000	12.954424  
744.000000	12.901492  
744.500000	12.698939  
745.000000	12.395166  
745.500000	11.780280  
746.000000	11.186886  
746.500000	10.934015  
747.000000	10.965613  
747.500000	10.793969  
748.000000	10.481439  
748.500000	10.334000  
749.000000	10.351015  
749.500000	10.506643  
750.000000	10.485098  
750.500000	10.375954  
751.000000	10.122393  
751.500000	9.887522   
752.000000	9.730015   
752.500000	9.664189   
753.000000	9.595083   
753.500000	9.324015   
754.000000	8.911780   
754.500000	8.685727   
755.000000	8.771181   
755.500000	9.025931   
756.000000	9.028757   
756.500000	8.948234   
757.000000	8.836015   
757.500000	8.886522   
758.000000	8.641469   
758.500000	8.420530   
759.000000	8.126060   
759.500000	8.207643   
760.000000	8.329499   
760.500000	8.402750   
761.000000	8.139537   
761.500000	7.939469   
762.000000	7.749613   
762.500000	7.520954   
763.000000	7.217310   
763.500000	7.156712   
764.000000	7.375590   
764.500000	7.449136   
765.000000	7.242628   
765.500000	6.980780   
766.000000	6.961234   
766.500000	6.906401   
767.000000	6.705310   
767.500000	6.532545   
768.000000	6.491280   
768.500000	6.526424   
769.000000	6.440128   
769.500000	6.267878   
770.000000	6.026219   
770.500000	6.093424   
771.000000	6.232696   
771.500000	6.340787   
772.000000	6.015659   
772.500000	5.691454   
773.000000	5.635212   
773.500000	5.889007   
774.000000	5.893242   
774.500000	5.676250   
775.000000	5.427310   
775.500000	5.420431   
776.000000	5.394363   
776.500000	5.151856   
777.000000	4.815015   
777.500000	4.815583   
778.000000	5.093969   
778.500000	5.336757   
779.000000	5.226734   
779.500000	4.991962   
780.000000	4.820151   
780.500000	4.889136   
781.000000	5.003113   
781.500000	5.067462   
782.000000	4.996371   
782.500000	4.824060   
783.000000	4.752522   
783.500000	4.683924   
784.000000	4.622068   
784.500000	4.574977   
785.000000	4.648121   
785.500000	4.536348   
786.000000	4.362984   
786.500000	4.332924   
787.000000	4.321727   
787.500000	4.262863   
788.000000	4.172590   
788.500000	4.195113   
789.000000	4.241719   
789.500000	4.220871   
790.000000	4.250280   
790.500000	4.396636   
791.000000	4.454265   
791.500000	4.226068   
792.000000	4.009719   
792.500000	3.895856   
793.000000	4.012984   
793.500000	4.127833   
794.000000	3.972068   
794.500000	3.799053   
795.000000	3.759000   
795.500000	3.806424   
796.000000	3.700189   
796.500000	3.612136   
797.000000	3.538431   
797.500000	3.507916   
798.000000	3.500818   
798.500000	3.566015   
799.000000	3.731401   
799.500000	3.599378   
800.000000	3.497636   
800.500000	3.569643   
801.000000	3.868378   
801.500000	3.849742   
802.000000	3.536818   
802.500000	3.166924   
803.000000	3.092143   
803.500000	3.197659   
804.000000	3.102954   
804.500000	3.057886   
805.000000	3.093643   
805.500000	3.295992   
806.000000	3.261022   
806.500000	3.091181   
807.000000	2.876068   
807.500000	2.895515   
808.000000	3.004401   
808.500000	3.104803   
809.000000	3.158272   
809.500000	3.088674   
810.000000	3.150765   
810.500000	3.209492   
811.000000	3.207901   
811.500000	3.009553   
812.000000	2.841075   
812.500000	2.767537   
813.000000	2.773954   
813.500000	2.740083   
814.000000	2.678189   
814.500000	2.681719   
815.000000	2.791106   
815.500000	2.881128   
816.000000	2.876249   
816.500000	2.795636   
817.000000	2.786166   
817.500000	2.865446   
818.000000	3.012636   
818.500000	3.143750   
819.000000	3.142916   
819.500000	3.001931   
820.000000	2.805689   
820.500000	2.899568   
821.000000	3.045946   
821.500000	3.159712   
822.000000	3.157386   
822.500000	3.278969   
823.000000	3.391946   
823.500000	3.417227   
824.000000	3.314621   
824.500000	3.324727   
825.000000	3.325590   
825.500000	3.192810   
826.000000	2.893750   
826.500000	2.787500   
827.000000	2.898939   
827.500000	3.079325   
828.000000	3.007803   
828.500000	2.840477   
829.000000	2.713090   
829.500000	2.658015   
830.000000	2.649227   
830.500000	2.687939   
831.000000	2.680204   
831.500000	2.604590   
832.000000	2.499356   
832.500000	2.385393   
833.000000	2.127431   
833.500000	1.992901   
834.000000	2.029901   
834.500000	2.308280   
835.000000	2.283825   
835.500000	2.138136   
836.000000	1.921000   
836.500000	1.874106   
837.000000	1.663090   
837.500000	1.502234   
838.000000	1.331780   
838.500000	1.376886   
839.000000	1.362916   
839.500000	1.300280   
840.000000	1.158886   
840.500000	1.081196   
841.000000	0.968060   
841.500000	0.940363   
842.000000	0.883121   
842.500000	0.959454   
843.000000	0.934840   
843.500000	0.876098   
844.000000	0.731265   
844.500000	0.789522   
845.000000	0.872742   
845.500000	0.944492   
846.000000	0.873257   
846.500000	0.806719   
847.000000	0.734393   
847.500000	0.657106   
848.000000	0.521893   
848.500000	0.441393   
849.000000	0.380909   
849.500000	0.383878   
850.000000	0.470598   
850.500000	0.587810   
851.000000	0.617250   
851.500000	0.508196   
852.000000	0.398750   
852.500000	0.372954   
853.000000	0.537681   
853.500000	0.617015   
854.000000	0.612969   
854.500000	0.405075   
855.000000	0.255454   
855.500000	0.238136   
856.000000	0.321871   
856.500000	0.247378   
857.000000	0.111765   
857.500000	0.097977   
858.000000	0.180621   
858.500000	0.258227   
859.000000	0.158113   
859.500000	0.137280   
860.000000	0.129000   
860.500000	0.145000   
861.000000	0.108719   
861.500000	0.099863   
862.000000	0.188106   
862.500000	0.312212   
863.000000	0.381189   
863.500000	0.224765   
864.000000	0.048174   
864.500000	-0.038787  
865.000000	0.036007   
865.500000	0.107446   
866.000000	0.094037   
866.500000	0.046378   
867.000000	-0.019416  
867.500000	-0.067810  
868.000000	-0.120946  
868.500000	-0.143030  
869.000000	-0.128575  
869.500000	-0.106795  
870.000000	-0.094303  
870.500000	0.041196   
871.000000	0.180719   
871.500000	0.212712   
872.000000	0.119204   
872.500000	0.078409   
873.000000	0.043477   
873.500000	-0.007719  
874.000000	-0.067537  
874.500000	-0.063878  
875.000000	-0.038378  
875.500000	-0.060030  
876.000000	-0.066439  
876.500000	-0.003795  
877.000000	0.027348   
877.500000	0.025446   
878.000000	-0.018363  
878.500000	0.025174   
879.000000	0.079977   
879.500000	0.102833   
880.000000	0.020545   
880.500000	-0.013075  
881.000000	0.005742   
881.500000	-0.021136  
882.000000	-0.016136  
882.500000	0.055393   
883.000000	0.184446   
883.500000	0.171386   
884.000000	0.015151   
884.500000	-0.062272  
885.000000	-0.007219  
885.500000	0.104340   
886.000000	0.047825   
886.500000	0.022515   
887.000000	0.024303   
887.500000	0.108575   
888.000000	0.049462   
888.500000	-0.028090  
889.000000	-0.091939  
889.500000	-0.087310  
890.000000	-0.051553  
890.500000	-0.036878  
891.000000	-0.047492  
891.500000	-0.058954  
892.000000	-0.049598  
892.500000	-0.027151  
893.000000	-0.012893  
893.500000	-0.060204  
894.000000	-0.086295  
894.500000	-0.083757  
895.000000	-0.019227  
895.500000	0.016037   
896.000000	0.031492   
896.500000	-0.014378  
897.000000	0.025560   
897.500000	0.098356   
898.000000	0.256075   
898.500000	0.333409   
899.000000	0.276666   
899.500000	0.052295   
900.000000	-0.163606  
900.500000	-0.333000  

