PE FL                   SPECTRUM    ASCII       PEDS        1.60        
  -1
S12P.SP
24/04/05
12:33:15.00
24/04/05
12:34:38.00
Jan

900.500000
1









LS55
455.00
5.00
5.00
SCAN
1
20
100
100
0
400
0
1
0
1
5
ON
900 455 
1 0 0
#HDR
-1
-1
#GR
NM

0.00002384185791015625
0.0
460.000000
0.500000
882
8
249.360151
-0.877000
#DATA
460.000000	-0.877000  
460.500000	-0.207416  
461.000000	0.075128   
461.500000	0.064106   
462.000000	-0.031022  
462.500000	0.057204   
463.000000	0.089681   
463.500000	0.055227   
464.000000	-0.196068  
464.500000	-0.265916  
465.000000	-0.238015  
465.500000	-0.041537  
466.000000	-0.022348  
466.500000	-0.001378  
467.000000	-0.064803  
467.500000	-0.111416  
468.000000	-0.217356  
468.500000	-0.230893  
469.000000	-0.198318  
469.500000	-0.137750  
470.000000	-0.121151  
470.500000	-0.004727  
471.000000	0.146946   
471.500000	0.228886   
472.000000	0.009803   
472.500000	-0.295340  
473.000000	-0.387780  
473.500000	-0.201363  
474.000000	-0.096128  
474.500000	-0.141060  
475.000000	-0.243303  
475.500000	-0.253257  
476.000000	-0.219439  
476.500000	-0.154022  
477.000000	-0.032553  
477.500000	0.079606   
478.000000	0.104734   
478.500000	0.066939   
479.000000	0.035257   
479.500000	0.082946   
480.000000	0.264431   
480.500000	0.293613   
481.000000	0.074833   
481.500000	-0.215045  
482.000000	-0.192431  
482.500000	-0.113507  
483.000000	-0.121507  
483.500000	-0.197272  
484.000000	-0.106166  
484.500000	-0.000356  
485.000000	0.078416   
485.500000	0.171765   
486.000000	0.177143   
486.500000	0.163507   
487.000000	0.058189   
487.500000	0.084560   
488.000000	0.048946   
488.500000	-0.002530  
489.000000	0.009598   
489.500000	0.149234   
490.000000	0.374863   
490.500000	0.448575   
491.000000	0.376030   
491.500000	0.130659   
492.000000	0.053946   
492.500000	0.108522   
493.000000	0.110583   
493.500000	-0.024893  
494.000000	-0.137560  
494.500000	-0.073871  
495.000000	0.048954   
495.500000	0.114371   
496.000000	0.150007   
496.500000	0.257462   
497.000000	0.368446   
497.500000	0.399893   
498.000000	0.455462   
498.500000	0.592787   
499.000000	0.627878   
499.500000	0.543340   
500.000000	0.420712   
500.500000	0.469545   
501.000000	0.579401   
501.500000	0.695151   
502.000000	0.773371   
502.500000	0.796219   
503.000000	0.815757   
503.500000	0.801909   
504.000000	0.955196   
504.500000	1.015719   
505.000000	1.122803   
505.500000	1.137507   
506.000000	1.360272   
506.500000	1.592159   
507.000000	1.812310   
507.500000	1.823325   
508.000000	1.842984   
508.500000	1.931568   
509.000000	2.037810   
509.500000	2.154643   
510.000000	2.336924   
510.500000	2.673909   
511.000000	2.876621   
511.500000	2.775181   
512.000000	2.461643   
512.500000	2.316651   
513.000000	2.364356   
513.500000	2.515757   
514.000000	2.720287   
514.500000	2.948871   
515.000000	3.079787   
515.500000	2.992522   
516.000000	2.833848   
516.500000	2.846136   
517.000000	3.104954   
517.500000	3.548174   
518.000000	3.815068   
518.500000	3.721734   
519.000000	3.291371   
519.500000	3.115446   
520.000000	3.188727   
520.500000	3.392568   
521.000000	3.313363   
521.500000	3.087621   
522.000000	2.883424   
522.500000	2.829553   
523.000000	2.906234   
523.500000	3.003803   
524.000000	3.108045   
524.500000	3.300227   
525.000000	3.424878   
525.500000	3.356734   
526.000000	3.072287   
526.500000	2.945772   
527.000000	3.114462   
527.500000	3.468219   
528.000000	3.473189   
528.500000	3.331030   
529.000000	3.292318   
529.500000	3.461712   
530.000000	3.516727   
530.500000	3.402416   
531.000000	3.242340   
531.500000	3.138189   
532.000000	2.971507   
532.500000	2.901962   
533.000000	3.161356   
533.500000	3.446416   
534.000000	3.411393   
534.500000	2.937840   
535.000000	2.627007   
535.500000	2.700742   
536.000000	3.030530   
536.500000	3.191977   
537.000000	3.191507   
537.500000	3.267121   
538.000000	3.339795   
538.500000	3.250750   
539.000000	2.974212   
539.500000	2.949893   
540.000000	3.166234   
540.500000	3.452401   
541.000000	3.616113   
541.500000	3.640227   
542.000000	3.625719   
542.500000	3.521242   
543.000000	3.612757   
543.500000	3.699969   
544.000000	3.776916   
544.500000	3.727712   
545.000000	3.671234   
545.500000	3.565992   
546.000000	3.529280   
546.500000	3.936196   
547.000000	4.254924   
547.500000	4.177212   
548.000000	3.754227   
548.500000	3.612977   
549.000000	3.731636   
549.500000	3.916560   
550.000000	4.084863   
550.500000	4.096174   
551.000000	4.120999   
551.500000	4.072462   
552.000000	4.220757   
552.500000	4.249560   
553.000000	4.367924   
553.500000	4.329999   
554.000000	4.290113   
554.500000	4.009053   
555.000000	4.035348   
555.500000	4.131462   
556.000000	4.402242   
556.500000	4.470462   
557.000000	4.602848   
557.500000	4.430477   
558.000000	4.271121   
558.500000	4.207318   
559.000000	4.371439   
559.500000	4.484719   
560.000000	4.473719   
560.500000	4.675878   
561.000000	4.878742   
561.500000	5.007507   
562.000000	4.860515   
562.500000	4.890492   
563.000000	4.785825   
563.500000	4.688916   
564.000000	4.430825   
564.500000	4.506507   
565.000000	4.673128   
565.500000	4.843727   
566.000000	4.758810   
566.500000	4.533931   
567.000000	4.350363   
567.500000	4.361643   
568.000000	4.538121   
568.500000	4.356628   
569.000000	4.106068   
569.500000	3.931045   
570.000000	4.363242   
570.500000	4.612818   
571.000000	4.698333   
571.500000	4.386333   
572.000000	4.491492   
572.500000	4.572674   
573.000000	4.622674   
573.500000	4.408825   
574.000000	4.471386   
574.500000	4.718333   
575.000000	4.824212   
575.500000	4.609393   
576.000000	4.319151   
576.500000	4.345053   
577.000000	4.587765   
577.500000	4.841196   
578.000000	4.795196   
578.500000	4.460643   
579.000000	4.142174   
579.500000	4.149803   
580.000000	4.545166   
580.500000	4.716734   
581.000000	4.742787   
581.500000	4.680234   
582.000000	4.819189   
582.500000	4.888446   
583.000000	5.072325   
583.500000	5.183712   
584.000000	5.383833   
584.500000	5.389022   
585.000000	5.502856   
585.500000	5.575583   
586.000000	5.511818   
586.500000	5.161356   
587.000000	4.895719   
587.500000	4.994636   
588.000000	5.322189   
588.500000	5.659742   
589.000000	5.666106   
589.500000	5.577196   
590.000000	5.443219   
590.500000	5.620416   
591.000000	5.811318   
591.500000	6.004159   
592.000000	5.806272   
592.500000	5.778045   
593.000000	5.939340   
593.500000	6.322249   
594.000000	6.413356   
594.500000	6.221287   
595.000000	5.985795   
595.500000	5.937765   
596.000000	6.117075   
596.500000	6.242393   
597.000000	6.299401   
597.500000	6.206992   
598.000000	6.431909   
598.500000	6.752969   
599.000000	7.026045   
599.500000	7.079219   
600.000000	7.125651   
600.500000	7.221628   
601.000000	7.305439   
601.500000	7.463734   
602.000000	7.694015   
602.500000	8.104083   
603.000000	8.344022   
603.500000	8.435833   
604.000000	8.308984   
604.500000	8.376977   
605.000000	8.506151   
605.500000	8.599477   
606.000000	8.574931   
606.500000	8.768303   
607.000000	9.312833   
607.500000	9.641765   
608.000000	9.610484   
608.500000	9.555977   
609.000000	9.814871   
609.500000	10.031136  
610.000000	9.894060   
610.500000	9.651901   
611.000000	9.763378   
611.500000	10.153666  
612.000000	10.256196  
612.500000	9.959689   
613.000000	9.649757   
613.500000	9.567803   
614.000000	9.461969   
614.500000	9.007318   
615.000000	8.522250   
615.500000	8.502840   
616.000000	9.167590   
616.500000	9.755469   
617.000000	9.978893   
617.500000	9.707204   
618.000000	9.312348   
618.500000	9.075280   
619.000000	9.332159   
619.500000	9.792416   
620.000000	10.254522  
620.500000	10.342939  
621.000000	10.383128  
621.500000	10.509696  
622.000000	10.642356  
622.500000	10.909378  
623.000000	11.361484  
623.500000	11.802780  
624.000000	11.869704  
624.500000	11.830393  
625.000000	11.776659  
625.500000	12.209083  
626.000000	12.974333  
626.500000	14.321931  
627.000000	15.456386  
627.500000	15.996219  
628.000000	15.959590  
628.500000	15.868931  
629.000000	15.852833  
629.500000	15.901204  
630.000000	16.178651  
630.500000	16.879454  
631.000000	17.649045  
631.500000	18.134992  
632.000000	18.368204  
632.500000	18.869643  
633.000000	19.806409  
633.500000	20.874537  
634.000000	21.666712  
634.500000	22.269803  
635.000000	22.948128  
635.500000	23.674568  
636.000000	24.760424  
636.500000	25.724992  
637.000000	26.415757  
637.500000	26.720598  
638.000000	27.127325  
638.500000	27.772469  
639.000000	28.374318  
639.500000	29.079287  
640.000000	29.989901  
640.500000	31.682787  
641.000000	33.284340  
641.500000	34.947477  
642.000000	35.691575  
642.500000	36.319833  
643.000000	37.181810  
643.500000	38.782757  
644.000000	40.115446  
644.500000	40.862931  
645.000000	41.836590  
645.500000	43.946583  
646.000000	46.435590  
646.500000	48.384681  
647.000000	49.657681  
647.500000	50.781787  
648.000000	51.122590  
648.500000	51.331068  
649.000000	52.217363  
649.500000	54.697166  
650.000000	57.385204  
650.500000	59.577439  
651.000000	61.263977  
651.500000	62.917878  
652.000000	64.229939  
652.500000	65.661840  
653.000000	67.639924  
653.500000	70.438863  
654.000000	73.500636  
654.500000	76.117643  
655.000000	78.103325  
655.500000	80.040416  
656.000000	82.608871  
656.500000	85.420977  
657.000000	87.541696  
657.500000	88.674719  
658.000000	90.981886  
658.500000	94.760431  
659.000000	98.265878  
659.500000	100.261871 
660.000000	101.908916 
660.500000	105.122250 
661.000000	108.988909 
661.500000	112.314030 
662.000000	114.716530 
662.500000	118.246856 
663.000000	121.656000 
663.500000	124.395037 
664.000000	126.250742 
664.500000	128.511303 
665.000000	131.601500 
665.500000	135.144643 
666.000000	138.708151 
666.500000	142.047234 
667.000000	144.959969 
667.500000	146.994348 
668.000000	149.161257 
668.500000	151.597719 
669.000000	154.615075 
669.500000	157.683401 
670.000000	161.396530 
670.500000	164.071939 
671.000000	165.948992 
671.500000	167.130287 
672.000000	170.838401 
672.500000	176.015848 
673.000000	181.410939 
673.500000	184.367871 
674.000000	185.904303 
674.500000	188.227742 
675.000000	191.907727 
675.500000	195.467939 
676.000000	197.841356 
676.500000	199.650909 
677.000000	202.782954 
677.500000	206.448568 
678.000000	209.312946 
678.500000	210.978348 
679.000000	213.413022 
679.500000	215.816287 
680.000000	218.820196 
680.500000	221.558757 
681.000000	224.307939 
681.500000	226.489431 
682.000000	228.567007 
682.500000	231.033984 
683.000000	233.888984 
683.500000	236.276530 
684.000000	237.732424 
684.500000	240.232931 
685.000000	242.542636 
685.500000	244.554121 
686.000000	243.955515 
686.500000	243.400909 
687.000000	243.470734 
687.500000	246.315537 
688.000000	248.588818 
688.500000	249.360151 
689.000000	247.329962 
689.500000	245.077121 
690.000000	244.254863 
690.500000	246.147825 
691.000000	247.314174 
691.500000	245.559189 
692.000000	240.796007 
692.500000	237.674280 
693.000000	237.270818 
693.500000	237.874204 
694.000000	236.910242 
694.500000	235.707219 
695.000000	233.791333 
695.500000	230.842257 
696.000000	226.762795 
696.500000	223.639825 
697.000000	220.001204 
697.500000	216.230659 
698.000000	212.111560 
698.500000	209.146151 
699.000000	205.555772 
699.500000	201.463083 
700.000000	197.293893 
700.500000	193.646924 
701.000000	189.797863 
701.500000	185.333621 
702.000000	181.099060 
702.500000	176.741030 
703.000000	172.450439 
703.500000	167.927212 
704.000000	163.680416 
704.500000	160.028916 
705.000000	157.001674 
705.500000	152.793674 
706.000000	147.515060 
706.500000	142.796272 
707.000000	139.694287 
707.500000	137.350848 
708.000000	133.609090 
708.500000	130.025613 
709.000000	126.436212 
709.500000	124.329583 
710.000000	120.540431 
710.500000	116.496962 
711.000000	112.238136 
711.500000	110.251893 
712.000000	108.291924 
712.500000	105.871484 
713.000000	103.125280 
713.500000	100.841189 
714.000000	98.682901  
714.500000	95.127249  
715.000000	91.292553  
715.500000	88.021606  
716.000000	86.037674  
716.500000	84.234424  
717.000000	81.809742  
717.500000	79.224651  
718.000000	77.185909  
718.500000	75.190242  
719.000000	72.511795  
719.500000	69.563128  
720.000000	66.948053  
720.500000	64.590659  
721.000000	62.831113  
721.500000	61.721356  
722.000000	60.852522  
722.500000	59.173780  
723.000000	57.032583  
723.500000	55.009575  
724.000000	52.891113  
724.500000	51.307719  
725.000000	50.269492  
725.500000	49.478871  
726.000000	47.639212  
726.500000	45.900272  
727.000000	44.537462  
727.500000	43.593507  
728.000000	42.046515  
728.500000	40.791962  
729.000000	39.648303  
729.500000	38.453530  
730.000000	36.860424  
730.500000	35.813522  
731.000000	35.147909  
731.500000	34.690166  
732.000000	33.744742  
732.500000	33.154909  
733.000000	32.518515  
733.500000	32.030515  
734.000000	31.125734  
734.500000	30.078174  
735.000000	29.032409  
735.500000	28.382772  
736.000000	27.944545  
736.500000	27.103295  
737.000000	25.857606  
737.500000	24.409560  
738.000000	23.688333  
738.500000	23.375250  
739.000000	23.457833  
739.500000	23.202454  
740.000000	22.743560  
740.500000	21.787446  
741.000000	20.847098  
741.500000	19.945000  
742.000000	19.735863  
742.500000	19.327128  
743.000000	18.877962  
743.500000	18.205477  
744.000000	17.979651  
744.500000	17.613795  
745.000000	17.125159  
745.500000	16.319393  
746.000000	15.878757  
746.500000	15.535340  
747.000000	15.399227  
747.500000	15.167863  
748.000000	14.874045  
748.500000	14.266613  
749.000000	13.914931  
749.500000	13.859833  
750.000000	13.951045  
750.500000	13.543068  
751.000000	12.865840  
751.500000	12.501818  
752.000000	12.489810  
752.500000	12.281121  
753.000000	11.771166  
753.500000	11.477189  
754.000000	11.401242  
754.500000	11.202712  
755.000000	10.982750  
755.500000	10.961424  
756.000000	11.036348  
756.500000	10.638166  
757.000000	10.132916  
757.500000	9.934636   
758.000000	10.100454  
758.500000	10.185856  
759.000000	10.000878  
759.500000	9.631871   
760.000000	9.001901   
760.500000	8.534151   
761.000000	8.382553   
761.500000	8.742674   
762.000000	9.048310   
762.500000	9.054303   
763.000000	8.663068   
763.500000	8.312196   
764.000000	7.989098   
764.500000	7.936212   
765.000000	7.959310   
765.500000	7.908871   
766.000000	7.518030   
766.500000	7.093742   
767.000000	6.804219   
767.500000	6.902742   
768.000000	6.981689   
768.500000	6.903318   
769.000000	6.727060   
769.500000	6.766219   
770.000000	6.897643   
770.500000	6.786030   
771.000000	6.383477   
771.500000	6.102598   
772.000000	6.196500   
772.500000	6.239090   
773.000000	6.142151   
773.500000	5.785128   
774.000000	5.511765   
774.500000	5.488378   
775.000000	5.718901   
775.500000	5.869560   
776.000000	5.651371   
776.500000	5.392439   
777.000000	5.253090   
777.500000	5.312916   
778.000000	5.219954   
778.500000	5.123522   
779.000000	4.806583   
779.500000	4.486401   
780.000000	4.384878   
780.500000	4.460068   
781.000000	4.381469   
781.500000	4.179553   
782.000000	4.302666   
782.500000	4.431189   
783.000000	4.312537   
783.500000	3.970742   
784.000000	3.949484   
784.500000	4.091257   
785.000000	4.165568   
785.500000	4.073189   
786.000000	4.047189   
786.500000	4.061575   
787.000000	3.941295   
787.500000	3.683189   
788.000000	3.475651   
788.500000	3.405196   
789.000000	3.518409   
789.500000	3.645909   
790.000000	3.710553   
790.500000	3.655121   
791.000000	3.546500   
791.500000	3.508492   
792.000000	3.426886   
792.500000	3.264469   
793.000000	3.154181   
793.500000	3.243500   
794.000000	3.257871   
794.500000	3.128500   
795.000000	3.042303   
795.500000	2.953893   
796.000000	2.929583   
796.500000	2.920219   
797.000000	3.061424   
797.500000	3.091840   
798.000000	3.103931   
798.500000	3.057719   
799.000000	3.099863   
799.500000	2.983628   
800.000000	2.941803   
800.500000	2.871477   
801.000000	2.833916   
801.500000	2.753227   
802.000000	2.822560   
802.500000	2.842787   
803.000000	2.913901   
803.500000	2.922037   
804.000000	2.841530   
804.500000	2.676340   
805.000000	2.642689   
805.500000	2.821189   
806.000000	2.874712   
806.500000	2.718613   
807.000000	2.498257   
807.500000	2.522909   
808.000000	2.650030   
808.500000	2.777916   
809.000000	2.752166   
809.500000	2.571946   
810.000000	2.426931   
810.500000	2.504431   
811.000000	2.707848   
811.500000	2.795916   
812.000000	2.684507   
812.500000	2.627780   
813.000000	2.551931   
813.500000	2.525553   
814.000000	2.477000   
814.500000	2.470659   
815.000000	2.434446   
815.500000	2.456318   
816.000000	2.495015   
816.500000	2.539348   
817.000000	2.448977   
817.500000	2.396825   
818.000000	2.394583   
818.500000	2.484143   
819.000000	2.542583   
819.500000	2.761545   
820.000000	2.891681   
820.500000	2.930962   
821.000000	2.871772   
821.500000	2.908454   
822.000000	2.955704   
822.500000	2.964068   
823.000000	2.956916   
823.500000	2.961348   
824.000000	2.920189   
824.500000	2.861931   
825.000000	2.831530   
825.500000	2.808825   
826.000000	2.716053   
826.500000	2.598234   
827.000000	2.543053   
827.500000	2.550992   
828.000000	2.719712   
828.500000	2.951075   
829.000000	3.082325   
829.500000	2.913181   
830.000000	2.550636   
830.500000	2.091204   
831.000000	1.668401   
831.500000	1.473590   
832.000000	1.598954   
832.500000	1.876666   
833.000000	2.061530   
833.500000	2.101916   
834.000000	1.998848   
834.500000	1.827765   
835.000000	1.595098   
835.500000	1.393643   
836.000000	1.327772   
836.500000	1.321303   
837.000000	1.404537   
837.500000	1.432946   
838.000000	1.335098   
838.500000	1.155462   
839.000000	1.119106   
839.500000	1.196848   
840.000000	1.232575   
840.500000	1.131030   
841.000000	0.938492   
841.500000	0.844174   
842.000000	0.802590   
842.500000	0.871916   
843.000000	0.923651   
843.500000	0.996310   
844.000000	0.891113   
844.500000	0.675333   
845.000000	0.458045   
845.500000	0.489848   
846.000000	0.594257   
846.500000	0.595507   
847.000000	0.494500   
847.500000	0.503151   
848.000000	0.636893   
848.500000	0.645363   
849.000000	0.474174   
849.500000	0.299053   
850.000000	0.329462   
850.500000	0.556939   
851.000000	0.800340   
851.500000	0.950196   
852.000000	0.902204   
852.500000	0.667219   
853.000000	0.352962   
853.500000	0.250234   
854.000000	0.284901   
854.500000	0.357477   
855.000000	0.341075   
855.500000	0.334659   
856.000000	0.291000   
856.500000	0.134303   
857.000000	0.046545   
857.500000	0.008530   
858.000000	0.080045   
858.500000	0.057818   
859.000000	0.209083   
859.500000	0.283969   
860.000000	0.304606   
860.500000	0.051045   
861.000000	-0.103689  
861.500000	-0.062871  
862.000000	0.177462   
862.500000	0.321719   
863.000000	0.287568   
863.500000	0.122416   
864.000000	-0.043840  
864.500000	-0.137439  
865.000000	-0.091628  
865.500000	0.015454   
866.000000	0.013977   
866.500000	0.007659   
867.000000	0.031083   
867.500000	0.119590   
868.000000	0.045060   
868.500000	-0.020500  
869.000000	-0.010734  
869.500000	0.115606   
870.000000	0.049863   
870.500000	-0.008500  
871.000000	0.041083   
871.500000	0.196037   
872.000000	0.200848   
872.500000	0.093181   
873.000000	0.007492   
873.500000	0.031545   
874.000000	0.059689   
874.500000	-0.036636  
875.000000	-0.110613  
875.500000	-0.107856  
876.000000	-0.033295  
876.500000	0.008818   
877.000000	-0.047803  
877.500000	-0.084810  
878.000000	-0.151878  
878.500000	-0.198878  
879.000000	-0.222363  
879.500000	-0.043992  
880.000000	0.183136   
880.500000	0.268992   
881.000000	0.149553   
881.500000	-0.017371  
882.000000	-0.019446  
882.500000	0.000310   
883.000000	0.005810   
883.500000	-0.018303  
884.000000	-0.037856  
884.500000	-0.013530  
885.000000	0.003015   
885.500000	0.039969   
886.000000	-0.057371  
886.500000	-0.089795  
887.000000	-0.073598  
887.500000	0.090734   
888.000000	0.112659   
888.500000	0.076704   
889.000000	-0.027333  
889.500000	-0.032840  
890.000000	-0.021136  
890.500000	-0.048742  
891.000000	-0.053371  
891.500000	-0.013537  
892.000000	0.021287   
892.500000	0.002053   
893.000000	-0.041515  
893.500000	-0.003515  
894.000000	0.044416   
894.500000	0.071204   
895.000000	-0.088954  
895.500000	-0.219333  
896.000000	-0.312613  
896.500000	-0.172257  
897.000000	-0.042136  
897.500000	-0.015477  
898.000000	-0.174446  
898.500000	-0.287378  
899.000000	-0.273659  
899.500000	-0.111325  
900.000000	0.018393   
900.500000	0.030000   

