PE FL                   SPECTRUM    ASCII       PEDS        1.60        
  -1
S17P.SP
24/04/05
12:46:54.00
24/04/05
12:48:18.00
Jan

900.500000
1









LS55
455.00
5.00
5.00
SCAN
1
20
100
100
0
400
0
1
0
1
5
ON
900 455 
1 0 0
#HDR
-1
-1
#GR
NM

0.00002384185791015625
0.0
460.000000
0.500000
882
8
159.906189
-0.435446
#DATA
460.000000	-0.121000  
460.500000	-0.188287  
461.000000	-0.103704  
461.500000	0.074083   
462.000000	0.081787   
462.500000	0.096856   
463.000000	0.042318   
463.500000	0.033393   
464.000000	-0.045007  
464.500000	0.009621   
465.000000	0.082159   
465.500000	0.125613   
466.000000	0.032212   
466.500000	-0.164825  
467.000000	-0.287272  
467.500000	-0.252227  
468.000000	-0.019863  
468.500000	0.066712   
469.000000	-0.093840  
469.500000	-0.298204  
470.000000	-0.297749  
470.500000	-0.194446  
471.000000	-0.117795  
471.500000	-0.056151  
472.000000	-0.000742  
472.500000	-0.088143  
473.000000	-0.299878  
473.500000	-0.435446  
474.000000	-0.257409  
474.500000	0.048075   
475.000000	0.190848   
475.500000	0.088651   
476.000000	-0.046818  
476.500000	-0.141962  
477.000000	-0.113727  
477.500000	0.033015   
478.000000	0.165363   
478.500000	0.136742   
479.000000	-0.035098  
479.500000	-0.102916  
480.000000	0.038416   
480.500000	0.125984   
481.000000	0.044833   
481.500000	-0.066128  
482.000000	0.004272   
482.500000	0.211742   
483.000000	0.279931   
483.500000	0.108401   
484.000000	-0.035916  
484.500000	0.010704   
485.000000	0.131909   
485.500000	0.206037   
486.000000	0.102916   
486.500000	-0.019401  
487.000000	-0.121742  
487.500000	-0.133750  
488.000000	-0.123022  
488.500000	-0.144916  
489.000000	-0.202424  
489.500000	-0.161522  
490.000000	-0.028522  
490.500000	0.181613   
491.000000	0.259537   
491.500000	0.139280   
492.000000	-0.119780  
492.500000	-0.185159  
493.000000	-0.108780  
493.500000	0.042575   
494.000000	0.093666   
494.500000	0.196522   
495.000000	0.308030   
495.500000	0.352378   
496.000000	0.363219   
496.500000	0.372515   
497.000000	0.473606   
497.500000	0.467696   
498.000000	0.423946   
498.500000	0.273606   
499.000000	0.263848   
499.500000	0.337068   
500.000000	0.564999   
500.500000	0.774613   
501.000000	0.864545   
501.500000	0.808750   
502.000000	0.684303   
502.500000	0.652871   
503.000000	0.678712   
503.500000	0.840212   
504.000000	0.997848   
504.500000	1.265818   
505.000000	1.379090   
505.500000	1.384151   
506.000000	1.309674   
506.500000	1.571893   
507.000000	1.910287   
507.500000	2.259446   
508.000000	2.314803   
508.500000	2.352257   
509.000000	2.340128   
509.500000	2.410772   
510.000000	2.391303   
510.500000	2.445545   
511.000000	2.461780   
511.500000	2.516469   
512.000000	2.535575   
512.500000	2.574045   
513.000000	2.594750   
513.500000	2.638840   
514.000000	2.711015   
514.500000	2.826333   
515.000000	2.908712   
515.500000	2.972363   
516.000000	2.998227   
516.500000	3.168484   
517.000000	3.332848   
517.500000	3.494507   
518.000000	3.532553   
518.500000	3.425469   
519.000000	3.265803   
519.500000	3.205606   
520.000000	3.378643   
520.500000	3.434545   
521.000000	3.513719   
521.500000	3.332416   
522.000000	3.213265   
522.500000	3.011484   
523.000000	3.064515   
523.500000	3.138719   
524.000000	3.119674   
524.500000	3.109098   
525.000000	3.211318   
525.500000	3.368022   
526.000000	3.230416   
526.500000	3.187083   
527.000000	3.263598   
527.500000	3.378553   
528.000000	3.135992   
528.500000	3.042393   
529.000000	3.188068   
529.500000	3.418962   
530.000000	3.380833   
530.500000	3.228166   
531.000000	3.214590   
531.500000	3.275689   
532.000000	3.278272   
532.500000	3.200954   
533.000000	3.080166   
533.500000	2.895666   
534.000000	2.722007   
534.500000	2.834227   
535.000000	2.966007   
535.500000	2.996522   
536.000000	2.712386   
536.500000	2.677151   
537.000000	2.901636   
537.500000	3.143166   
538.000000	3.139636   
538.500000	3.097946   
539.000000	3.190166   
539.500000	3.215295   
540.000000	3.155757   
540.500000	3.150651   
541.000000	3.497848   
541.500000	3.836272   
542.000000	3.806992   
542.500000	3.609689   
543.000000	3.515492   
543.500000	3.588856   
544.000000	3.707871   
544.500000	3.768787   
545.000000	3.834674   
545.500000	3.859386   
546.000000	3.743719   
546.500000	3.582446   
547.000000	3.420893   
547.500000	3.339204   
548.000000	3.312037   
548.500000	3.629007   
549.000000	4.027439   
549.500000	4.383295   
550.000000	4.155803   
550.500000	3.879606   
551.000000	3.764356   
551.500000	4.054310   
552.000000	4.229666   
552.500000	4.276651   
553.000000	4.218128   
553.500000	4.462939   
554.000000	4.775787   
554.500000	4.974712   
555.000000	4.804007   
555.500000	4.579393   
556.000000	4.430113   
556.500000	4.422159   
557.000000	4.432053   
557.500000	4.508909   
558.000000	4.543212   
558.500000	4.462704   
559.000000	4.449227   
559.500000	4.500689   
560.000000	4.612022   
560.500000	4.491257   
561.000000	4.229681   
561.500000	3.912477   
562.000000	3.959280   
562.500000	4.318121   
563.000000	4.707196   
563.500000	4.788378   
564.000000	4.565143   
564.500000	4.444500   
565.000000	4.345704   
565.500000	4.206356   
566.000000	3.805772   
566.500000	4.017765   
567.000000	4.575454   
567.500000	5.104522   
568.000000	4.714553   
568.500000	4.287750   
569.000000	4.070454   
569.500000	4.285916   
570.000000	4.412409   
570.500000	4.562227   
571.000000	4.572371   
571.500000	4.439189   
572.000000	4.335765   
572.500000	4.507931   
573.000000	4.827249   
573.500000	4.939295   
574.000000	4.761219   
574.500000	4.421446   
575.000000	4.175833   
575.500000	4.049204   
576.000000	3.995136   
576.500000	3.999265   
577.000000	4.175871   
577.500000	4.433212   
578.000000	4.489128   
578.500000	4.425757   
579.000000	4.445977   
579.500000	4.813696   
580.000000	5.154924   
580.500000	5.392128   
581.000000	5.289219   
581.500000	5.128439   
582.000000	4.875424   
582.500000	4.794106   
583.000000	4.811515   
583.500000	4.945734   
584.000000	4.818515   
584.500000	4.653348   
585.000000	4.513651   
585.500000	4.533143   
586.000000	4.250598   
586.500000	4.244106   
587.000000	4.519719   
587.500000	5.188174   
588.000000	5.526727   
588.500000	5.768431   
589.000000	5.884499   
589.500000	6.057621   
590.000000	5.821613   
590.500000	5.506045   
591.000000	5.300848   
591.500000	5.505484   
592.000000	5.952590   
592.500000	6.239492   
593.000000	6.180159   
593.500000	5.995787   
594.000000	6.057901   
594.500000	6.310431   
595.000000	6.474568   
595.500000	6.307295   
596.000000	6.105939   
596.500000	6.095257   
597.000000	6.281689   
597.500000	6.434810   
598.000000	6.545310   
598.500000	6.502037   
599.000000	6.470924   
599.500000	6.491583   
600.000000	6.587166   
600.500000	6.774484   
601.000000	7.038939   
601.500000	7.397386   
602.000000	7.455742   
602.500000	7.354030   
603.000000	7.361916   
603.500000	7.702530   
604.000000	7.957340   
604.500000	8.121606   
605.000000	8.278621   
605.500000	8.422499   
606.000000	8.370022   
606.500000	8.331840   
607.000000	8.517977   
607.500000	9.027659   
608.000000	9.428689   
608.500000	9.609469   
609.000000	9.412901   
609.500000	9.200045   
610.000000	9.149848   
610.500000	9.274113   
611.000000	9.190765   
611.500000	8.807462   
612.000000	8.320583   
612.500000	8.318272   
613.000000	8.686553   
613.500000	8.963113   
614.000000	8.760833   
614.500000	8.448113   
615.000000	8.272833   
615.500000	8.232719   
616.000000	8.150340   
616.500000	7.982053   
617.000000	7.923204   
617.500000	7.989515   
618.000000	8.251242   
618.500000	8.682969   
619.000000	8.912909   
619.500000	8.787666   
620.000000	8.516477   
620.500000	8.635431   
621.000000	8.828280   
621.500000	9.094318   
622.000000	9.058560   
622.500000	9.386909   
623.000000	9.926143   
623.500000	10.675083  
624.000000	10.990000  
624.500000	11.083378  
625.000000	11.054833  
625.500000	11.153227  
626.000000	11.249780  
626.500000	11.225409  
627.000000	11.510765  
627.500000	11.997325  
628.000000	12.293765  
628.500000	12.238212  
629.000000	12.226840  
629.500000	12.824878  
630.000000	13.533416  
630.500000	14.057893  
631.000000	14.044492  
631.500000	14.349068  
632.000000	15.218833  
632.500000	16.306848  
633.000000	16.747250  
633.500000	16.452113  
634.000000	16.617121  
634.500000	17.346136  
635.000000	18.472810  
635.500000	19.063000  
636.000000	19.409856  
636.500000	19.519303  
637.000000	19.893537  
637.500000	20.784121  
638.000000	21.846250  
638.500000	22.789083  
639.000000	23.053787  
639.500000	23.533553  
640.000000	24.073446  
640.500000	25.067590  
641.000000	25.647787  
641.500000	26.289780  
642.000000	27.318030  
642.500000	28.602674  
643.000000	29.574401  
643.500000	30.004136  
644.000000	30.914886  
644.500000	31.556590  
645.000000	31.956060  
645.500000	32.412606  
646.000000	34.090356  
646.500000	35.869795  
647.000000	37.113378  
647.500000	37.937295  
648.000000	38.736992  
648.500000	39.575250  
649.000000	40.322522  
649.500000	41.383734  
650.000000	42.822257  
650.500000	43.632893  
651.000000	44.679674  
651.500000	46.340295  
652.000000	48.995060  
652.500000	50.391462  
653.000000	50.829931  
653.500000	50.969553  
654.000000	52.163030  
654.500000	53.409545  
655.000000	54.794401  
655.500000	57.009522  
656.000000	59.629825  
656.500000	62.435348  
657.000000	64.368522  
657.500000	66.015272  
658.000000	66.833204  
658.500000	67.722545  
659.000000	68.770280  
659.500000	70.692939  
660.000000	73.033128  
660.500000	75.207477  
661.000000	76.948598  
661.500000	78.470227  
662.000000	80.910242  
662.500000	83.215053  
663.000000	84.871015  
663.500000	85.597780  
664.000000	87.072151  
664.500000	89.510909  
665.000000	92.326939  
665.500000	94.182303  
666.000000	95.143015  
666.500000	96.516340  
667.000000	98.064992  
667.500000	100.343643 
668.000000	102.421674 
668.500000	104.213045 
669.000000	105.278446 
669.500000	106.875401 
670.000000	109.228121 
670.500000	111.745310 
671.000000	113.568333 
671.500000	115.220696 
672.000000	117.770484 
672.500000	120.156409 
673.000000	121.945568 
673.500000	123.137386 
674.000000	124.977007 
674.500000	126.893560 
675.000000	129.177878 
675.500000	131.083136 
676.000000	133.426242 
676.500000	135.946825 
677.000000	138.541333 
677.500000	140.120303 
678.000000	140.686628 
678.500000	140.756507 
679.000000	141.191219 
679.500000	142.952348 
680.000000	144.532810 
680.500000	147.235727 
681.000000	149.837560 
681.500000	152.302757 
682.000000	152.148121 
682.500000	151.459469 
683.000000	151.323181 
683.500000	153.339469 
684.000000	154.683810 
684.500000	155.627962 
685.000000	155.885477 
685.500000	156.725750 
686.000000	157.005446 
686.500000	157.378568 
687.000000	158.051045 
687.500000	159.621931 
688.000000	159.906189 
688.500000	159.111083 
689.000000	158.233636 
689.500000	158.198356 
690.000000	158.357196 
690.500000	156.882727 
691.000000	155.308492 
691.500000	154.433090 
692.000000	154.839719 
692.500000	153.518878 
693.000000	151.079053 
693.500000	148.077280 
694.000000	147.773083 
694.500000	147.754734 
695.000000	146.219128 
695.500000	142.546977 
696.000000	139.833242 
696.500000	138.029901 
697.000000	136.820848 
697.500000	134.967121 
698.000000	133.287560 
698.500000	130.930689 
699.000000	128.010318 
699.500000	124.516250 
700.000000	121.255439 
700.500000	118.988893 
701.000000	117.996000 
701.500000	117.420128 
702.000000	114.931454 
702.500000	111.196568 
703.000000	107.057962 
703.500000	104.429848 
704.000000	101.853795 
704.500000	99.939893  
705.000000	97.993530  
705.500000	96.501446  
706.000000	94.585007  
706.500000	92.238984  
707.000000	89.196545  
707.500000	86.766257  
708.000000	85.041787  
708.500000	83.794886  
709.000000	82.179295  
709.500000	80.346878  
710.000000	78.440765  
710.500000	75.483568  
711.000000	71.766606  
711.500000	68.538060  
712.000000	67.245522  
712.500000	66.498803  
713.000000	65.445727  
713.500000	63.153545  
714.000000	60.971984  
714.500000	58.552272  
715.000000	56.462477  
715.500000	55.031553  
716.000000	54.390295  
716.500000	53.881886  
717.000000	52.580969  
717.500000	50.984977  
718.000000	49.340257  
718.500000	47.776121  
719.000000	46.090378  
719.500000	45.067886  
720.000000	44.351583  
720.500000	43.386431  
721.000000	41.592363  
721.500000	39.309939  
722.000000	37.910871  
722.500000	37.113166  
723.000000	36.495545  
723.500000	35.070568  
724.000000	33.758272  
724.500000	32.973068  
725.000000	32.631348  
725.500000	31.816340  
726.000000	30.968484  
726.500000	30.632757  
727.000000	30.338212  
727.500000	29.834045  
728.000000	28.970037  
728.500000	28.252772  
729.000000	27.333893  
729.500000	26.207227  
730.000000	25.188484  
730.500000	24.745621  
731.000000	24.717492  
731.500000	24.326136  
732.000000	23.604340  
732.500000	22.954098  
733.000000	22.580371  
733.500000	22.031098  
734.000000	21.202022  
734.500000	20.126825  
735.000000	19.083939  
735.500000	18.422916  
736.000000	18.317681  
736.500000	18.277651  
737.000000	18.226022  
737.500000	17.564666  
738.000000	16.989462  
738.500000	16.073636  
739.000000	15.743348  
739.500000	15.735689  
740.000000	16.328204  
740.500000	16.015765  
741.000000	15.114772  
741.500000	14.203848  
742.000000	14.222075  
742.500000	14.423515  
743.000000	14.141840  
743.500000	13.604704  
744.000000	13.288810  
744.500000	13.242727  
745.000000	13.166553  
745.500000	13.306257  
746.000000	13.188378  
746.500000	12.962909  
747.000000	12.442863  
747.500000	12.024136  
748.000000	11.488265  
748.500000	11.141075  
749.000000	11.093083  
749.500000	11.256946  
750.000000	11.274515  
750.500000	10.998045  
751.000000	10.685734  
751.500000	10.283022  
752.000000	10.010045  
752.500000	9.790856   
753.000000	9.601818   
753.500000	9.456765   
754.000000	9.550409   
754.500000	9.622151   
755.000000	9.524174   
755.500000	9.046984   
756.000000	8.790522   
756.500000	8.564143   
757.000000	8.414128   
757.500000	8.043037   
758.000000	7.832886   
758.500000	7.864121   
759.000000	8.034613   
759.500000	8.064492   
760.000000	7.922181   
760.500000	7.993674   
761.000000	7.927583   
761.500000	7.680393   
762.000000	7.279265   
762.500000	7.371742   
763.000000	7.495871   
763.500000	7.212818   
764.000000	6.607833   
764.500000	6.379856   
765.000000	6.359977   
765.500000	6.391181   
766.000000	6.373598   
766.500000	6.501234   
767.000000	6.447431   
767.500000	6.218704   
768.000000	5.936136   
768.500000	5.874590   
769.000000	5.924598   
769.500000	5.955931   
770.000000	5.721030   
770.500000	5.500159   
771.000000	5.346174   
771.500000	5.234659   
772.000000	4.882871   
772.500000	4.631628   
773.000000	4.698651   
773.500000	4.918083   
774.000000	4.855780   
774.500000	4.446348   
775.000000	4.195863   
775.500000	4.186939   
776.000000	4.306075   
776.500000	4.382439   
777.000000	4.329363   
777.500000	4.262166   
778.000000	4.141643   
778.500000	4.348878   
779.000000	4.433469   
779.500000	4.504265   
780.000000	4.086378   
780.500000	3.827916   
781.000000	3.726962   
781.500000	4.072568   
782.000000	4.295363   
782.500000	4.215416   
783.000000	3.843825   
783.500000	3.783136   
784.000000	3.965734   
784.500000	4.124954   
785.000000	4.110045   
785.500000	3.967969   
786.000000	3.877780   
786.500000	3.680113   
787.000000	3.429810   
787.500000	3.109030   
788.000000	2.847507   
788.500000	2.755787   
789.000000	2.977977   
789.500000	3.330477   
790.000000	3.603522   
790.500000	3.589295   
791.000000	3.342590   
791.500000	3.293325   
792.000000	3.517454   
792.500000	3.731871   
793.000000	3.528401   
793.500000	3.010530   
794.000000	2.708871   
794.500000	2.814007   
795.000000	3.113666   
795.500000	3.212484   
796.000000	3.238477   
796.500000	3.179530   
797.000000	3.182325   
797.500000	2.974098   
798.000000	2.858583   
798.500000	2.693924   
799.000000	2.651280   
799.500000	2.533234   
800.000000	2.528053   
800.500000	2.661098   
801.000000	2.804719   
801.500000	2.797280   
802.000000	2.629878   
802.500000	2.581901   
803.000000	2.682409   
803.500000	2.914598   
804.000000	2.961310   
804.500000	2.898393   
805.000000	2.781651   
805.500000	2.688265   
806.000000	2.689121   
806.500000	2.684636   
807.000000	2.695621   
807.500000	2.710651   
808.000000	2.788189   
808.500000	2.772856   
809.000000	2.714621   
809.500000	2.614151   
810.000000	2.583924   
810.500000	2.540310   
811.000000	2.512840   
811.500000	2.515060   
812.000000	2.565795   
812.500000	2.569659   
813.000000	2.456765   
813.500000	2.334356   
814.000000	2.249045   
814.500000	2.329742   
815.000000	2.408939   
815.500000	2.514060   
816.000000	2.482704   
816.500000	2.436893   
817.000000	2.302780   
817.500000	2.272795   
818.000000	2.356007   
818.500000	2.521227   
819.000000	2.626303   
819.500000	2.664075   
820.000000	2.739333   
820.500000	2.749053   
821.000000	2.721727   
821.500000	2.676462   
822.000000	2.771598   
822.500000	2.861848   
823.000000	2.956780   
823.500000	2.990477   
824.000000	3.083401   
824.500000	3.146212   
825.000000	3.152803   
825.500000	3.064666   
826.000000	2.962613   
826.500000	2.918250   
827.000000	2.884121   
827.500000	2.825825   
828.000000	2.704022   
828.500000	2.659636   
829.000000	2.661068   
829.500000	2.671469   
830.000000	2.586287   
830.500000	2.443439   
831.000000	2.320219   
831.500000	2.289409   
832.000000	2.335090   
832.500000	2.322537   
833.000000	2.150992   
833.500000	1.810992   
834.000000	1.573833   
834.500000	1.612371   
835.000000	1.708871   
835.500000	1.637939   
836.000000	1.315113   
836.500000	1.076242   
837.000000	0.927121   
837.500000	0.973598   
838.000000	1.041348   
838.500000	1.152219   
839.000000	1.105575   
839.500000	1.034886   
840.000000	0.982053   
840.500000	1.010454   
841.000000	1.021765   
841.500000	1.026553   
842.000000	1.018954   
842.500000	1.003477   
843.000000	0.929295   
843.500000	0.815416   
844.000000	0.646318   
844.500000	0.574204   
845.000000	0.600015   
845.500000	0.694500   
846.000000	0.664712   
846.500000	0.574856   
847.000000	0.561121   
847.500000	0.650159   
848.000000	0.759007   
848.500000	0.614787   
849.000000	0.414386   
849.500000	0.273325   
850.000000	0.439727   
850.500000	0.673984   
851.000000	0.744174   
851.500000	0.516348   
852.000000	0.304939   
852.500000	0.270204   
853.000000	0.371878   
853.500000	0.405810   
854.000000	0.308507   
854.500000	0.242174   
855.000000	0.340431   
855.500000	0.380189   
856.000000	0.334500   
856.500000	0.210916   
857.000000	0.203159   
857.500000	0.242689   
858.000000	0.228333   
858.500000	0.147250   
859.000000	0.164840   
859.500000	0.161727   
860.000000	0.118348   
860.500000	-0.034545  
861.000000	-0.111636  
861.500000	-0.144924  
862.000000	-0.042204  
862.500000	-0.065553  
863.000000	-0.147340  
863.500000	-0.307712  
864.000000	-0.283143  
864.500000	-0.200795  
865.000000	-0.074386  
865.500000	-0.058060  
866.000000	-0.011893  
866.500000	-0.061015  
867.000000	-0.089037  
867.500000	-0.128242  
868.000000	-0.028015  
868.500000	0.026696   
869.000000	-0.001916  
869.500000	-0.064522  
870.000000	0.026295   
870.500000	0.129007   
871.000000	0.089303   
871.500000	-0.044386  
872.000000	-0.085522  
872.500000	0.014681   
873.000000	0.086416   
873.500000	0.153393   
874.000000	0.162871   
874.500000	0.110492   
875.000000	-0.017553  
875.500000	-0.110757  
876.000000	-0.178431  
876.500000	-0.200742  
877.000000	-0.055037  
877.500000	0.233674   
878.000000	0.428931   
878.500000	0.293583   
879.000000	0.037916   
879.500000	-0.059068  
880.000000	-0.012424  
880.500000	0.057204   
881.000000	0.023651   
881.500000	0.005772   
882.000000	-0.051750  
882.500000	-0.010651  
883.000000	0.043757   
883.500000	0.087606   
884.000000	0.016621   
884.500000	-0.066310  
885.000000	-0.137401  
885.500000	-0.124795  
886.000000	-0.071613  
886.500000	0.064007   
887.000000	0.125613   
887.500000	0.148878   
888.000000	0.067287   
888.500000	0.028462   
889.000000	-0.040537  
889.500000	-0.030378  
890.000000	0.012113   
890.500000	-0.024075  
891.000000	-0.172689  
891.500000	-0.330628  
892.000000	-0.298325  
892.500000	-0.203212  
893.000000	-0.116393  
893.500000	-0.127765  
894.000000	-0.055803  
894.500000	0.014909   
895.000000	-0.011651  
895.500000	-0.078780  
896.000000	-0.099295  
896.500000	-0.093560  
897.000000	-0.093295  
897.500000	-0.033393  
898.000000	0.015090   
898.500000	0.027674   
899.000000	-0.030886  
899.500000	-0.021015  
900.000000	-0.017022  
900.500000	-0.120000  

