PE FL                   SPECTRUM    ASCII       PEDS        1.60        
  -1
S1_POST#01.SP
24/04/15
14:43:26.00
24/04/15
14:44:38.00
Jan

900.500000
1









LS55
405.00
5.00
5.00
SCAN
1
20
100
100
0
400
0
1
0
1
5
ON
435 365 
1 0 0
#HDR
-1
-1
#GR
NM

0.00002384185791015625
0.0
450.000000
0.500000
902
8
552.670825
-0.175606
#DATA
450.000000	0.727999   
450.500000	0.457598   
451.000000	0.198212   
451.500000	0.044712   
452.000000	0.242909   
452.500000	0.429280   
453.000000	0.500227   
453.500000	0.307242   
454.000000	0.340098   
454.500000	0.436924   
455.000000	0.549484   
455.500000	0.485401   
456.000000	0.411787   
456.500000	0.325674   
457.000000	0.297265   
457.500000	0.350969   
458.000000	0.403295   
458.500000	0.329674   
459.000000	0.142939   
459.500000	0.090166   
460.000000	0.186181   
460.500000	0.311000   
461.000000	0.390598   
461.500000	0.401977   
462.000000	0.297962   
462.500000	0.176310   
463.000000	0.144257   
463.500000	0.242772   
464.000000	0.261136   
464.500000	0.114250   
465.000000	0.016757   
465.500000	0.109462   
466.000000	0.251681   
466.500000	0.314219   
467.000000	0.275159   
467.500000	0.256075   
468.000000	0.161454   
468.500000	0.008674   
469.000000	-0.017871  
469.500000	0.232121   
470.000000	0.363189   
470.500000	0.244522   
471.000000	-0.024257  
471.500000	-0.093598  
472.000000	0.098522   
472.500000	0.429272   
473.000000	0.600181   
473.500000	0.614166   
474.000000	0.539030   
474.500000	0.437363   
475.000000	0.283712   
475.500000	0.123303   
476.000000	0.008015   
476.500000	0.058515   
477.000000	0.180742   
477.500000	0.322977   
478.000000	0.415333   
478.500000	0.392954   
479.000000	0.257863   
479.500000	0.122681   
480.000000	0.011583   
480.500000	0.095833   
481.000000	0.274674   
481.500000	0.442515   
482.000000	0.417348   
482.500000	0.382393   
483.000000	0.318598   
483.500000	0.380469   
484.000000	0.261378   
484.500000	0.125227   
485.000000	0.037984   
485.500000	0.212719   
486.000000	0.471325   
486.500000	0.687462   
487.000000	0.780621   
487.500000	0.813795   
488.000000	0.783772   
488.500000	0.719939   
489.000000	0.709931   
489.500000	0.630007   
490.000000	0.560916   
490.500000	0.527439   
491.000000	0.605431   
491.500000	0.690121   
492.000000	0.755833   
492.500000	0.752022   
493.000000	0.778583   
493.500000	0.770954   
494.000000	0.528106   
494.500000	0.276325   
495.000000	0.221037   
495.500000	0.443257   
496.000000	0.611143   
496.500000	0.702484   
497.000000	0.745287   
497.500000	0.797749   
498.000000	0.779553   
498.500000	0.755893   
499.000000	0.731696   
499.500000	0.611446   
500.000000	0.565189   
500.500000	0.702022   
501.000000	0.967689   
501.500000	1.132719   
502.000000	1.170734   
502.500000	1.159560   
503.000000	1.096560   
503.500000	1.033325   
504.000000	0.914045   
504.500000	0.893121   
505.000000	0.883363   
505.500000	1.108750   
506.000000	1.248545   
506.500000	1.422651   
507.000000	1.334893   
507.500000	1.300969   
508.000000	1.293522   
508.500000	1.400909   
509.000000	1.462159   
509.500000	1.630083   
510.000000	2.099265   
510.500000	2.339363   
511.000000	2.266318   
511.500000	1.990234   
512.000000	2.106727   
512.500000	2.240060   
513.000000	2.231409   
513.500000	2.181068   
514.000000	2.450250   
514.500000	2.783166   
515.000000	2.908674   
515.500000	2.956750   
516.000000	2.800325   
516.500000	2.638333   
517.000000	2.571901   
517.500000	2.834310   
518.000000	3.029560   
518.500000	3.065106   
519.000000	3.092522   
519.500000	3.336772   
520.000000	3.604522   
520.500000	3.750083   
521.000000	3.827219   
521.500000	3.833696   
522.000000	3.759749   
522.500000	3.829136   
523.000000	4.071863   
523.500000	4.483515   
524.000000	4.836371   
524.500000	5.248416   
525.000000	5.483803   
525.500000	5.616204   
526.000000	5.779333   
526.500000	6.109143   
527.000000	6.579022   
527.500000	7.119606   
528.000000	7.659386   
528.500000	7.974666   
529.000000	7.949962   
529.500000	7.860227   
530.000000	8.065151   
530.500000	8.748977   
531.000000	9.678090   
531.500000	10.563272  
532.000000	10.947856  
532.500000	10.952840  
533.000000	11.086818  
533.500000	11.847946  
534.000000	12.807250  
534.500000	13.311825  
535.000000	13.475818  
535.500000	13.655303  
536.000000	14.024310  
536.500000	14.366204  
537.000000	14.842287  
537.500000	15.648121  
538.000000	16.639628  
538.500000	17.413962  
539.000000	18.053901  
539.500000	18.569727  
540.000000	19.127916  
540.500000	19.871750  
541.000000	20.548969  
541.500000	21.006204  
542.000000	21.248848  
542.500000	21.531689  
543.000000	21.834310  
543.500000	21.924083  
544.000000	21.752954  
544.500000	21.763886  
545.000000	22.293068  
545.500000	22.939295  
546.000000	23.165840  
546.500000	23.108007  
547.000000	23.052477  
547.500000	23.107613  
548.000000	23.130522  
548.500000	23.112575  
549.000000	22.974378  
549.500000	23.034780  
550.000000	23.326143  
550.500000	23.422984  
551.000000	23.176689  
551.500000	22.901962  
552.000000	23.431704  
552.500000	24.563757  
553.000000	25.883780  
553.500000	26.951583  
554.000000	27.479750  
554.500000	27.407886  
555.000000	27.559590  
555.500000	28.664113  
556.000000	29.737500  
556.500000	30.437113  
557.000000	31.189772  
557.500000	32.550045  
558.000000	33.588431  
558.500000	34.426621  
559.000000	35.454787  
559.500000	37.000545  
560.000000	38.196734  
560.500000	39.009136  
561.000000	40.142227  
561.500000	41.062204  
562.000000	41.960356  
562.500000	43.502962  
563.000000	46.074424  
563.500000	47.922916  
564.000000	49.013522  
564.500000	49.776734  
565.000000	51.463333  
565.500000	53.238704  
566.000000	54.644931  
566.500000	54.991689  
567.000000	55.940560  
567.500000	57.702613  
568.000000	61.014431  
568.500000	63.270257  
569.000000	64.329174  
569.500000	64.151378  
570.000000	65.217249  
570.500000	66.532848  
571.000000	68.552037  
571.500000	70.395159  
572.000000	72.898393  
572.500000	75.447409  
573.000000	76.988803  
573.500000	77.316916  
574.000000	77.709742  
574.500000	79.688871  
575.000000	82.632378  
575.500000	84.976416  
576.000000	85.468015  
576.500000	85.906530  
577.000000	87.379250  
577.500000	90.563295  
578.000000	93.704621  
578.500000	96.389696  
579.000000	98.266901  
579.500000	99.989659  
580.000000	101.783166 
580.500000	104.118613 
581.000000	106.658727 
581.500000	109.043795 
582.000000	111.522030 
582.500000	114.104689 
583.000000	116.670803 
583.500000	118.429757 
584.000000	120.283704 
584.500000	122.608924 
585.000000	126.209636 
585.500000	129.385893 
586.000000	132.163750 
586.500000	133.577984 
587.000000	136.222143 
587.500000	139.601833 
588.000000	143.470924 
588.500000	146.559007 
589.000000	149.932742 
589.500000	154.120803 
590.000000	157.249772 
590.500000	159.510939 
591.000000	161.491075 
591.500000	164.844454 
592.000000	167.418765 
592.500000	169.473446 
593.000000	172.258765 
593.500000	177.272522 
594.000000	182.137053 
594.500000	185.469401 
595.000000	188.142787 
595.500000	191.608045 
596.000000	195.341689 
596.500000	198.822151 
597.000000	202.890151 
597.500000	207.923098 
598.000000	212.931000 
598.500000	216.311318 
599.000000	219.584075 
599.500000	223.771477 
600.000000	227.869348 
600.500000	231.483196 
601.000000	235.680901 
601.500000	241.496333 
602.000000	247.223863 
602.500000	250.601606 
603.000000	251.688583 
603.500000	254.205613 
604.000000	259.470462 
604.500000	265.503939 
605.000000	270.791621 
605.500000	274.752613 
606.000000	279.819886 
606.500000	285.044310 
607.000000	289.756303 
607.500000	292.737484 
608.000000	297.895712 
608.500000	304.476174 
609.000000	312.215393 
609.500000	317.908893 
610.000000	323.176803 
610.500000	327.893659 
611.000000	332.962628 
611.500000	337.338310 
612.000000	342.973446 
612.500000	349.357174 
613.000000	354.499287 
613.500000	358.670992 
614.000000	363.678477 
614.500000	369.709810 
615.000000	375.034037 
615.500000	379.474265 
616.000000	383.578007 
616.500000	388.131825 
617.000000	393.487492 
617.500000	400.852484 
618.000000	408.758310 
618.500000	414.091469 
619.000000	416.981719 
619.500000	420.727628 
620.000000	427.232484 
620.500000	435.318151 
621.000000	440.581825 
621.500000	442.720363 
622.000000	443.955174 
622.500000	448.509310 
623.000000	456.301462 
623.500000	465.807878 
624.000000	472.955689 
624.500000	478.108643 
625.000000	482.054075 
625.500000	485.669030 
626.000000	489.013916 
626.500000	492.777651 
627.000000	496.384507 
627.500000	499.934500 
628.000000	503.967598 
628.500000	509.087992 
629.000000	515.958689 
629.500000	522.021454 
630.000000	524.782871 
630.500000	525.864015 
631.000000	527.817249 
631.500000	532.011098 
632.000000	537.030007 
632.500000	538.717446 
633.000000	537.660553 
633.500000	537.693045 
634.000000	541.355462 
634.500000	544.793727 
635.000000	547.358446 
635.500000	548.559818 
636.000000	551.421681 
636.500000	552.670825 
637.000000	552.162545 
637.500000	551.008984 
638.000000	551.652060 
638.500000	551.447712 
639.000000	550.987318 
639.500000	551.554886 
640.000000	552.024916 
640.500000	550.774340 
641.000000	548.889106 
641.500000	548.752909 
642.000000	549.775757 
642.500000	550.625363 
643.000000	549.228689 
643.500000	546.719098 
644.000000	543.671613 
644.500000	542.234757 
645.000000	540.223901 
645.500000	536.611689 
646.000000	531.210204 
646.500000	527.719681 
647.000000	524.564840 
647.500000	520.873583 
648.000000	514.574477 
648.500000	510.887318 
649.000000	508.116590 
649.500000	505.764954 
650.000000	499.422901 
650.500000	493.017053 
651.000000	486.036696 
651.500000	480.722962 
652.000000	474.217037 
652.500000	468.765772 
653.000000	461.412121 
653.500000	453.648628 
654.000000	446.686363 
654.500000	442.753113 
655.000000	437.316492 
655.500000	428.480689 
656.000000	417.677689 
656.500000	408.408560 
657.000000	401.180992 
657.500000	394.837863 
658.000000	387.532621 
658.500000	378.333022 
659.000000	368.091287 
659.500000	359.531280 
660.000000	354.172000 
660.500000	349.054704 
661.000000	342.117234 
661.500000	332.704318 
662.000000	322.646833 
662.500000	313.525553 
663.000000	305.808477 
663.500000	298.465727 
664.000000	290.714939 
664.500000	283.332818 
665.000000	277.127969 
665.500000	270.937409 
666.000000	263.117598 
666.500000	254.683992 
667.000000	247.848674 
667.500000	240.970598 
668.000000	233.094265 
668.500000	224.101371 
669.000000	216.532159 
669.500000	211.006037 
670.000000	206.432431 
670.500000	200.528946 
671.000000	193.749727 
671.500000	186.638666 
672.000000	180.457348 
672.500000	174.286621 
673.000000	169.557333 
673.500000	165.955371 
674.000000	162.835719 
674.500000	157.081431 
675.000000	151.441613 
675.500000	147.341416 
676.000000	144.475113 
676.500000	139.972075 
677.000000	134.559454 
677.500000	129.483386 
678.000000	126.356068 
678.500000	123.440886 
679.000000	120.537621 
679.500000	117.350666 
680.000000	113.767803 
680.500000	109.682068 
681.000000	105.934250 
681.500000	103.231416 
682.000000	100.661590 
682.500000	97.958643  
683.000000	94.818772  
683.500000	93.004287  
684.000000	91.325999  
684.500000	88.893484  
685.000000	84.883386  
685.500000	80.949734  
686.000000	77.108651  
686.500000	74.614159  
687.000000	73.306242  
687.500000	72.775507  
688.000000	71.353704  
688.500000	68.906522  
689.000000	66.444818  
689.500000	64.458666  
690.000000	62.431727  
690.500000	60.076742  
691.000000	58.322848  
691.500000	57.052348  
692.000000	56.086295  
692.500000	55.011878  
693.000000	53.870242  
693.500000	52.197401  
694.000000	50.170636  
694.500000	48.072159  
695.000000	46.456416  
695.500000	45.304310  
696.000000	44.088250  
696.500000	42.789969  
697.000000	41.751560  
697.500000	41.276750  
698.000000	40.548416  
698.500000	39.265393  
699.000000	37.349371  
699.500000	36.186931  
700.000000	34.887378  
700.500000	34.693280  
701.000000	34.421348  
701.500000	34.564681  
702.000000	33.278446  
702.500000	32.082151  
703.000000	30.717818  
703.500000	30.466492  
704.000000	30.180053  
704.500000	30.015886  
705.000000	29.155833  
705.500000	28.171151  
706.000000	27.113492  
706.500000	26.993893  
707.000000	26.929265  
707.500000	26.665060  
708.000000	25.511560  
708.500000	24.802621  
709.000000	24.355636  
709.500000	23.942674  
710.000000	22.999651  
710.500000	22.229469  
711.000000	22.025931  
711.500000	21.893712  
712.000000	21.387583  
712.500000	21.109962  
713.000000	20.961121  
713.500000	20.700507  
714.000000	19.781553  
714.500000	18.984325  
715.000000	18.370704  
715.500000	18.194022  
716.000000	17.861575  
716.500000	17.828272  
717.000000	17.733939  
717.500000	17.558401  
718.000000	16.941318  
718.500000	16.218553  
719.000000	15.666719  
719.500000	15.590212  
720.000000	15.434787  
720.500000	15.252530  
721.000000	15.026833  
721.500000	14.937590  
722.000000	14.945007  
722.500000	14.728946  
723.000000	14.240053  
723.500000	13.580818  
724.000000	13.211856  
724.500000	13.299886  
725.000000	13.397780  
725.500000	12.963454  
726.000000	12.331575  
726.500000	11.784727  
727.000000	11.430280  
727.500000	11.295333  
728.000000	11.346037  
728.500000	11.424469  
729.000000	11.374575  
729.500000	11.164863  
730.000000	10.940015  
730.500000	10.616424  
731.000000	10.466674  
731.500000	10.475750  
732.000000	10.577613  
732.500000	10.400969  
733.000000	10.307659  
733.500000	10.366689  
734.000000	10.525181  
734.500000	10.479651  
735.000000	10.081704  
735.500000	9.414962   
736.000000	8.727143   
736.500000	8.552227   
737.000000	8.665340   
737.500000	8.695856   
738.000000	8.423984   
738.500000	8.374560   
739.000000	8.462772   
739.500000	8.428712   
740.000000	8.279454   
740.500000	8.199098   
741.000000	8.167613   
741.500000	8.080159   
742.000000	7.947348   
742.500000	7.986212   
743.000000	8.016075   
743.500000	8.118318   
744.000000	8.088128   
744.500000	8.114780   
745.000000	7.734696   
745.500000	7.396507   
746.000000	6.982742   
746.500000	7.080674   
747.000000	7.167575   
747.500000	7.159969   
748.000000	7.076863   
748.500000	7.281257   
749.000000	7.535696   
749.500000	7.309204   
750.000000	6.659545   
750.500000	6.230856   
751.000000	6.401848   
751.500000	6.807818   
752.000000	7.104007   
752.500000	7.091159   
753.000000	6.751454   
753.500000	6.345833   
754.000000	6.141818   
754.500000	6.003045   
755.000000	5.818386   
755.500000	5.509098   
756.000000	5.562712   
756.500000	5.682030   
757.000000	5.827128   
757.500000	5.686795   
758.000000	5.614234   
758.500000	5.496575   
759.000000	5.524287   
759.500000	5.480265   
760.000000	5.594075   
760.500000	5.688727   
761.000000	5.857765   
761.500000	5.805272   
762.000000	5.422439   
762.500000	4.984469   
763.000000	4.781401   
763.500000	4.949272   
764.000000	5.246840   
764.500000	5.297356   
765.000000	5.153878   
765.500000	5.003719   
766.000000	5.005477   
766.500000	4.864181   
767.000000	4.795825   
767.500000	4.571825   
768.000000	4.549893   
768.500000	4.560143   
769.000000	4.964863   
769.500000	5.362537   
770.000000	5.207136   
770.500000	4.852371   
771.000000	4.618090   
771.500000	4.717734   
772.000000	4.505196   
772.500000	4.373477   
773.000000	4.318969   
773.500000	4.483575   
774.000000	4.395863   
774.500000	4.173393   
775.000000	3.975250   
775.500000	3.791424   
776.000000	3.892924   
776.500000	3.927022   
777.000000	3.919303   
777.500000	3.792484   
778.000000	3.851204   
778.500000	3.812045   
779.000000	3.794765   
779.500000	3.834545   
780.000000	4.028613   
780.500000	4.024416   
781.000000	3.898871   
781.500000	3.781113   
782.000000	3.730386   
782.500000	3.617795   
783.000000	3.517916   
783.500000	3.563386   
784.000000	3.564803   
784.500000	3.446348   
785.000000	3.225553   
785.500000	3.266022   
786.000000	3.440318   
786.500000	3.611174   
787.000000	3.528234   
787.500000	3.310189   
788.000000	3.057303   
788.500000	3.082772   
789.000000	3.337136   
789.500000	3.650765   
790.000000	3.691227   
790.500000	3.567825   
791.000000	3.432803   
791.500000	3.404333   
792.000000	3.341515   
792.500000	3.352424   
793.000000	3.390136   
793.500000	3.390909   
794.000000	3.337196   
794.500000	3.336939   
795.000000	3.350825   
795.500000	3.294878   
796.000000	3.104750   
796.500000	3.034363   
797.000000	3.044454   
797.500000	3.059060   
798.000000	2.963462   
798.500000	2.881121   
799.000000	2.850590   
799.500000	2.869507   
800.000000	2.950833   
800.500000	3.072007   
801.000000	3.203469   
801.500000	3.081007   
802.000000	2.723613   
802.500000	2.502280   
803.000000	2.507719   
803.500000	2.628121   
804.000000	2.619174   
804.500000	2.660037   
805.000000	2.759257   
805.500000	2.789068   
806.000000	2.530583   
806.500000	2.371121   
807.000000	2.550181   
807.500000	2.776734   
808.000000	2.690287   
808.500000	2.379553   
809.000000	2.325575   
809.500000	2.570939   
810.000000	2.612772   
810.500000	2.362257   
811.000000	2.106310   
811.500000	2.149666   
812.000000	2.394469   
812.500000	2.487825   
813.000000	2.268401   
813.500000	1.938954   
814.000000	1.749128   
814.500000	1.666606   
815.000000	1.705780   
815.500000	1.891606   
816.000000	2.128318   
816.500000	2.140765   
817.000000	1.969212   
817.500000	1.925045   
818.000000	2.033553   
818.500000	2.096000   
819.000000	2.184446   
819.500000	2.328924   
820.000000	2.428181   
820.500000	2.404204   
821.000000	2.521333   
821.500000	2.754795   
822.000000	3.061204   
822.500000	2.941515   
823.000000	2.664810   
823.500000	2.384765   
824.000000	2.527333   
824.500000	2.617613   
825.000000	2.683590   
825.500000	2.527931   
826.000000	2.578037   
826.500000	2.694446   
827.000000	2.781833   
827.500000	2.592962   
828.000000	2.252204   
828.500000	1.994462   
829.000000	1.898250   
829.500000	1.781909   
830.000000	1.613333   
830.500000	1.549280   
831.000000	1.646893   
831.500000	1.596348   
832.000000	1.447409   
832.500000	1.363469   
833.000000	1.408007   
833.500000	1.368128   
834.000000	1.206909   
834.500000	0.986484   
835.000000	0.886295   
835.500000	0.892787   
836.000000	1.034924   
836.500000	1.054090   
837.000000	0.993893   
837.500000	0.823075   
838.000000	0.829128   
838.500000	0.796590   
839.000000	0.846196   
839.500000	0.838742   
840.000000	0.951249   
840.500000	0.886818   
841.000000	0.836196   
841.500000	0.812045   
842.000000	0.928757   
842.500000	0.829431   
843.000000	0.645340   
843.500000	0.462159   
844.000000	0.496818   
844.500000	0.494636   
845.000000	0.464318   
845.500000	0.441590   
846.000000	0.529303   
846.500000	0.486939   
847.000000	0.368613   
847.500000	0.291780   
848.000000	0.320174   
848.500000	0.301765   
849.000000	0.212439   
849.500000	0.105825   
850.000000	0.076810   
850.500000	0.097848   
851.000000	0.231287   
851.500000	0.385500   
852.000000	0.422227   
852.500000	0.339015   
853.000000	0.254257   
853.500000	0.236439   
854.000000	0.212795   
854.500000	0.177462   
855.000000	0.085499   
855.500000	0.049590   
856.000000	0.013272   
856.500000	0.092727   
857.000000	0.135742   
857.500000	0.195719   
858.000000	0.150462   
858.500000	0.102272   
859.000000	0.007818   
859.500000	0.031969   
860.000000	0.131045   
860.500000	0.272992   
861.000000	0.247878   
861.500000	0.102856   
862.000000	-0.016318  
862.500000	-0.022840  
863.000000	0.000212   
863.500000	0.014159   
864.000000	0.004999   
864.500000	0.135022   
865.000000	0.249787   
865.500000	0.305106   
866.000000	0.148159   
866.500000	-0.016181  
867.000000	-0.119265  
867.500000	-0.040833  
868.000000	0.036401   
868.500000	0.046992   
869.000000	-0.022500  
869.500000	-0.093598  
870.000000	-0.060424  
870.500000	0.022075   
871.000000	0.067363   
871.500000	0.019272   
872.000000	-0.074500  
872.500000	-0.129606  
873.000000	-0.123015  
873.500000	-0.060878  
874.000000	-0.065651  
874.500000	-0.098075  
875.000000	-0.102712  
875.500000	-0.007083  
876.000000	0.131946   
876.500000	0.196090   
877.000000	0.169280   
877.500000	0.096128   
878.000000	0.074121   
878.500000	0.080227   
879.000000	0.077621   
879.500000	0.031825   
880.000000	-0.006280  
880.500000	0.009856   
881.000000	0.017106   
881.500000	-0.001287  
882.000000	-0.068075  
882.500000	-0.038378  
883.000000	0.051946   
883.500000	0.145492   
884.000000	0.107242   
884.500000	0.050803   
885.000000	-0.044712  
885.500000	-0.089143  
886.000000	-0.142045  
886.500000	-0.156712  
887.000000	-0.175606  
887.500000	-0.153916  
888.000000	-0.131409  
888.500000	-0.084174  
889.000000	-0.050856  
889.500000	0.057787   
890.000000	0.115643   
890.500000	0.154984   
891.000000	0.109409   
891.500000	0.131530   
892.000000	0.091575   
892.500000	0.063871   
893.000000	0.031628   
893.500000	0.111431   
894.000000	0.184840   
894.500000	0.188189   
895.000000	0.092939   
895.500000	0.000310   
896.000000	-0.024250  
896.500000	-0.019606  
897.000000	0.019000   
897.500000	0.145575   
898.000000	0.244393   
898.500000	0.200530   
899.000000	0.043250   
899.500000	-0.041409  
900.000000	-0.028431  
900.500000	-0.000000  

