PE FL                   SPECTRUM    ASCII       PEDS        1.60        
  -1
S2_POST#01.SP
24/04/15
14:46:47.00
24/04/15
14:48:12.00
Jan

900.500000
1









LS55
405.00
5.00
5.00
SCAN
1
20
100
100
0
400
0
1
0
1
5
ON
900 405 
1 0 0
#HDR
-1
-1
#GR
NM

0.00002384185791015625
0.0
450.000000
0.500000
902
8
374.012901
-0.182075
#DATA
450.000000	0.403000   
450.500000	-0.070643  
451.000000	-0.093378  
451.500000	0.208363   
452.000000	0.401356   
452.500000	0.441560   
453.000000	0.389666   
453.500000	0.332166   
454.000000	0.258060   
454.500000	0.317068   
455.000000	0.402621   
455.500000	0.384159   
456.000000	0.276772   
456.500000	0.256719   
457.000000	0.290560   
457.500000	0.190454   
458.000000	0.026666   
458.500000	0.021492   
459.000000	0.265204   
459.500000	0.504113   
460.000000	0.575159   
460.500000	0.375068   
461.000000	0.209954   
461.500000	0.171825   
462.000000	0.368295   
462.500000	0.501022   
463.000000	0.555280   
463.500000	0.458696   
464.000000	0.473242   
464.500000	0.475189   
465.000000	0.428871   
465.500000	0.297446   
466.000000	0.213681   
466.500000	0.245143   
467.000000	0.235507   
467.500000	0.146166   
468.000000	0.017704   
468.500000	-0.019787  
469.000000	0.031098   
469.500000	0.061954   
470.000000	0.131856   
470.500000	0.127530   
471.000000	0.082249   
471.500000	-0.076189  
472.000000	-0.046159  
472.500000	0.122909   
473.000000	0.277522   
473.500000	0.223886   
474.000000	0.094007   
474.500000	0.030742   
475.000000	0.077969   
475.500000	0.229484   
476.000000	0.474000   
476.500000	0.471015   
477.000000	0.233159   
477.500000	-0.008015  
478.000000	0.110378   
478.500000	0.325681   
479.000000	0.364878   
479.500000	0.198727   
480.000000	0.174848   
480.500000	0.210378   
481.000000	0.222189   
481.500000	0.140689   
482.000000	0.130712   
482.500000	0.167522   
483.000000	0.207393   
483.500000	0.158333   
484.000000	0.213893   
484.500000	0.347643   
485.000000	0.374393   
485.500000	0.265500   
486.000000	0.081765   
486.500000	0.042386   
487.000000	0.008939   
487.500000	-0.099189  
488.000000	-0.133750  
488.500000	0.021545   
489.000000	0.322318   
489.500000	0.511348   
490.000000	0.441901   
490.500000	0.261931   
491.000000	0.219318   
491.500000	0.280219   
492.000000	0.272636   
492.500000	0.221848   
493.000000	0.265886   
493.500000	0.493227   
494.000000	0.577628   
494.500000	0.634431   
495.000000	0.723696   
495.500000	0.797159   
496.000000	0.593469   
496.500000	0.434772   
497.000000	0.432022   
497.500000	0.636348   
498.000000	0.661946   
498.500000	0.729757   
499.000000	0.776356   
499.500000	0.898310   
500.000000	0.836628   
500.500000	0.876704   
501.000000	0.841454   
501.500000	0.825424   
502.000000	0.837999   
502.500000	1.006969   
503.000000	1.139803   
503.500000	1.157727   
504.000000	1.106939   
504.500000	1.085659   
505.000000	1.108704   
505.500000	1.090068   
506.000000	1.155022   
506.500000	1.129106   
507.000000	1.040568   
507.500000	0.944265   
508.000000	1.186037   
508.500000	1.548651   
509.000000	1.804659   
509.500000	1.684469   
510.000000	1.634075   
510.500000	1.620643   
511.000000	1.591030   
511.500000	1.516446   
512.000000	1.746303   
512.500000	2.133424   
513.000000	2.365500   
513.500000	2.369462   
514.000000	2.469060   
514.500000	2.653575   
515.000000	2.805954   
515.500000	2.902871   
516.000000	3.012689   
516.500000	2.990765   
517.000000	2.941053   
517.500000	3.021212   
518.000000	3.302787   
518.500000	3.452613   
519.000000	3.415719   
519.500000	3.306659   
520.000000	3.367000   
520.500000	3.359136   
521.000000	3.456651   
521.500000	3.765704   
522.000000	4.277803   
522.500000	4.603340   
523.000000	4.907416   
523.500000	5.216378   
524.000000	5.656719   
524.500000	6.016560   
525.000000	6.474606   
525.500000	6.957250   
526.000000	7.297530   
526.500000	7.526681   
527.000000	7.943719   
527.500000	8.411727   
528.000000	8.890946   
528.500000	9.375151   
529.000000	9.747090   
529.500000	9.941674   
530.000000	10.152431  
530.500000	10.696818  
531.000000	11.578386  
531.500000	12.533454  
532.000000	13.302075  
532.500000	13.891121  
533.000000	14.241030  
533.500000	14.423492  
534.000000	14.518128  
534.500000	15.160696  
535.000000	16.117318  
535.500000	16.986901  
536.000000	17.438363  
536.500000	17.892371  
537.000000	18.581265  
537.500000	19.124856  
538.000000	19.320840  
538.500000	19.725280  
539.000000	20.704181  
539.500000	21.825765  
540.000000	22.718022  
540.500000	23.303916  
541.000000	23.709090  
541.500000	24.375401  
542.000000	25.157803  
542.500000	25.649272  
543.000000	25.413507  
543.500000	25.004765  
544.000000	24.871037  
544.500000	25.114401  
545.000000	25.391871  
545.500000	25.846833  
546.000000	26.146742  
546.500000	26.189901  
547.000000	26.028969  
547.500000	26.175553  
548.000000	26.366075  
548.500000	26.554227  
549.000000	26.837871  
549.500000	27.298628  
550.000000	27.900409  
550.500000	28.613363  
551.000000	29.070946  
551.500000	29.114007  
552.000000	29.443901  
552.500000	30.407265  
553.000000	31.240909  
553.500000	31.585613  
554.000000	31.796363  
554.500000	32.593106  
555.000000	33.558621  
555.500000	34.360409  
556.000000	34.979212  
556.500000	36.298969  
557.000000	37.777204  
557.500000	38.857303  
558.000000	39.096795  
558.500000	39.595537  
559.000000	40.632469  
559.500000	41.779924  
560.000000	42.902803  
560.500000	44.287409  
561.000000	45.712492  
561.500000	46.833643  
562.000000	48.303598  
562.500000	49.675045  
563.000000	50.870712  
563.500000	51.415871  
564.000000	52.171098  
564.500000	53.531674  
565.000000	55.384856  
565.500000	56.907348  
566.000000	58.106030  
566.500000	58.815613  
567.000000	59.391946  
567.500000	59.803462  
568.000000	60.415787  
568.500000	61.629492  
569.000000	63.470318  
569.500000	65.086984  
570.000000	66.723499  
570.500000	67.766666  
571.000000	68.485121  
571.500000	69.189727  
572.000000	70.807484  
572.500000	72.244075  
573.000000	73.962545  
573.500000	75.407204  
574.000000	77.161946  
574.500000	78.065000  
575.000000	79.006757  
575.500000	80.402037  
576.000000	82.762159  
576.500000	85.252151  
577.000000	87.424628  
577.500000	88.982818  
578.000000	90.372969  
578.500000	91.741772  
579.000000	92.990106  
579.500000	93.792409  
580.000000	94.568977  
580.500000	95.986318  
581.000000	98.132386  
581.500000	100.751765 
582.000000	103.559757 
582.500000	106.010484 
583.000000	107.268780 
583.500000	108.361060 
584.000000	110.042053 
584.500000	111.943272 
585.000000	113.901348 
585.500000	115.708340 
586.000000	117.924106 
586.500000	120.421234 
587.000000	122.478325 
587.500000	123.570962 
588.000000	123.945416 
588.500000	126.038886 
589.000000	129.369287 
589.500000	132.872780 
590.000000	133.454106 
590.500000	134.178856 
591.000000	135.898681 
591.500000	138.567984 
592.000000	140.775045 
592.500000	143.392424 
593.000000	146.160242 
593.500000	147.576250 
594.000000	148.992340 
594.500000	151.883992 
595.000000	155.493780 
595.500000	156.919969 
596.000000	156.920068 
596.500000	158.977780 
597.000000	163.503560 
597.500000	168.067242 
598.000000	170.333833 
598.500000	171.688212 
599.000000	173.099681 
599.500000	175.428977 
600.000000	178.604431 
600.500000	182.508454 
601.000000	185.464871 
601.500000	187.421636 
602.000000	189.058727 
602.500000	191.994000 
603.000000	194.685318 
603.500000	197.059181 
604.000000	199.539106 
604.500000	203.050310 
605.000000	206.871219 
605.500000	210.766825 
606.000000	215.110969 
606.500000	218.618265 
607.000000	220.837265 
607.500000	222.187643 
608.000000	224.215795 
608.500000	226.512287 
609.000000	229.722893 
609.500000	233.992863 
610.000000	238.992454 
610.500000	242.581136 
611.000000	243.931909 
611.500000	245.125310 
612.000000	248.116522 
612.500000	252.724340 
613.000000	256.799212 
613.500000	260.440128 
614.000000	263.894704 
614.500000	267.348515 
615.000000	269.954136 
615.500000	272.503000 
616.000000	274.889219 
616.500000	277.595234 
617.000000	280.176916 
617.500000	283.272280 
618.000000	287.168098 
618.500000	291.602212 
619.000000	295.994780 
619.500000	299.703227 
620.000000	302.519984 
620.500000	304.490553 
621.000000	306.738878 
621.500000	308.552537 
622.000000	311.114946 
622.500000	314.072431 
623.000000	317.884696 
623.500000	321.365984 
624.000000	325.558515 
624.500000	328.724954 
625.000000	332.247250 
625.500000	334.665159 
626.000000	336.718090 
626.500000	339.049636 
627.000000	342.899060 
627.500000	345.431325 
628.000000	346.635484 
628.500000	347.842840 
629.000000	351.500015 
629.500000	355.951977 
630.000000	357.544999 
630.500000	357.423477 
631.000000	358.642272 
631.500000	361.009151 
632.000000	363.159446 
632.500000	364.968901 
633.000000	366.392939 
633.500000	367.658553 
634.000000	368.389515 
634.500000	369.677250 
635.000000	371.530068 
635.500000	372.985674 
636.000000	373.540757 
636.500000	373.639553 
637.000000	372.349007 
637.500000	370.593045 
638.000000	370.045189 
638.500000	372.317295 
639.000000	374.012901 
639.500000	372.606780 
640.000000	370.670431 
640.500000	369.366500 
641.000000	368.350340 
641.500000	364.934477 
642.000000	362.887340 
642.500000	362.754310 
643.000000	364.655992 
643.500000	363.408666 
644.000000	360.056143 
644.500000	356.357378 
645.000000	354.738750 
645.500000	353.424333 
646.000000	349.968886 
646.500000	344.023560 
647.000000	338.572939 
647.500000	334.433257 
648.000000	330.729734 
648.500000	326.241083 
649.000000	322.082810 
649.500000	318.100409 
650.000000	314.297318 
650.500000	310.578022 
651.000000	306.999454 
651.500000	302.626045 
652.000000	297.103765 
652.500000	293.598310 
653.000000	289.960992 
653.500000	285.320106 
654.000000	277.756333 
654.500000	272.179333 
655.000000	265.524628 
655.500000	258.622833 
656.000000	250.124803 
656.500000	245.169409 
657.000000	240.952636 
657.500000	236.713893 
658.000000	230.615250 
658.500000	224.847901 
659.000000	219.466106 
659.500000	214.299931 
660.000000	208.102393 
660.500000	202.650219 
661.000000	198.333621 
661.500000	195.025500 
662.000000	188.275901 
662.500000	180.322446 
663.000000	173.709772 
663.500000	170.711522 
664.000000	167.179568 
664.500000	162.637265 
665.000000	157.459856 
665.500000	153.379030 
666.000000	149.424075 
666.500000	143.815060 
667.000000	137.398469 
667.500000	131.352121 
668.000000	127.000727 
668.500000	123.220212 
669.000000	119.886053 
669.500000	116.084492 
670.000000	113.132954 
670.500000	110.100424 
671.000000	107.154287 
671.500000	103.586000 
672.000000	100.509772 
672.500000	97.276022  
673.000000	94.524356  
673.500000	91.418909  
674.000000	88.849962  
674.500000	85.901643  
675.000000	82.595060  
675.500000	78.986431  
676.000000	76.619318  
676.500000	74.962333  
677.000000	73.219083  
677.500000	70.988962  
678.000000	68.825916  
678.500000	67.004545  
679.000000	65.138666  
679.500000	63.241030  
680.000000	61.031992  
680.500000	58.735378  
681.000000	56.703060  
681.500000	55.132992  
682.000000	53.925901  
682.500000	51.788492  
683.000000	49.638628  
683.500000	47.640371  
684.000000	47.465446  
684.500000	46.687848  
685.000000	45.166757  
685.500000	42.306863  
686.000000	41.336818  
686.500000	41.125704  
687.000000	40.913439  
687.500000	39.164560  
688.000000	37.648409  
688.500000	36.311090  
689.000000	35.271446  
689.500000	33.943143  
690.000000	33.437636  
690.500000	32.759757  
691.000000	31.733378  
691.500000	30.193772  
692.000000	29.603318  
692.500000	29.585515  
693.000000	29.365946  
693.500000	28.358015  
694.000000	27.047151  
694.500000	26.221393  
695.000000	25.615727  
695.500000	25.292151  
696.000000	24.585446  
696.500000	23.744310  
697.000000	22.885227  
697.500000	22.349969  
698.000000	21.982068  
698.500000	21.435825  
699.000000	20.670310  
699.500000	19.977022  
700.000000	19.718674  
700.500000	19.410803  
701.000000	18.912234  
701.500000	18.299689  
702.000000	17.914916  
702.500000	17.705515  
703.000000	17.361704  
703.500000	16.852795  
704.000000	16.492977  
704.500000	16.372712  
705.000000	16.150333  
705.500000	15.854840  
706.000000	15.387280  
706.500000	15.194492  
707.000000	15.070037  
707.500000	15.141189  
708.000000	14.868303  
708.500000	14.321257  
709.000000	13.457098  
709.500000	13.160060  
710.000000	13.250477  
710.500000	13.277310  
711.000000	12.579333  
711.500000	11.578446  
712.000000	11.200371  
712.500000	11.598924  
713.000000	12.182393  
713.500000	12.142325  
714.000000	11.894234  
714.500000	11.581886  
715.000000	11.442075  
715.500000	11.030424  
716.000000	10.797772  
716.500000	10.870583  
717.000000	11.132924  
717.500000	11.180189  
718.000000	10.921750  
718.500000	10.746250  
719.000000	10.573583  
719.500000	10.462060  
720.000000	10.034469  
720.500000	9.828212   
721.000000	9.440651   
721.500000	9.129227   
722.000000	8.557393   
722.500000	8.407757   
723.000000	8.354272   
723.500000	8.456234   
724.000000	8.246333   
724.500000	8.204621   
725.000000	8.385469   
725.500000	8.708098   
726.000000	8.584674   
726.500000	7.925030   
727.000000	7.426037   
727.500000	7.544212   
728.000000	7.850810   
728.500000	7.874204   
729.000000	7.790886   
729.500000	7.736833   
730.000000	7.775636   
730.500000	7.667037   
731.000000	7.593257   
731.500000	7.362659   
732.000000	7.218393   
732.500000	6.895795   
733.000000	6.966606   
733.500000	7.102689   
734.000000	7.431265   
734.500000	7.483803   
735.000000	7.314825   
735.500000	7.003992   
736.000000	6.598636   
736.500000	6.266393   
737.000000	6.102234   
737.500000	6.263234   
738.000000	6.335969   
738.500000	6.413022   
739.000000	6.313901   
739.500000	6.233469   
740.000000	6.077386   
740.500000	6.078893   
741.000000	6.068545   
741.500000	6.073272   
742.000000	5.912287   
742.500000	5.850037   
743.000000	5.741590   
743.500000	5.554053   
744.000000	5.265409   
744.500000	5.049750   
745.000000	5.048416   
745.500000	5.541590   
746.000000	6.020636   
746.500000	6.110659   
747.000000	5.663212   
747.500000	5.316666   
748.000000	5.203287   
748.500000	5.341977   
749.000000	5.329651   
749.500000	5.314454   
750.000000	5.182946   
750.500000	5.168568   
751.000000	5.081780   
751.500000	5.059598   
752.000000	4.934818   
752.500000	5.000371   
753.000000	4.936121   
753.500000	4.815984   
754.000000	4.600015   
754.500000	4.665090   
755.000000	4.841621   
755.500000	4.904666   
756.000000	4.553121   
756.500000	4.172333   
757.000000	4.147537   
757.500000	4.615530   
758.000000	4.914772   
758.500000	4.745515   
759.000000	4.322106   
759.500000	4.125545   
760.000000	4.234325   
760.500000	4.307613   
761.000000	4.250901   
761.500000	4.211015   
762.000000	4.316280   
762.500000	4.267083   
763.000000	3.993727   
763.500000	3.778121   
764.000000	3.927015   
764.500000	4.161651   
765.000000	4.164106   
765.500000	4.071621   
766.000000	4.144568   
766.500000	4.141325   
767.000000	3.951553   
767.500000	3.631143   
768.000000	3.485454   
768.500000	3.643530   
769.000000	3.847477   
769.500000	3.915719   
770.000000	3.880992   
770.500000	3.796818   
771.000000	3.606454   
771.500000	3.477030   
772.000000	3.585250   
772.500000	3.866999   
773.000000	3.930204   
773.500000	3.661500   
774.000000	3.385628   
774.500000	3.264530   
775.000000	3.264924   
775.500000	3.341969   
776.000000	3.439166   
776.500000	3.451022   
777.000000	3.368818   
777.500000	3.268053   
778.000000	3.202840   
778.500000	3.175007   
779.000000	3.186492   
779.500000	3.241659   
780.000000	3.382553   
780.500000	3.407553   
781.000000	3.315696   
781.500000	3.112181   
782.000000	3.054462   
782.500000	3.067628   
783.000000	3.094750   
783.500000	3.050000   
784.000000	2.969439   
784.500000	2.965083   
785.000000	2.972325   
785.500000	3.008984   
786.000000	2.916204   
786.500000	2.859340   
787.000000	2.871825   
787.500000	2.992583   
788.000000	3.083848   
788.500000	3.086234   
789.000000	3.063265   
789.500000	3.073469   
790.000000	3.006590   
790.500000	2.875424   
791.000000	2.748128   
791.500000	2.781212   
792.000000	2.921568   
792.500000	3.120075   
793.000000	3.238848   
793.500000	3.179871   
794.000000	2.956621   
794.500000	2.696598   
795.000000	2.685871   
795.500000	2.822833   
796.000000	2.930174   
796.500000	2.974295   
797.000000	2.908719   
797.500000	2.803992   
798.000000	2.635121   
798.500000	2.640909   
799.000000	2.699045   
799.500000	2.807772   
800.000000	2.780431   
800.500000	2.694803   
801.000000	2.589431   
801.500000	2.312500   
802.000000	2.204166   
802.500000	2.060901   
803.000000	2.142121   
803.500000	2.139916   
804.000000	2.257090   
804.500000	2.257363   
805.000000	2.308992   
805.500000	2.234969   
806.000000	2.153393   
806.500000	2.136272   
807.000000	2.234484   
807.500000	2.316212   
808.000000	2.275454   
808.500000	2.306848   
809.000000	2.505166   
809.500000	2.612007   
810.000000	2.538810   
810.500000	2.387568   
811.000000	2.225098   
811.500000	2.090242   
812.000000	1.996000   
812.500000	1.965962   
813.000000	1.867681   
813.500000	1.614757   
814.000000	1.440901   
814.500000	1.336893   
815.000000	1.422454   
815.500000	1.538500   
816.000000	1.807174   
816.500000	1.926159   
817.000000	1.995227   
817.500000	1.990022   
818.000000	2.039128   
818.500000	2.007098   
819.000000	1.913015   
819.500000	1.812462   
820.000000	1.784068   
820.500000	1.918742   
821.000000	2.144015   
821.500000	2.435484   
822.000000	2.640106   
822.500000	2.819969   
823.000000	2.910401   
823.500000	2.987840   
824.000000	2.803954   
824.500000	2.535371   
825.000000	2.304462   
825.500000	2.273606   
826.000000	2.461439   
826.500000	2.462500   
827.000000	2.381674   
827.500000	2.247424   
828.000000	2.314416   
828.500000	2.225318   
829.000000	2.095310   
829.500000	1.837712   
830.000000	1.711462   
830.500000	1.524287   
831.000000	1.346742   
831.500000	1.255113   
832.000000	1.238310   
832.500000	1.347931   
833.000000	1.470219   
833.500000	1.523553   
834.000000	1.355772   
834.500000	1.259250   
835.000000	1.236621   
835.500000	1.341840   
836.000000	1.268681   
836.500000	1.211659   
837.000000	1.193507   
837.500000	1.177318   
838.000000	0.979454   
838.500000	0.712818   
839.000000	0.626750   
839.500000	0.685977   
840.000000	0.746249   
840.500000	0.734121   
841.000000	0.786575   
841.500000	0.843522   
842.000000	0.788446   
842.500000	0.670196   
843.000000	0.713772   
843.500000	0.800575   
844.000000	0.666136   
844.500000	0.441090   
845.000000	0.303780   
845.500000	0.378424   
846.000000	0.448931   
846.500000	0.377250   
847.000000	0.224363   
847.500000	0.086954   
848.000000	0.039128   
848.500000	0.138250   
849.000000	0.402696   
849.500000	0.489159   
850.000000	0.379606   
850.500000	0.087371   
851.000000	0.008916   
851.500000	0.046696   
852.000000	0.091439   
852.500000	0.048477   
853.000000	0.062878   
853.500000	0.086636   
854.000000	0.130075   
854.500000	0.131825   
855.000000	0.105356   
855.500000	0.020007   
856.000000	0.022651   
856.500000	0.106515   
857.000000	0.162060   
857.500000	0.079378   
858.000000	0.011621   
858.500000	0.069924   
859.000000	0.131060   
859.500000	0.087522   
860.000000	-0.026621  
860.500000	-0.030303  
861.000000	0.017696   
861.500000	0.055787   
862.000000	0.004136   
862.500000	0.004113   
863.000000	0.049696   
863.500000	0.106962   
864.000000	0.074924   
864.500000	0.034704   
865.000000	-0.021590  
865.500000	-0.031272  
866.000000	-0.053090  
866.500000	-0.033462  
867.000000	0.001575   
867.500000	0.087916   
868.000000	0.171037   
868.500000	0.204810   
869.000000	0.160333   
869.500000	0.092409   
870.000000	0.034575   
870.500000	0.038696   
871.000000	0.088310   
871.500000	0.150121   
872.000000	0.151469   
872.500000	0.118977   
873.000000	0.049462   
873.500000	-0.041984  
874.000000	-0.182075  
874.500000	-0.160007  
875.000000	0.007999   
875.500000	0.192909   
876.000000	0.202386   
876.500000	0.088704   
877.000000	-0.037704  
877.500000	-0.081446  
878.000000	-0.081674  
878.500000	-0.138575  
879.000000	-0.136522  
879.500000	-0.056340  
880.000000	0.119113   
880.500000	0.168234   
881.000000	0.107265   
881.500000	-0.026757  
882.000000	-0.077643  
882.500000	-0.139446  
883.000000	-0.151462  
883.500000	-0.154606  
884.000000	-0.121083  
884.500000	-0.020909  
885.000000	0.118090   
885.500000	0.179871   
886.000000	0.084787   
886.500000	-0.033659  
887.000000	-0.064727  
887.500000	0.038901   
888.000000	0.105856   
888.500000	0.102795   
889.000000	0.050356   
889.500000	0.009545   
890.000000	0.001166   
890.500000	0.005424   
891.000000	0.009484   
891.500000	0.038446   
892.000000	-0.036159  
892.500000	-0.066689  
893.000000	-0.098712  
893.500000	0.015280   
894.000000	0.018757   
894.500000	0.158636   
895.000000	0.199416   
895.500000	0.276969   
896.000000	0.116568   
896.500000	0.040825   
897.000000	0.030174   
897.500000	0.103537   
898.000000	0.061666   
898.500000	-0.070121  
899.000000	-0.172772  
899.500000	-0.115931  
900.000000	0.179356   
900.500000	0.608000   

