PE FL                   SPECTRUM    ASCII       PEDS        1.60        
  -1
S12#05.SP
24/04/15
15:01:59.00
24/04/15
15:03:24.00
Jan

900.500000
1









LS55
405.00
5.00
5.00
SCAN
1
20
100
100
0
400
0
1
0
1
5
ON
900 405 
1 0 0
#HDR
-1
-1
#GR
NM

0.00002384185791015625
0.0
450.000000
0.500000
902
8
334.161545
-0.812999
#DATA
450.000000	-0.812999  
450.500000	-0.381530  
451.000000	-0.095401  
451.500000	-0.015340  
452.000000	-0.037674  
452.500000	-0.056439  
453.000000	0.009227   
453.500000	0.069068   
454.000000	0.018750   
454.500000	-0.090325  
455.000000	-0.082719  
455.500000	-0.041886  
456.000000	-0.074272  
456.500000	-0.116303  
457.000000	-0.047969  
457.500000	0.040151   
458.000000	0.115174   
458.500000	0.204651   
459.000000	0.301113   
459.500000	0.285174   
460.000000	0.262977   
460.500000	0.276795   
461.000000	0.275992   
461.500000	0.109401   
462.000000	-0.102818  
462.500000	-0.179424  
463.000000	0.019560   
463.500000	0.280795   
464.000000	0.412583   
464.500000	0.276727   
465.000000	0.152765   
465.500000	0.198280   
466.000000	0.345090   
466.500000	0.216515   
467.000000	0.010621   
467.500000	-0.154946  
468.000000	-0.095325  
468.500000	-0.095219  
469.000000	-0.015992  
469.500000	0.105196   
470.000000	0.285712   
470.500000	0.325083   
471.000000	0.278848   
471.500000	0.132007   
472.000000	0.061492   
472.500000	0.050280   
473.000000	0.051287   
473.500000	-0.090249  
474.000000	-0.303234  
474.500000	-0.380378  
475.000000	-0.286272  
475.500000	-0.142219  
476.000000	-0.152810  
476.500000	-0.218924  
477.000000	-0.287734  
477.500000	-0.128954  
478.000000	-0.021484  
478.500000	0.149969   
479.000000	0.159393   
479.500000	0.154068   
480.000000	0.041999   
480.500000	0.022113   
481.000000	-0.028689  
481.500000	-0.061295  
482.000000	-0.091712  
482.500000	0.003886   
483.000000	0.085780   
483.500000	0.033583   
484.000000	-0.029204  
484.500000	0.033416   
485.000000	0.138113   
485.500000	0.174363   
486.000000	0.219401   
486.500000	0.192242   
487.000000	0.068325   
487.500000	-0.004295  
488.000000	0.154575   
488.500000	0.306522   
489.000000	0.233962   
489.500000	0.017568   
490.000000	-0.040249  
490.500000	-0.008803  
491.000000	-0.023924  
491.500000	-0.112583  
492.000000	-0.031295  
492.500000	-0.113416  
493.000000	-0.213272  
493.500000	-0.308613  
494.000000	0.056712   
494.500000	0.262348   
495.000000	0.381250   
495.500000	0.295636   
496.000000	0.447454   
496.500000	0.466734   
497.000000	0.468280   
497.500000	0.479734   
498.000000	0.670878   
498.500000	0.674924   
499.000000	0.544977   
499.500000	0.486750   
500.000000	0.657734   
500.500000	0.820787   
501.000000	0.864492   
501.500000	0.818204   
502.000000	0.859825   
502.500000	0.973492   
503.000000	1.175371   
503.500000	1.332643   
504.000000	1.450621   
504.500000	1.454803   
505.000000	1.463613   
505.500000	1.461401   
506.000000	1.461234   
506.500000	1.590007   
507.000000	1.995992   
507.500000	2.484439   
508.000000	2.626219   
508.500000	2.554749   
509.000000	2.479166   
509.500000	2.598583   
510.000000	2.608053   
510.500000	2.648515   
511.000000	2.768704   
511.500000	2.889674   
512.000000	2.804795   
512.500000	2.787469   
513.000000	2.905893   
513.500000	2.990863   
514.000000	2.887712   
514.500000	2.866424   
515.000000	3.162189   
515.500000	3.453303   
516.000000	3.529954   
516.500000	3.511893   
517.000000	3.547780   
517.500000	3.484992   
518.000000	3.434083   
518.500000	3.588818   
519.000000	3.818446   
519.500000	3.828143   
520.000000	3.553939   
520.500000	3.467280   
521.000000	3.627742   
521.500000	3.897712   
522.000000	3.947333   
522.500000	3.814598   
523.000000	3.746000   
523.500000	3.868037   
524.000000	4.167098   
524.500000	4.120833   
525.000000	3.801704   
525.500000	3.446242   
526.000000	3.529666   
526.500000	4.113568   
527.000000	4.878500   
527.500000	5.384287   
528.000000	5.551840   
528.500000	5.515484   
529.000000	5.350287   
529.500000	5.180196   
530.000000	5.423090   
530.500000	5.739969   
531.000000	6.181386   
531.500000	6.238757   
532.000000	6.539287   
532.500000	6.810727   
533.000000	7.234462   
533.500000	7.377333   
534.000000	7.506765   
534.500000	7.748719   
535.000000	8.186446   
535.500000	8.681272   
536.000000	8.957128   
536.500000	9.377310   
537.000000	10.078848  
537.500000	10.912212  
538.000000	11.603446  
538.500000	12.125378  
539.000000	12.477462  
539.500000	12.584424  
540.000000	12.814007  
540.500000	13.536303  
541.000000	14.696045  
541.500000	15.571083  
542.000000	15.530484  
542.500000	14.942462  
543.000000	14.385174  
543.500000	14.354310  
544.000000	14.240613  
544.500000	13.907174  
545.000000	13.265590  
545.500000	12.584159  
546.000000	11.525825  
546.500000	10.460477  
547.000000	9.595833   
547.500000	9.177371   
548.000000	8.563780   
548.500000	7.981204   
549.000000	7.539250   
549.500000	7.611340   
550.000000	7.349810   
550.500000	6.589643   
551.000000	5.441621   
551.500000	4.880484   
552.000000	5.018325   
552.500000	5.031803   
553.000000	4.665098   
553.500000	4.070015   
554.000000	3.920409   
554.500000	3.723121   
555.000000	3.559333   
555.500000	3.244931   
556.000000	3.229174   
556.500000	3.198507   
557.000000	3.309143   
557.500000	3.428060   
558.000000	3.504378   
558.500000	3.595477   
559.000000	3.701628   
559.500000	3.786128   
560.000000	3.706363   
560.500000	3.526128   
561.000000	3.288287   
561.500000	3.248257   
562.000000	3.330818   
562.500000	3.432227   
563.000000	3.424045   
563.500000	3.342128   
564.000000	3.424143   
564.500000	3.445363   
565.000000	3.480810   
565.500000	3.574378   
566.000000	3.882234   
566.500000	3.901704   
567.000000	3.648325   
567.500000	3.263212   
568.000000	3.206386   
568.500000	3.265681   
569.000000	3.297439   
569.500000	3.232545   
570.000000	3.218446   
570.500000	3.282909   
571.000000	3.324583   
571.500000	3.257727   
572.000000	3.198666   
572.500000	3.328666   
573.000000	3.537537   
573.500000	3.653734   
574.000000	3.708492   
574.500000	3.860992   
575.000000	3.945553   
575.500000	3.814242   
576.000000	3.680439   
576.500000	3.662992   
577.000000	3.654484   
577.500000	3.527128   
578.000000	3.646499   
578.500000	3.862878   
579.000000	4.062553   
579.500000	4.039439   
580.000000	4.031128   
580.500000	3.885666   
581.000000	3.743060   
581.500000	3.744863   
582.000000	3.922007   
582.500000	3.936272   
583.000000	3.758530   
583.500000	3.545007   
584.000000	3.689613   
584.500000	3.841924   
585.000000	3.980803   
585.500000	3.876416   
586.000000	3.973704   
586.500000	4.189500   
587.000000	4.440454   
587.500000	4.272318   
588.000000	3.887439   
588.500000	3.928280   
589.000000	4.278257   
589.500000	4.667484   
590.000000	4.585643   
590.500000	4.582227   
591.000000	4.647992   
591.500000	4.753250   
592.000000	4.524090   
592.500000	4.416113   
593.000000	4.431477   
593.500000	4.591022   
594.000000	4.415174   
594.500000	4.421166   
595.000000	4.598984   
595.500000	5.197795   
596.000000	5.433818   
596.500000	5.443696   
597.000000	5.119462   
597.500000	4.959204   
598.000000	5.054780   
598.500000	5.293833   
599.000000	5.623946   
599.500000	5.665204   
600.000000	5.646257   
600.500000	5.784333   
601.000000	6.017621   
601.500000	6.189022   
602.000000	5.924818   
602.500000	5.963022   
603.000000	6.165696   
603.500000	6.723015   
604.000000	6.923689   
604.500000	6.996878   
605.000000	6.941924   
605.500000	6.874060   
606.000000	7.000128   
606.500000	7.108431   
607.000000	7.360795   
607.500000	7.402878   
608.000000	7.706689   
608.500000	8.146833   
609.000000	8.691878   
609.500000	9.069265   
610.000000	9.256121   
610.500000	9.725393   
611.000000	10.286151  
611.500000	10.720787  
612.000000	10.672507  
612.500000	10.729151  
613.000000	10.938613  
613.500000	11.374765  
614.000000	11.671969  
614.500000	12.135719  
615.000000	12.396909  
615.500000	12.531401  
616.000000	12.765704  
616.500000	13.423946  
617.000000	13.804227  
617.500000	13.724151  
618.000000	13.702068  
618.500000	14.272545  
619.000000	15.371075  
619.500000	16.324969  
620.000000	16.971537  
620.500000	17.441583  
621.000000	17.912318  
621.500000	18.364659  
622.000000	18.818090  
622.500000	19.337696  
623.000000	20.069121  
623.500000	21.123166  
624.000000	22.438992  
624.500000	23.626181  
625.000000	24.367159  
625.500000	24.853734  
626.000000	25.893750  
626.500000	27.335522  
627.000000	28.582106  
627.500000	29.498128  
628.000000	30.515424  
628.500000	31.524242  
629.000000	32.639825  
629.500000	33.393750  
630.000000	34.187060  
630.500000	35.208386  
631.000000	36.935166  
631.500000	38.673545  
632.000000	40.326613  
632.500000	42.075325  
633.000000	44.036522  
633.500000	45.812833  
634.000000	46.829484  
634.500000	48.144181  
635.000000	49.814439  
635.500000	51.934386  
636.000000	53.597257  
636.500000	55.762265  
637.000000	58.016984  
637.500000	60.537136  
638.000000	62.537530  
638.500000	65.111492  
639.000000	67.807272  
639.500000	70.198242  
640.000000	71.382446  
640.500000	72.816000  
641.000000	75.499446  
641.500000	78.612022  
642.000000	80.940840  
642.500000	82.841689  
643.000000	85.316590  
643.500000	88.657143  
644.000000	92.132492  
644.500000	94.687992  
645.000000	97.329143  
645.500000	100.322295 
646.000000	103.488833 
646.500000	105.820128 
647.000000	108.044553 
647.500000	109.918462 
648.000000	112.752916 
648.500000	116.140992 
649.000000	120.644098 
649.500000	124.869590 
650.000000	128.145901 
650.500000	131.469674 
651.000000	135.525553 
651.500000	139.869310 
652.000000	143.510772 
652.500000	147.630992 
653.000000	152.074924 
653.500000	156.289719 
654.000000	159.163583 
654.500000	161.778424 
655.000000	165.199272 
655.500000	169.296007 
656.000000	173.488931 
656.500000	178.053060 
657.000000	183.034409 
657.500000	187.274030 
658.000000	190.771348 
658.500000	193.923734 
659.000000	197.877780 
659.500000	201.158575 
660.000000	204.232060 
660.500000	206.671227 
661.000000	210.229863 
661.500000	215.043227 
662.000000	221.052318 
662.500000	227.158893 
663.000000	231.510560 
663.500000	235.669742 
664.000000	239.470984 
664.500000	243.777545 
665.000000	246.653734 
665.500000	249.826931 
666.000000	252.552522 
666.500000	256.280477 
667.000000	261.071674 
667.500000	266.821121 
668.000000	271.025886 
668.500000	273.618613 
669.000000	275.136999 
669.500000	277.375787 
670.000000	278.713984 
670.500000	279.998863 
671.000000	283.244151 
671.500000	288.869446 
672.000000	294.475469 
672.500000	297.194446 
673.000000	298.926143 
673.500000	300.180477 
674.000000	303.370515 
674.500000	305.884871 
675.000000	309.162000 
675.500000	311.605962 
676.000000	313.898856 
676.500000	314.973189 
677.000000	315.851681 
677.500000	316.084151 
678.000000	316.076598 
678.500000	318.073916 
679.000000	321.345757 
679.500000	324.530628 
680.000000	323.864121 
680.500000	321.700848 
681.000000	321.341356 
681.500000	325.410409 
682.000000	330.900295 
682.500000	334.161545 
683.000000	333.467000 
683.500000	331.093825 
684.000000	329.393060 
684.500000	329.818295 
685.000000	330.595439 
685.500000	331.246681 
686.000000	329.746825 
686.500000	326.286212 
687.000000	321.790750 
687.500000	318.847515 
688.000000	317.464356 
688.500000	317.604333 
689.000000	316.871325 
689.500000	313.544553 
690.000000	308.182090 
690.500000	304.075340 
691.000000	302.187840 
691.500000	301.205401 
692.000000	297.379174 
692.500000	293.422772 
693.000000	289.304537 
693.500000	285.417848 
694.000000	279.991477 
694.500000	275.463121 
695.000000	271.531151 
695.500000	267.870590 
696.000000	262.461909 
696.500000	257.031348 
697.000000	251.407098 
697.500000	246.224734 
698.000000	240.838295 
698.500000	235.179356 
699.000000	228.857257 
699.500000	222.942553 
700.000000	217.492424 
700.500000	212.538265 
701.000000	207.044265 
701.500000	201.913825 
702.000000	197.648242 
702.500000	193.387659 
703.000000	188.639553 
703.500000	183.549083 
704.000000	179.091750 
704.500000	174.336621 
705.000000	170.076530 
705.500000	165.342924 
706.000000	161.375333 
706.500000	157.158780 
707.000000	153.003522 
707.500000	148.150969 
708.000000	143.075924 
708.500000	138.844287 
709.000000	134.420174 
709.500000	130.214431 
710.000000	126.505500 
710.500000	124.197553 
711.000000	122.125090 
711.500000	118.594439 
712.000000	114.513204 
712.500000	111.071704 
713.000000	108.481219 
713.500000	105.323166 
714.000000	102.419143 
714.500000	99.952969  
715.000000	97.712234  
715.500000	95.297598  
716.000000	92.370128  
716.500000	89.835772  
717.000000	86.436219  
717.500000	82.834757  
718.000000	79.765484  
718.500000	77.908325  
719.000000	75.704424  
719.500000	73.093727  
720.000000	70.530060  
720.500000	68.987962  
721.000000	66.755530  
721.500000	63.955386  
722.000000	61.447848  
722.500000	60.059250  
723.000000	58.530159  
723.500000	56.570992  
724.000000	54.693340  
724.500000	53.316378  
725.000000	51.944189  
725.500000	50.124696  
726.000000	48.030643  
726.500000	46.188727  
727.000000	44.834212  
727.500000	43.985159  
728.000000	42.748734  
728.500000	41.426984  
729.000000	40.045439  
729.500000	39.358863  
730.000000	38.154363  
730.500000	37.083477  
731.000000	35.894212  
731.500000	35.166878  
732.000000	34.073810  
732.500000	33.292333  
733.000000	32.562871  
733.500000	31.924310  
734.000000	30.853287  
734.500000	29.494318  
735.000000	27.992189  
735.500000	26.672356  
736.000000	25.766242  
736.500000	25.087272  
737.000000	24.414431  
737.500000	23.547719  
738.000000	23.161371  
738.500000	22.864401  
739.000000	22.420666  
739.500000	21.543083  
740.000000	20.891090  
740.500000	20.474318  
741.000000	20.182772  
741.500000	19.559696  
742.000000	18.951507  
742.500000	18.587007  
743.000000	18.341977  
743.500000	17.861469  
744.000000	16.753492  
744.500000	15.976234  
745.000000	15.962712  
745.500000	16.532030  
746.000000	16.364363  
746.500000	15.636962  
747.000000	14.752772  
747.500000	14.471674  
748.000000	14.015924  
748.500000	13.207583  
749.000000	12.436757  
749.500000	12.122530  
750.000000	12.205560  
750.500000	12.215492  
751.000000	12.017477  
751.500000	11.587583  
752.000000	11.469522  
752.500000	11.436863  
753.000000	11.377856  
753.500000	10.863553  
754.000000	10.324212  
754.500000	9.796151   
755.000000	9.730931   
755.500000	9.765386   
756.000000	9.915446   
756.500000	9.821931   
757.000000	9.675674   
757.500000	9.510734   
758.000000	9.189969   
758.500000	8.579015   
759.000000	8.139583   
759.500000	8.112962   
760.000000	8.154810   
760.500000	7.989227   
761.000000	7.773939   
761.500000	7.634219   
762.000000	7.560992   
762.500000	7.620636   
763.000000	7.698060   
763.500000	7.673363   
764.000000	7.256037   
764.500000	7.096090   
765.000000	6.910878   
765.500000	6.795060   
766.000000	6.496916   
766.500000	6.479545   
767.000000	6.410772   
767.500000	6.277962   
768.000000	6.033689   
768.500000	6.015227   
769.000000	6.051325   
769.500000	6.000484   
770.000000	5.875242   
770.500000	5.527128   
771.000000	5.134946   
771.500000	4.808015   
772.000000	4.880295   
772.500000	4.947954   
773.000000	5.028409   
773.500000	4.907893   
774.000000	5.034757   
774.500000	5.176060   
775.000000	5.254681   
775.500000	4.955681   
776.000000	4.457772   
776.500000	4.248265   
777.000000	4.462196   
777.500000	4.883446   
778.000000	4.955393   
778.500000	4.900628   
779.000000	4.616772   
779.500000	4.381409   
780.000000	4.079999   
780.500000	4.127636   
781.000000	4.224871   
781.500000	4.304174   
782.000000	4.211742   
782.500000	4.049916   
783.000000	3.879227   
783.500000	3.720628   
784.000000	3.676280   
784.500000	3.578962   
785.000000	3.475257   
785.500000	3.318106   
786.000000	3.207083   
786.500000	3.164272   
787.000000	3.155310   
787.500000	3.273856   
788.000000	3.226386   
788.500000	3.212795   
789.000000	3.165621   
789.500000	3.258674   
790.000000	3.288287   
790.500000	3.236401   
791.000000	3.079886   
791.500000	3.029984   
792.000000	3.122886   
792.500000	3.147787   
793.000000	3.094901   
793.500000	2.973537   
794.000000	2.975227   
794.500000	3.083303   
795.000000	3.220015   
795.500000	3.267719   
796.000000	3.176977   
796.500000	2.999984   
797.000000	2.902780   
797.500000	2.954659   
798.000000	3.057500   
798.500000	3.081189   
799.000000	3.071810   
799.500000	2.983037   
800.000000	2.896037   
800.500000	2.678522   
801.000000	2.576053   
801.500000	2.519333   
802.000000	2.593628   
802.500000	2.533871   
803.000000	2.576348   
803.500000	2.678386   
804.000000	2.879257   
804.500000	2.790037   
805.000000	2.585280   
805.500000	2.308553   
806.000000	2.287159   
806.500000	2.370787   
807.000000	2.555257   
807.500000	2.530015   
808.000000	2.429098   
808.500000	2.182643   
809.000000	2.160878   
809.500000	2.288522   
810.000000	2.431840   
810.500000	2.289454   
811.000000	2.089757   
811.500000	2.026462   
812.000000	1.970553   
812.500000	1.783356   
813.000000	1.532674   
813.500000	1.604303   
814.000000	1.888393   
814.500000	2.125439   
815.000000	1.940909   
815.500000	1.594613   
816.000000	1.265537   
816.500000	1.299393   
817.000000	1.545439   
817.500000	1.753757   
818.000000	1.718863   
818.500000	1.586356   
819.000000	1.608674   
819.500000	1.918886   
820.000000	2.329477   
820.500000	2.570522   
821.000000	2.699090   
821.500000	2.697242   
822.000000	2.595386   
822.500000	2.380878   
823.000000	2.305030   
823.500000	2.357363   
824.000000	2.469295   
824.500000	2.538204   
825.000000	2.690083   
825.500000	2.833553   
826.000000	2.872734   
826.500000	2.675719   
827.000000	2.281939   
827.500000	2.004196   
828.000000	2.007590   
828.500000	2.176568   
829.000000	2.049151   
829.500000	1.639954   
830.000000	1.312984   
830.500000	1.351992   
831.000000	1.539386   
831.500000	1.651000   
832.000000	1.513500   
832.500000	1.260840   
833.000000	1.060621   
833.500000	1.009295   
834.000000	1.052962   
834.500000	1.184787   
835.000000	1.306757   
835.500000	1.322977   
836.000000	1.203310   
836.500000	0.937500   
837.000000	0.757833   
837.500000	0.661984   
838.000000	0.685287   
838.500000	0.734151   
839.000000	0.836454   
839.500000	0.886075   
840.000000	0.960265   
840.500000	0.887651   
841.000000	0.686090   
841.500000	0.510856   
842.000000	0.535257   
842.500000	0.749196   
843.000000	0.938363   
843.500000	0.889787   
844.000000	0.602219   
844.500000	0.338734   
845.000000	0.201454   
845.500000	0.301522   
846.000000	0.502280   
846.500000	0.522234   
847.000000	0.410515   
847.500000	0.270348   
848.000000	0.350977   
848.500000	0.444121   
849.000000	0.539439   
849.500000	0.417280   
850.000000	0.436477   
850.500000	0.413318   
851.000000	0.393333   
851.500000	0.203227   
852.000000	0.131984   
852.500000	0.123803   
853.000000	0.195090   
853.500000	0.097318   
854.000000	-0.083348  
854.500000	-0.160136  
855.000000	-0.122151  
855.500000	-0.062431  
856.000000	-0.079000  
856.500000	-0.028060  
857.000000	0.065856   
857.500000	0.112886   
858.000000	0.007272   
858.500000	-0.091166  
859.000000	-0.072909  
859.500000	0.079159   
860.000000	0.186204   
860.500000	0.175946   
861.000000	0.062742   
861.500000	0.042242   
862.000000	0.067106   
862.500000	0.096333   
863.000000	0.067893   
863.500000	0.056212   
864.000000	0.074318   
864.500000	0.033393   
865.000000	0.000242   
865.500000	-0.062560  
866.000000	-0.010159  
866.500000	0.071484   
867.000000	0.128856   
867.500000	0.018992   
868.000000	-0.092439  
868.500000	-0.175977  
869.000000	-0.158462  
869.500000	-0.129446  
870.000000	-0.089121  
870.500000	0.017424   
871.000000	0.146416   
871.500000	0.243075   
872.000000	0.205022   
872.500000	0.144287   
873.000000	0.098969   
873.500000	0.110007   
874.000000	0.041931   
874.500000	-0.006439  
875.000000	-0.018022  
875.500000	-0.016484  
876.000000	-0.024893  
876.500000	0.005378   
877.000000	0.063954   
877.500000	0.061545   
878.000000	-0.006946  
878.500000	-0.088750  
879.000000	-0.041015  
879.500000	0.126363   
880.000000	0.236992   
880.500000	0.176318   
881.000000	0.029249   
881.500000	-0.044106  
882.000000	0.017174   
882.500000	0.087689   
883.000000	0.096484   
883.500000	0.100810   
884.000000	0.081431   
884.500000	0.068871   
885.000000	0.015901   
885.500000	-0.021227  
886.000000	-0.106000  
886.500000	-0.118242  
887.000000	-0.121303  
887.500000	-0.028810  
888.000000	0.024356   
888.500000	0.025545   
889.000000	-0.030371  
889.500000	-0.035833  
890.000000	0.030439   
890.500000	0.090628   
891.000000	0.057598   
891.500000	-0.010492  
892.000000	-0.126234  
892.500000	-0.111113  
893.000000	-0.074696  
893.500000	-0.031643  
894.000000	-0.117924  
894.500000	-0.162515  
895.000000	-0.095409  
895.500000	0.005568   
896.000000	0.057015   
896.500000	-0.006598  
897.000000	-0.017318  
897.500000	-0.073371  
898.000000	-0.049151  
898.500000	-0.067803  
899.000000	-0.024068  
899.500000	0.095257   
900.000000	0.414045   
900.500000	0.870999   

