PE FL                   SPECTRUM    ASCII       PEDS        1.60        
  -1
S12#22.SP
24/04/15
15:26:12.00
24/04/15
15:27:38.00
Jan

900.500000
1









LS55
405.00
5.00
5.00
SCAN
1
20
100
100
0
400
0
1
0
1
5
ON
900 405 
1 0 0
#HDR
-1
-1
#GR
NM

0.00002384185791015625
0.0
450.000000
0.500000
902
8
263.979492
-0.664999
#DATA
450.000000	-0.664999  
450.500000	-0.319219  
451.000000	-0.088856  
451.500000	0.001962   
452.000000	-0.031227  
452.500000	-0.071999  
453.000000	-0.148318  
453.500000	-0.087371  
454.000000	-0.088818  
454.500000	-0.138181  
455.000000	-0.204439  
455.500000	-0.219931  
456.000000	-0.224909  
456.500000	-0.286227  
457.000000	-0.218719  
457.500000	-0.033249  
458.000000	0.197727   
458.500000	0.184424   
459.000000	0.169416   
459.500000	0.103227   
460.000000	0.093734   
460.500000	-0.073696  
461.000000	-0.188227  
461.500000	-0.157477  
462.000000	-0.063598  
462.500000	-0.055560  
463.000000	-0.008060  
463.500000	0.256742   
464.000000	0.453795   
464.500000	0.366174   
465.000000	0.061393   
465.500000	-0.020780  
466.000000	-0.018060  
466.500000	-0.010893  
467.000000	-0.094962  
467.500000	-0.006878  
468.000000	-0.006219  
468.500000	-0.066159  
469.000000	-0.207325  
469.500000	-0.228280  
470.000000	-0.205712  
470.500000	-0.106356  
471.000000	0.016666   
471.500000	0.080295   
472.000000	0.081833   
472.500000	-0.049257  
473.000000	-0.106378  
473.500000	-0.107386  
474.000000	0.005083   
474.500000	-0.041234  
475.000000	-0.141969  
475.500000	-0.219598  
476.000000	-0.123272  
476.500000	-0.058007  
477.000000	-0.027303  
477.500000	-0.027939  
478.000000	-0.022575  
478.500000	0.022772   
479.000000	0.217257   
479.500000	0.370136   
480.000000	0.296333   
480.500000	0.023575   
481.000000	-0.114303  
481.500000	-0.053212  
482.000000	0.184992   
482.500000	0.222196   
483.000000	0.117310   
483.500000	-0.152931  
484.000000	-0.217833  
484.500000	-0.113287  
485.000000	0.081416   
485.500000	0.071295   
486.000000	0.012378   
486.500000	0.049477   
487.000000	0.173068   
487.500000	0.233969   
488.000000	0.036469   
488.500000	-0.159825  
489.000000	-0.177522  
489.500000	0.063348   
490.000000	0.176651   
490.500000	0.157128   
491.000000	0.046522   
491.500000	0.097340   
492.000000	0.123530   
492.500000	0.173651   
493.000000	0.273196   
493.500000	0.501000   
494.000000	0.515500   
494.500000	0.428704   
495.000000	0.428901   
495.500000	0.617848   
496.000000	0.650022   
496.500000	0.624348   
497.000000	0.588333   
497.500000	0.718007   
498.000000	0.657901   
498.500000	0.452348   
499.000000	0.201272   
499.500000	0.276143   
500.000000	0.564545   
500.500000	0.945696   
501.000000	1.056863   
501.500000	1.005810   
502.000000	0.786621   
502.500000	0.687113   
503.000000	0.761045   
503.500000	1.022583   
504.000000	1.223946   
504.500000	1.369507   
505.000000	1.450659   
505.500000	1.391015   
506.000000	1.321810   
506.500000	1.273121   
507.000000	1.493803   
507.500000	1.757992   
508.000000	2.056674   
508.500000	2.219704   
509.000000	2.272151   
509.500000	2.173393   
510.000000	2.191022   
510.500000	2.331818   
511.000000	2.502310   
511.500000	2.530454   
512.000000	2.534393   
512.500000	2.400962   
513.000000	2.433431   
513.500000	2.535674   
514.000000	2.793409   
514.500000	2.989946   
515.000000	3.217151   
515.500000	3.304780   
516.000000	3.195363   
516.500000	3.081075   
517.000000	3.168181   
517.500000	3.535166   
518.000000	3.654984   
518.500000	3.590219   
519.000000	3.394590   
519.500000	3.268015   
520.000000	3.056939   
520.500000	3.132250   
521.000000	3.334037   
521.500000	3.699924   
522.000000	3.737492   
522.500000	3.633704   
523.000000	3.543424   
523.500000	3.728780   
524.000000	3.824053   
524.500000	3.780090   
525.000000	3.636553   
525.500000	3.645424   
526.000000	3.804553   
526.500000	4.195598   
527.000000	4.517257   
527.500000	4.764765   
528.000000	4.801424   
528.500000	4.989303   
529.000000	5.067151   
529.500000	5.018325   
530.000000	4.816106   
530.500000	4.770484   
531.000000	5.151674   
531.500000	5.698287   
532.000000	6.279333   
532.500000	6.628681   
533.000000	6.852931   
533.500000	6.968575   
534.000000	6.975007   
534.500000	7.157818   
535.000000	7.693401   
535.500000	8.455030   
536.000000	8.812477   
536.500000	9.114856   
537.000000	9.596454   
537.500000	10.404068  
538.000000	10.874727  
538.500000	11.305128  
539.000000	11.954113  
539.500000	13.111045  
540.000000	13.723507  
540.500000	14.052439  
541.000000	14.218515  
541.500000	14.712856  
542.000000	14.588310  
542.500000	14.039704  
543.000000	13.474507  
543.500000	13.485378  
544.000000	13.441984  
544.500000	13.054303  
545.000000	12.569060  
545.500000	12.028431  
546.000000	11.568780  
546.500000	10.871674  
547.000000	10.289909  
547.500000	9.642045   
548.000000	8.892136   
548.500000	8.017416   
549.000000	7.401053   
549.500000	7.010204   
550.000000	6.646560   
550.500000	6.075537   
551.000000	5.411681   
551.500000	4.997643   
552.000000	4.804803   
552.500000	4.719909   
553.000000	4.583590   
553.500000	4.225507   
554.000000	3.780515   
554.500000	3.357727   
555.000000	3.157750   
555.500000	3.226590   
556.000000	3.433734   
556.500000	3.551250   
557.000000	3.554166   
557.500000	3.430340   
558.000000	3.348689   
558.500000	3.253765   
559.000000	3.248492   
559.500000	3.248280   
560.000000	3.287840   
560.500000	3.244780   
561.000000	3.189598   
561.500000	3.128363   
562.000000	3.191712   
562.500000	3.306189   
563.000000	3.361204   
563.500000	3.342136   
564.000000	3.248454   
564.500000	3.270401   
565.000000	3.318469   
565.500000	3.506772   
566.000000	3.617560   
566.500000	3.591484   
567.000000	3.389810   
567.500000	3.317174   
568.000000	3.394477   
568.500000	3.494083   
569.000000	3.455575   
569.500000	3.369598   
570.000000	3.362507   
570.500000	3.346136   
571.000000	3.365128   
571.500000	3.468174   
572.000000	3.555159   
572.500000	3.504863   
573.000000	3.264560   
573.500000	3.110696   
574.000000	3.174909   
574.500000	3.595242   
575.000000	3.857787   
575.500000	3.834727   
576.000000	3.475962   
576.500000	3.318780   
577.000000	3.379916   
577.500000	3.485181   
578.000000	3.506659   
578.500000	3.626136   
579.000000	3.780749   
579.500000	3.676477   
580.000000	3.506583   
580.500000	3.393992   
581.000000	3.360916   
581.500000	3.313166   
582.000000	3.261280   
582.500000	3.291530   
583.000000	3.535575   
583.500000	3.858583   
584.000000	4.053560   
584.500000	3.854181   
585.000000	3.523787   
585.500000	3.332462   
586.000000	3.457212   
586.500000	3.393977   
587.000000	3.377416   
587.500000	3.379977   
588.000000	3.651166   
588.500000	3.778075   
589.000000	3.831810   
589.500000	3.677500   
590.000000	3.859924   
590.500000	3.903128   
591.000000	3.950969   
591.500000	3.763583   
592.000000	3.808151   
592.500000	3.972431   
593.000000	4.157621   
593.500000	4.134287   
594.000000	4.086053   
594.500000	4.094219   
595.000000	4.138280   
595.500000	4.359242   
596.000000	4.623522   
596.500000	4.680272   
597.000000	4.527992   
597.500000	4.277272   
598.000000	4.403939   
598.500000	4.775712   
599.000000	5.282916   
599.500000	5.553628   
600.000000	5.592492   
600.500000	5.458348   
601.000000	5.599916   
601.500000	5.907484   
602.000000	6.188083   
602.500000	6.216636   
603.000000	6.210409   
603.500000	6.271030   
604.000000	6.423310   
604.500000	6.614075   
605.000000	6.965992   
605.500000	7.340757   
606.000000	7.421590   
606.500000	7.281560   
607.000000	7.305507   
607.500000	7.595924   
608.000000	7.693568   
608.500000	7.636916   
609.000000	7.833787   
609.500000	8.396583   
610.000000	8.658075   
610.500000	8.576909   
611.000000	8.675128   
611.500000	9.229053   
612.000000	9.790356   
612.500000	9.796386   
613.000000	9.695121   
613.500000	9.802166   
614.000000	10.197113  
614.500000	10.571924  
615.000000	11.029590  
615.500000	11.604840  
616.000000	12.124143  
616.500000	12.731492  
617.000000	13.300507  
617.500000	13.701757  
618.000000	13.738969  
618.500000	13.726492  
619.000000	14.224878  
619.500000	15.069136  
620.000000	15.811371  
620.500000	16.344530  
621.000000	16.849674  
621.500000	17.601537  
622.000000	18.460159  
622.500000	19.091606  
623.000000	19.613469  
623.500000	20.285128  
624.000000	20.943757  
624.500000	21.508439  
625.000000	22.105068  
625.500000	22.727356  
626.000000	23.522863  
626.500000	24.343015  
627.000000	25.368575  
627.500000	26.484477  
628.000000	27.919886  
628.500000	29.288810  
629.000000	30.421939  
629.500000	30.829939  
630.000000	31.635780  
630.500000	32.889651  
631.000000	34.453280  
631.500000	35.528045  
632.000000	36.749121  
632.500000	38.642628  
633.000000	40.653333  
633.500000	42.188030  
634.000000	42.885992  
634.500000	43.674174  
635.000000	44.804439  
635.500000	46.926750  
636.000000	49.578560  
636.500000	52.117159  
637.000000	53.591712  
637.500000	54.773469  
638.000000	56.434742  
638.500000	58.842249  
639.000000	60.512143  
639.500000	61.949060  
640.000000	63.797007  
640.500000	66.512515  
641.000000	68.453598  
641.500000	69.973295  
642.000000	71.674878  
642.500000	74.621757  
643.000000	77.673590  
643.500000	80.198643  
644.000000	82.332022  
644.500000	84.434469  
645.000000	86.539075  
645.500000	88.770530  
646.000000	91.337931  
646.500000	94.336666  
647.000000	97.675431  
647.500000	100.950628 
648.000000	104.047734 
648.500000	106.842280 
649.000000	109.341810 
649.500000	111.448530 
650.000000	112.952719 
650.500000	114.839712 
651.000000	118.084477 
651.500000	122.493393 
652.000000	126.935234 
652.500000	130.334946 
653.000000	133.347772 
653.500000	136.547522 
654.000000	139.810022 
654.500000	143.286492 
655.000000	147.274598 
655.500000	150.929909 
656.000000	153.385060 
656.500000	155.616409 
657.000000	159.654628 
657.500000	164.787522 
658.000000	168.632250 
658.500000	171.034469 
659.000000	173.781068 
659.500000	177.551113 
660.000000	181.642166 
660.500000	185.702477 
661.000000	188.961969 
661.500000	191.712250 
662.000000	194.278500 
662.500000	197.386113 
663.000000	200.346878 
663.500000	202.455613 
664.000000	206.167689 
664.500000	210.863643 
665.000000	215.021128 
665.500000	216.539916 
666.000000	217.783174 
666.500000	219.788795 
667.000000	223.693000 
667.500000	227.272106 
668.000000	230.437939 
668.500000	232.134651 
669.000000	234.528212 
669.500000	237.264318 
670.000000	240.704954 
670.500000	242.438992 
671.000000	244.360893 
671.500000	246.397106 
672.000000	249.765310 
672.500000	252.503742 
673.000000	254.277060 
673.500000	254.029257 
674.000000	253.336310 
674.500000	252.957484 
675.000000	254.469462 
675.500000	257.126613 
676.000000	260.234022 
676.500000	260.722196 
677.000000	259.284037 
677.500000	257.912977 
678.000000	258.182734 
678.500000	258.903901 
679.000000	259.820068 
679.500000	261.595257 
680.000000	263.137833 
680.500000	263.905840 
681.000000	263.793651 
681.500000	263.979492 
682.000000	263.629106 
682.500000	262.300969 
683.000000	261.109560 
683.500000	260.829696 
684.000000	260.355386 
684.500000	259.193886 
685.000000	258.088090 
685.500000	257.002689 
686.000000	255.167128 
686.500000	251.649484 
687.000000	246.188287 
687.500000	242.520068 
688.000000	240.829530 
688.500000	240.720507 
689.000000	238.893348 
689.500000	234.945159 
690.000000	229.915977 
690.500000	226.977787 
691.000000	225.225886 
691.500000	223.528901 
692.000000	220.417310 
692.500000	215.856136 
693.000000	210.295727 
693.500000	205.268507 
694.000000	201.241022 
694.500000	199.215651 
695.000000	196.236401 
695.500000	192.223515 
696.000000	186.893098 
696.500000	182.984704 
697.000000	178.342090 
697.500000	173.350348 
698.000000	167.001901 
698.500000	162.513522 
699.000000	158.572196 
699.500000	154.514765 
700.000000	149.444666 
700.500000	146.217333 
701.000000	143.883469 
701.500000	141.044901 
702.000000	136.043621 
702.500000	132.050946 
703.000000	129.324250 
703.500000	126.804128 
704.000000	122.368863 
704.500000	117.116946 
705.000000	113.533727 
705.500000	112.234909 
706.000000	110.737287 
706.500000	106.915886 
707.000000	101.933196 
707.500000	97.628068  
708.000000	95.141325  
708.500000	93.263318  
709.000000	91.510030  
709.500000	89.709310  
710.000000	87.249363  
710.500000	84.680098  
711.000000	81.975446  
711.500000	79.344583  
712.000000	76.873931  
712.500000	74.953287  
713.000000	72.734530  
713.500000	70.449060  
714.000000	68.356787  
714.500000	67.140878  
715.000000	65.993325  
715.500000	63.822189  
716.000000	61.528303  
716.500000	59.594431  
717.000000	58.023992  
717.500000	56.124378  
718.000000	54.464393  
718.500000	52.923378  
719.000000	51.604734  
719.500000	49.914454  
720.000000	48.765621  
720.500000	47.459704  
721.000000	45.940454  
721.500000	44.087636  
722.000000	42.650477  
722.500000	41.284560  
723.000000	39.821121  
723.500000	38.259249  
724.000000	37.263696  
724.500000	36.534113  
725.000000	35.585765  
725.500000	34.251333  
726.000000	32.879151  
726.500000	31.666931  
727.000000	30.785174  
727.500000	29.717462  
728.000000	28.913628  
728.500000	28.401318  
729.000000	28.119954  
729.500000	27.504886  
730.000000	26.556924  
730.500000	25.745628  
731.000000	25.155037  
731.500000	24.290992  
732.000000	23.363333  
732.500000	22.748136  
733.000000	22.070363  
733.500000	21.378643  
734.000000	20.786560  
734.500000	20.631356  
735.000000	20.263515  
735.500000	19.515128  
736.000000	19.031742  
736.500000	18.953121  
737.000000	18.744795  
737.500000	18.063204  
738.000000	17.504196  
738.500000	17.070356  
739.000000	16.735545  
739.500000	16.220621  
740.000000	15.882575  
740.500000	15.594530  
741.000000	14.999757  
741.500000	14.052227  
742.000000	13.422272  
742.500000	13.355015  
743.000000	13.535409  
743.500000	13.361909  
744.000000	12.752113  
744.500000	12.048696  
745.000000	11.631659  
745.500000	11.517340  
746.000000	11.493606  
746.500000	11.464590  
747.000000	11.339356  
747.500000	11.273128  
748.000000	11.122424  
748.500000	10.874159  
749.000000	10.720712  
749.500000	10.686780  
750.000000	10.514090  
750.500000	9.995280   
751.000000	9.504939   
751.500000	9.385477   
752.000000	9.399075   
752.500000	9.114863   
753.000000	8.721189   
753.500000	8.560113   
754.000000	8.345250   
754.500000	7.883022   
755.000000	7.398568   
755.500000	7.265931   
756.000000	7.276606   
756.500000	7.468522   
757.000000	7.751780   
757.500000	7.920196   
758.000000	7.659598   
758.500000	7.097772   
759.000000	6.671772   
759.500000	6.583856   
760.000000	6.717000   
760.500000	6.771507   
761.000000	6.866287   
761.500000	6.802212   
762.000000	6.526446   
762.500000	6.235522   
763.000000	5.991007   
763.500000	5.873810   
764.000000	5.670121   
764.500000	5.543643   
765.000000	5.470856   
765.500000	5.499227   
766.000000	5.239143   
766.500000	4.924696   
767.000000	4.818128   
767.500000	4.988848   
768.000000	5.068439   
768.500000	4.855068   
769.000000	4.466946   
769.500000	4.509287   
770.000000	4.781598   
770.500000	4.869484   
771.000000	4.557454   
771.500000	4.234863   
772.000000	4.058303   
772.500000	3.803113   
773.000000	3.495681   
773.500000	3.415121   
774.000000	3.775068   
774.500000	3.941484   
775.000000	3.915787   
775.500000	3.772189   
776.000000	3.824901   
776.500000	3.822628   
777.000000	3.813174   
777.500000	3.778431   
778.000000	3.753348   
778.500000	3.684893   
779.000000	3.586810   
779.500000	3.571780   
780.000000	3.411030   
780.500000	3.286348   
781.000000	3.248363   
781.500000	3.378992   
782.000000	3.416939   
782.500000	3.324371   
783.000000	3.209303   
783.500000	3.206553   
784.000000	3.260939   
784.500000	3.188893   
785.000000	3.088378   
785.500000	2.990992   
786.000000	2.996803   
786.500000	3.029484   
787.000000	3.119204   
787.500000	3.116765   
788.000000	3.078030   
788.500000	3.024856   
789.000000	3.101053   
789.500000	3.153325   
790.000000	3.037348   
790.500000	2.794553   
791.000000	2.664727   
791.500000	2.673772   
792.000000	2.768507   
792.500000	2.904674   
793.000000	2.958893   
793.500000	2.905113   
794.000000	2.769901   
794.500000	2.781590   
795.000000	2.892181   
795.500000	2.978280   
796.000000	2.896689   
796.500000	2.878727   
797.000000	2.741969   
797.500000	2.647462   
798.000000	2.370681   
798.500000	2.372924   
799.000000	2.475310   
799.500000	2.649037   
800.000000	2.477984   
800.500000	2.245765   
801.000000	1.995757   
801.500000	1.959598   
802.000000	1.973416   
802.500000	2.082454   
803.000000	2.234333   
803.500000	2.384931   
804.000000	2.479803   
804.500000	2.549166   
805.000000	2.519598   
805.500000	2.338363   
806.000000	2.149742   
806.500000	2.033416   
807.000000	2.037878   
807.500000	2.021159   
808.000000	2.054143   
808.500000	1.988242   
809.000000	1.801848   
809.500000	1.533492   
810.000000	1.480462   
810.500000	1.659439   
811.000000	1.918916   
811.500000	1.917856   
812.000000	1.833030   
812.500000	1.677621   
813.000000	1.818818   
813.500000	1.915575   
814.000000	1.995068   
814.500000	1.959712   
815.000000	2.058750   
815.500000	2.016424   
816.000000	1.771780   
816.500000	1.446606   
817.000000	1.273393   
817.500000	1.359954   
818.000000	1.580045   
818.500000	1.812750   
819.000000	1.882840   
819.500000	1.899128   
820.000000	2.039106   
820.500000	2.170053   
821.000000	2.158651   
821.500000	2.180818   
822.000000	2.372196   
822.500000	2.543378   
823.000000	2.455477   
823.500000	2.265340   
824.000000	2.141053   
824.500000	2.140727   
825.000000	2.260363   
825.500000	2.498386   
826.000000	2.617643   
826.500000	2.462575   
827.000000	2.282856   
827.500000	2.178901   
828.000000	2.228954   
828.500000	2.173121   
829.000000	2.143689   
829.500000	2.117121   
830.000000	2.149250   
830.500000	1.939575   
831.000000	1.691340   
831.500000	1.487545   
832.000000	1.418333   
832.500000	1.340613   
833.000000	1.235128   
833.500000	1.160696   
834.000000	1.110098   
834.500000	1.082583   
835.000000	1.028007   
835.500000	1.030363   
836.000000	1.010901   
836.500000	1.047174   
837.000000	1.049977   
837.500000	0.948598   
838.000000	0.809143   
838.500000	0.699810   
839.000000	0.643250   
839.500000	0.570696   
840.000000	0.654545   
840.500000	0.744295   
841.000000	0.796068   
841.500000	0.546189   
842.000000	0.415174   
842.500000	0.417083   
843.000000	0.617333   
843.500000	0.728196   
844.000000	0.740469   
844.500000	0.616401   
845.000000	0.491272   
845.500000	0.488174   
846.000000	0.539181   
846.500000	0.522515   
847.000000	0.247068   
847.500000	0.058818   
848.000000	0.047871   
848.500000	0.274303   
849.000000	0.433174   
849.500000	0.441174   
850.000000	0.296037   
850.500000	0.192613   
851.000000	0.226765   
851.500000	0.344946   
852.000000	0.343871   
852.500000	0.158401   
853.000000	-0.044393  
853.500000	-0.112946  
854.000000	-0.024969  
854.500000	-0.099174  
855.000000	-0.176818  
855.500000	-0.083825  
856.000000	0.214583   
856.500000	0.295007   
857.000000	0.188128   
857.500000	0.035378   
858.000000	0.073484   
858.500000	0.063371   
859.000000	0.041227   
859.500000	0.017530   
860.000000	-0.004939  
860.500000	-0.064719  
861.000000	-0.103166  
861.500000	-0.081015  
862.000000	0.002318   
862.500000	0.094901   
863.000000	0.227340   
863.500000	0.295363   
864.000000	0.193469   
864.500000	0.037204   
865.000000	-0.023628  
865.500000	0.024007   
866.000000	0.082954   
866.500000	0.135598   
867.000000	0.196446   
867.500000	0.229515   
868.000000	0.116848   
868.500000	0.036174   
869.000000	-0.037098  
869.500000	-0.093113  
870.000000	-0.199136  
870.500000	-0.066613  
871.000000	0.124848   
871.500000	0.295431   
872.000000	0.196825   
872.500000	0.068143   
873.000000	0.017659   
873.500000	0.037901   
874.000000	0.058704   
874.500000	-0.014439  
875.000000	-0.038484  
875.500000	-0.033643  
876.000000	0.079787   
876.500000	0.158946   
877.000000	0.196515   
877.500000	0.144515   
878.000000	0.031507   
878.500000	0.033977   
879.000000	0.091537   
879.500000	0.053204   
880.000000	-0.201045  
880.500000	-0.373128  
881.000000	-0.255068  
881.500000	0.023136   
882.000000	0.177795   
882.500000	0.157492   
883.000000	0.079992   
883.500000	-0.022810  
884.000000	-0.071969  
884.500000	-0.129128  
885.000000	-0.156984  
885.500000	-0.217386  
886.000000	-0.105636  
886.500000	0.006295   
887.000000	0.097340   
887.500000	-0.041462  
888.000000	-0.158598  
888.500000	-0.243477  
889.000000	-0.208128  
889.500000	-0.205863  
890.000000	-0.208704  
890.500000	-0.218340  
891.000000	-0.237386  
891.500000	-0.229265  
892.000000	-0.226628  
892.500000	-0.155659  
893.000000	-0.108856  
893.500000	-0.047643  
894.000000	-0.032659  
894.500000	-0.010189  
895.000000	-0.056598  
895.500000	-0.073159  
896.000000	-0.023643  
896.500000	0.069060   
897.000000	0.106090   
897.500000	0.060628   
898.000000	-0.056287  
898.500000	-0.146416  
899.000000	-0.164795  
899.500000	-0.058696  
900.000000	0.111257   
900.500000	0.265000   

