PE FL                   SPECTRUM    ASCII       PEDS        1.60        
  -1
S12#17.SP
24/04/15
15:19:06.00
24/04/15
15:20:31.00
Jan

900.500000
1









LS55
405.00
5.00
5.00
SCAN
1
20
100
100
0
400
0
1
0
1
5
ON
900 405 
1 0 0
#HDR
-1
-1
#GR
NM

0.00002384185791015625
0.0
450.000000
0.500000
902
8
273.179439
-0.445030
#DATA
450.000000	0.337000   
450.500000	-0.287530  
451.000000	-0.319181  
451.500000	-0.021310  
452.000000	0.101386   
452.500000	-0.095530  
453.000000	-0.206696  
453.500000	-0.148992  
454.000000	-0.024333  
454.500000	0.043772   
455.000000	0.100424   
455.500000	0.150734   
456.000000	0.084772   
456.500000	-0.024893  
457.000000	-0.094750  
457.500000	-0.064060  
458.000000	-0.024757  
458.500000	0.021265   
459.000000	0.054742   
459.500000	0.144901   
460.000000	0.136583   
460.500000	0.202484   
461.000000	0.302871   
461.500000	0.465484   
462.000000	0.372454   
462.500000	0.291454   
463.000000	0.110954   
463.500000	0.039446   
464.000000	-0.082325  
464.500000	-0.140272  
465.000000	-0.209803  
465.500000	-0.121643  
466.000000	0.072257   
466.500000	0.279507   
467.000000	0.216007   
467.500000	0.014984   
468.000000	-0.045977  
468.500000	-0.001515  
469.000000	-0.049598  
469.500000	-0.137856  
470.000000	-0.136636  
470.500000	-0.066598  
471.000000	-0.020295  
471.500000	-0.181984  
472.000000	-0.342393  
472.500000	-0.445030  
473.000000	-0.308780  
473.500000	-0.163939  
474.000000	0.074075   
474.500000	0.051742   
475.000000	0.069984   
475.500000	0.031568   
476.000000	0.275719   
476.500000	0.276568   
477.000000	0.129916   
477.500000	-0.182295  
478.000000	-0.035560  
478.500000	0.044378   
479.000000	0.080901   
479.500000	-0.071143  
480.000000	-0.038128  
480.500000	-0.079424  
481.000000	-0.190015  
481.500000	-0.299909  
482.000000	-0.231795  
482.500000	-0.086075  
483.000000	-0.026954  
483.500000	-0.063090  
484.000000	-0.142053  
484.500000	-0.095909  
485.000000	0.018515   
485.500000	-0.018871  
486.000000	-0.143545  
486.500000	-0.264878  
487.000000	-0.091727  
487.500000	0.102590   
488.000000	0.131545   
488.500000	-0.021083  
489.000000	-0.061340  
489.500000	0.080378   
490.000000	0.231409   
490.500000	0.261462   
491.000000	0.273553   
491.500000	0.429310   
492.000000	0.486143   
492.500000	0.402674   
493.000000	0.312484   
493.500000	0.324840   
494.000000	0.395060   
494.500000	0.389242   
495.000000	0.381333   
495.500000	0.388303   
496.000000	0.408871   
496.500000	0.371992   
497.000000	0.366174   
497.500000	0.434840   
498.000000	0.609151   
498.500000	0.853742   
499.000000	0.947825   
499.500000	0.858666   
500.000000	0.690856   
500.500000	0.721000   
501.000000	0.903651   
501.500000	1.041818   
502.000000	1.010143   
502.500000	0.917462   
503.000000	0.922500   
503.500000	1.015469   
504.000000	1.270704   
504.500000	1.392704   
505.000000	1.474946   
505.500000	1.515765   
506.000000	1.731303   
506.500000	1.885492   
507.000000	1.851265   
507.500000	1.676303   
508.000000	1.711537   
508.500000	1.970090   
509.000000	2.030484   
509.500000	1.938583   
510.000000	1.952825   
510.500000	2.423583   
511.000000	2.880560   
511.500000	2.965477   
512.000000	2.704106   
512.500000	2.660325   
513.000000	2.882121   
513.500000	3.030537   
514.000000	2.929000   
514.500000	2.843015   
515.000000	2.878318   
515.500000	2.914310   
516.000000	2.837916   
516.500000	2.831083   
517.000000	3.028409   
517.500000	3.203462   
518.000000	3.371128   
518.500000	3.498659   
519.000000	3.585166   
519.500000	3.474696   
520.000000	3.422287   
520.500000	3.421090   
521.000000	3.550060   
521.500000	3.644181   
522.000000	3.773871   
522.500000	3.753500   
523.000000	3.586121   
523.500000	3.327636   
524.000000	3.435522   
524.500000	3.634939   
525.000000	3.913022   
525.500000	3.942401   
526.000000	4.140522   
526.500000	4.164492   
527.000000	4.300795   
527.500000	4.312439   
528.000000	4.610136   
528.500000	4.774712   
529.000000	5.074916   
529.500000	5.382393   
530.000000	5.933219   
530.500000	6.308181   
531.000000	6.441765   
531.500000	6.339121   
532.000000	6.445825   
532.500000	6.695765   
533.000000	7.086265   
533.500000	7.356590   
534.000000	7.702439   
534.500000	7.782924   
535.000000	7.831575   
535.500000	8.027075   
536.000000	8.932257   
536.500000	9.739810   
537.000000	10.209484  
537.500000	10.526818  
538.000000	11.235522  
538.500000	11.947393  
539.000000	12.249477  
539.500000	12.578098  
540.000000	13.230598  
540.500000	13.795606  
541.000000	13.731606  
541.500000	13.687431  
542.000000	14.039931  
542.500000	14.363462  
543.000000	14.032106  
543.500000	13.400325  
544.000000	13.166636  
544.500000	12.815045  
545.000000	12.230310  
545.500000	11.559689  
546.000000	11.554901  
546.500000	11.607765  
547.000000	11.253000  
547.500000	10.110878  
548.000000	8.808613   
548.500000	7.751310   
549.000000	7.110500   
549.500000	6.797045   
550.000000	6.445174   
550.500000	6.069174   
551.000000	5.640931   
551.500000	5.295689   
552.000000	4.902439   
552.500000	4.544606   
553.000000	4.296356   
553.500000	4.229689   
554.000000	4.144159   
554.500000	3.900242   
555.000000	3.610954   
555.500000	3.427636   
556.000000	3.191469   
556.500000	2.897742   
557.000000	2.763803   
557.500000	2.954393   
558.000000	3.252174   
558.500000	3.310356   
559.000000	3.092522   
559.500000	2.777196   
560.000000	2.695795   
560.500000	2.803371   
561.000000	2.990863   
561.500000	3.082628   
562.000000	3.281803   
562.500000	3.539295   
563.000000	3.718416   
563.500000	3.730840   
564.000000	3.729151   
564.500000	3.698742   
565.000000	3.609787   
565.500000	3.407810   
566.000000	3.237674   
566.500000	3.086765   
567.000000	3.043340   
567.500000	3.151621   
568.000000	3.400257   
568.500000	3.381537   
569.000000	3.226424   
569.500000	3.061356   
570.000000	3.140871   
570.500000	3.235121   
571.000000	3.354545   
571.500000	3.434000   
572.000000	3.560719   
572.500000	3.492636   
573.000000	3.496515   
573.500000	3.581151   
574.000000	3.702636   
574.500000	3.708522   
575.000000	3.869113   
575.500000	4.100363   
576.000000	4.233750   
576.500000	3.932575   
577.000000	3.544303   
577.500000	3.333772   
578.000000	3.453257   
578.500000	3.564454   
579.000000	3.548734   
579.500000	3.398053   
580.000000	3.381575   
580.500000	3.335136   
581.000000	3.196643   
581.500000	3.144272   
582.000000	3.307143   
582.500000	3.493916   
583.000000	3.380386   
583.500000	3.211348   
584.000000	3.399015   
584.500000	3.776931   
585.000000	4.013606   
585.500000	3.818500   
586.000000	3.764560   
586.500000	3.772750   
587.000000	3.994560   
587.500000	3.833053   
588.000000	3.867636   
588.500000	3.935030   
589.000000	4.228356   
589.500000	4.148363   
590.000000	3.991053   
590.500000	3.743416   
591.000000	3.846060   
591.500000	4.037386   
592.000000	4.283704   
592.500000	4.227098   
593.000000	4.109757   
593.500000	3.984674   
594.000000	3.958833   
594.500000	4.091492   
595.000000	4.482530   
595.500000	4.875734   
596.000000	4.844159   
596.500000	4.530696   
597.000000	4.502212   
597.500000	4.706530   
598.000000	4.874090   
598.500000	4.820174   
599.000000	4.937719   
599.500000	5.029825   
600.000000	5.163575   
600.500000	5.152340   
601.000000	5.298568   
601.500000	5.534106   
602.000000	5.886068   
602.500000	6.068628   
603.000000	5.969719   
603.500000	5.769583   
604.000000	5.965030   
604.500000	6.285757   
605.000000	6.358954   
605.500000	6.116666   
606.000000	6.199204   
606.500000	6.679886   
607.000000	7.368128   
607.500000	7.762371   
608.000000	7.866803   
608.500000	7.626537   
609.000000	7.480704   
609.500000	7.560015   
610.000000	7.856159   
610.500000	8.236128   
611.000000	8.683181   
611.500000	9.023696   
612.000000	9.208469   
612.500000	9.520363   
613.000000	10.165946  
613.500000	10.807022  
614.000000	11.024704  
614.500000	11.142696  
615.000000	11.312651  
615.500000	11.728689  
616.000000	12.028833  
616.500000	12.455606  
617.000000	12.866931  
617.500000	13.327037  
618.000000	13.368537  
618.500000	13.779946  
619.000000	14.472946  
619.500000	15.537590  
620.000000	16.127992  
620.500000	16.739666  
621.000000	17.063901  
621.500000	17.530560  
622.000000	17.522795  
622.500000	17.925575  
623.000000	18.479651  
623.500000	19.511553  
624.000000	20.567598  
624.500000	21.445734  
625.000000	21.781583  
625.500000	22.251068  
626.000000	23.228742  
626.500000	24.711795  
627.000000	25.989113  
627.500000	26.996575  
628.000000	27.753257  
628.500000	28.813196  
629.000000	29.751303  
629.500000	30.695393  
630.000000	31.076810  
630.500000	32.305045  
631.000000	34.225931  
631.500000	36.630969  
632.000000	38.224477  
632.500000	38.971689  
633.000000	39.612386  
633.500000	40.702000  
634.000000	42.020098  
634.500000	43.527242  
635.000000	45.395568  
635.500000	46.977749  
636.000000	48.713628  
636.500000	50.099568  
637.000000	51.689280  
637.500000	53.337234  
638.000000	54.975628  
638.500000	56.196219  
639.000000	57.795613  
639.500000	59.606522  
640.000000	62.094613  
640.500000	65.012636  
641.000000	68.347060  
641.500000	71.441750  
642.000000	74.098348  
642.500000	76.458931  
643.000000	79.222606  
643.500000	81.896280  
644.000000	84.145666  
644.500000	86.637462  
645.000000	89.315469  
645.500000	91.651469  
646.000000	92.984530  
646.500000	94.938356  
647.000000	97.681257  
647.500000	101.321916 
648.000000	104.513560 
648.500000	107.773636 
649.000000	110.183909 
649.500000	112.644871 
650.000000	115.067181 
650.500000	118.330303 
651.000000	121.705500 
651.500000	125.291537 
652.000000	129.046893 
652.500000	132.955098 
653.000000	136.225053 
653.500000	139.100522 
654.000000	142.200318 
654.500000	145.400128 
655.000000	148.440833 
655.500000	151.165939 
656.000000	153.545333 
656.500000	157.314401 
657.000000	162.269446 
657.500000	167.960621 
658.000000	172.401265 
658.500000	174.824719 
659.000000	176.343780 
659.500000	178.561939 
660.000000	182.149878 
660.500000	184.112871 
661.000000	185.241424 
661.500000	187.084931 
662.000000	192.567681 
662.500000	198.058893 
663.000000	202.888765 
663.500000	206.821204 
664.000000	210.750606 
664.500000	213.753196 
665.000000	216.093431 
665.500000	219.555295 
666.000000	223.084803 
666.500000	225.620068 
667.000000	226.972143 
667.500000	229.507469 
668.000000	232.433553 
668.500000	235.947000 
669.000000	238.442590 
669.500000	241.009068 
670.000000	244.287333 
670.500000	248.041060 
671.000000	250.408446 
671.500000	250.491053 
672.000000	250.280757 
672.500000	251.830704 
673.000000	255.689037 
673.500000	259.237348 
674.000000	261.258446 
674.500000	262.035863 
675.000000	263.109242 
675.500000	264.964787 
676.000000	267.285515 
676.500000	270.887803 
677.000000	273.179439 
677.500000	272.233181 
678.000000	269.970446 
678.500000	268.788227 
679.000000	270.414856 
679.500000	270.675962 
680.000000	270.819909 
680.500000	271.249954 
681.000000	273.161704 
681.500000	272.291810 
682.000000	270.625007 
682.500000	269.791393 
683.000000	270.496166 
683.500000	270.074356 
684.000000	267.676378 
684.500000	266.623098 
685.000000	267.437128 
685.500000	267.754492 
686.000000	265.195045 
686.500000	261.751469 
687.000000	259.025537 
687.500000	256.921295 
688.000000	254.880128 
688.500000	252.398878 
689.000000	249.291318 
689.500000	245.435931 
690.000000	242.542386 
690.500000	240.749984 
691.000000	239.526000 
691.500000	236.359075 
692.000000	231.407098 
692.500000	226.363613 
693.000000	222.542136 
693.500000	219.339416 
694.000000	216.939212 
694.500000	213.537037 
695.000000	209.687954 
695.500000	204.617856 
696.000000	199.781356 
696.500000	195.120621 
697.000000	190.998651 
697.500000	186.129250 
698.000000	181.403401 
698.500000	176.410992 
699.000000	171.698659 
699.500000	167.901371 
700.000000	163.435833 
700.500000	158.370651 
701.000000	154.171939 
701.500000	151.325166 
702.000000	148.392196 
702.500000	143.056689 
703.000000	137.059795 
703.500000	132.749909 
704.000000	130.286530 
704.500000	128.075530 
705.000000	125.519151 
705.500000	122.181386 
706.000000	118.302303 
706.500000	114.222674 
707.000000	110.746780 
707.500000	107.682212 
708.000000	104.833795 
708.500000	101.708666 
709.000000	98.987734  
709.500000	95.659757  
710.000000	92.717803  
710.500000	89.739749  
711.000000	87.502666  
711.500000	85.423628  
712.000000	83.409530  
712.500000	81.049068  
713.000000	78.475590  
713.500000	75.937727  
714.000000	73.738954  
714.500000	71.141833  
715.000000	68.307803  
715.500000	65.583727  
716.000000	64.042401  
716.500000	62.957954  
717.000000	61.847946  
717.500000	60.376303  
718.000000	58.788333  
718.500000	57.087833  
719.000000	55.286318  
719.500000	53.451401  
720.000000	51.639386  
720.500000	49.578083  
721.000000	47.698075  
721.500000	46.024136  
722.000000	44.834833  
722.500000	43.737068  
723.000000	42.904666  
723.500000	41.645303  
724.000000	40.119121  
724.500000	38.587416  
725.000000	37.194553  
725.500000	36.034007  
726.000000	34.883787  
726.500000	33.660537  
727.000000	32.709265  
727.500000	31.972409  
728.000000	31.859787  
728.500000	31.340977  
729.000000	30.524439  
729.500000	29.095939  
730.000000	28.242287  
730.500000	27.399643  
731.000000	26.958484  
731.500000	26.057598  
732.000000	25.286568  
732.500000	24.598265  
733.000000	24.305712  
733.500000	23.698166  
734.000000	22.792666  
734.500000	22.041613  
735.000000	21.825325  
735.500000	21.510371  
736.000000	20.613583  
736.500000	19.560090  
737.000000	18.925159  
737.500000	18.790303  
738.000000	18.569636  
738.500000	18.013553  
739.000000	17.276068  
739.500000	16.664734  
740.000000	16.296219  
740.500000	15.895674  
741.000000	15.546750  
741.500000	15.381151  
742.000000	15.340553  
742.500000	14.607174  
743.000000	13.682424  
743.500000	13.047621  
744.000000	13.286007  
744.500000	13.389674  
745.000000	13.078439  
745.500000	12.318174  
746.000000	11.888098  
746.500000	11.706681  
747.000000	11.767545  
747.500000	11.559189  
748.000000	11.328454  
748.500000	11.015181  
749.000000	10.838992  
749.500000	10.279053  
750.000000	9.927060   
750.500000	9.650174   
751.000000	9.662106   
751.500000	9.493083   
752.000000	9.542257   
752.500000	9.460545   
753.000000	9.282840   
753.500000	8.889856   
754.000000	8.623492   
754.500000	8.367606   
755.000000	8.094151   
755.500000	7.896742   
756.000000	7.758659   
756.500000	7.548969   
757.000000	7.280310   
757.500000	7.247242   
758.000000	7.334234   
758.500000	7.223234   
759.000000	6.911734   
759.500000	6.817015   
760.000000	7.022545   
760.500000	7.084590   
761.000000	6.903939   
761.500000	6.598984   
762.000000	6.485757   
762.500000	6.333469   
763.000000	6.346318   
763.500000	6.335909   
764.000000	6.398568   
764.500000	6.266765   
765.000000	6.169409   
765.500000	5.967401   
766.000000	5.721204   
766.500000	5.443151   
767.000000	5.485734   
767.500000	5.669674   
768.000000	5.567568   
768.500000	5.185734   
769.000000	4.829757   
769.500000	4.719030   
770.000000	4.726257   
770.500000	4.856992   
771.000000	5.178568   
771.500000	5.437439   
772.000000	5.376931   
772.500000	5.125454   
773.000000	4.763121   
773.500000	4.345371   
774.000000	3.927810   
774.500000	3.890568   
775.000000	3.986553   
775.500000	4.030984   
776.000000	3.746068   
776.500000	3.470166   
777.000000	3.328053   
777.500000	3.535068   
778.000000	3.829840   
778.500000	3.876992   
779.000000	3.583083   
779.500000	3.258643   
780.000000	3.183628   
780.500000	3.269583   
781.000000	3.357886   
781.500000	3.381825   
782.000000	3.363560   
782.500000	3.301522   
783.000000	3.380909   
783.500000	3.588378   
784.000000	3.680401   
784.500000	3.413916   
785.000000	3.076484   
785.500000	2.952833   
786.000000	3.021045   
786.500000	2.937598   
787.000000	2.673219   
787.500000	2.542431   
788.000000	2.791856   
788.500000	3.149939   
789.000000	3.250151   
789.500000	3.071015   
790.000000	2.932378   
790.500000	2.984734   
791.000000	3.007833   
791.500000	2.978757   
792.000000	2.970704   
792.500000	3.019871   
793.000000	2.956946   
793.500000	2.728909   
794.000000	2.528750   
794.500000	2.549174   
795.000000	2.803356   
795.500000	2.973371   
796.000000	2.977401   
796.500000	2.927621   
797.000000	2.962954   
797.500000	3.067674   
798.000000	2.922666   
798.500000	2.632136   
799.000000	2.349325   
799.500000	2.236871   
800.000000	2.277189   
800.500000	2.283431   
801.000000	2.385462   
801.500000	2.483696   
802.000000	2.677787   
802.500000	2.652901   
803.000000	2.414446   
803.500000	1.873992   
804.000000	1.549378   
804.500000	1.580083   
805.000000	1.836522   
805.500000	2.071962   
806.000000	2.246431   
806.500000	2.272568   
807.000000	2.098469   
807.500000	1.854340   
808.000000	1.780583   
808.500000	1.838681   
809.000000	2.011393   
809.500000	2.080674   
810.000000	2.116765   
810.500000	1.950310   
811.000000	1.864340   
811.500000	1.827227   
812.000000	1.911757   
812.500000	1.969962   
813.000000	2.000257   
813.500000	1.915946   
814.000000	1.770121   
814.500000	1.649598   
815.000000	1.511606   
815.500000	1.467234   
816.000000	1.610522   
816.500000	1.841083   
817.000000	2.011969   
817.500000	2.002871   
818.000000	1.889462   
818.500000	1.756454   
819.000000	1.737886   
819.500000	1.992174   
820.000000	2.273924   
820.500000	2.340257   
821.000000	2.185189   
821.500000	2.054568   
822.000000	2.157469   
822.500000	2.347045   
823.000000	2.496583   
823.500000	2.468651   
824.000000	2.491931   
824.500000	2.483151   
825.000000	2.532318   
825.500000	2.566000   
826.000000	2.780757   
826.500000	2.773037   
827.000000	2.621280   
827.500000	2.206787   
828.000000	1.958068   
828.500000	1.648257   
829.000000	1.462106   
829.500000	1.329787   
830.000000	1.390803   
830.500000	1.383515   
831.000000	1.338484   
831.500000	1.338310   
832.000000	1.344651   
832.500000	1.303575   
833.000000	1.222083   
833.500000	1.202643   
834.000000	1.234878   
834.500000	1.181446   
835.000000	1.010674   
835.500000	0.859659   
836.000000	0.880977   
836.500000	1.056280   
837.000000	1.171689   
837.500000	1.143454   
838.000000	1.039189   
838.500000	0.938272   
839.000000	0.816249   
839.500000	0.707409   
840.000000	0.654787   
840.500000	0.797371   
841.000000	0.921416   
841.500000	0.952901   
842.000000	0.811356   
842.500000	0.677689   
843.000000	0.606068   
843.500000	0.612037   
844.000000	0.611780   
844.500000	0.593553   
845.000000	0.687030   
845.500000	0.728939   
846.000000	0.786386   
846.500000	0.663045   
847.000000	0.441106   
847.500000	0.129537   
848.000000	0.027712   
848.500000	0.075643   
849.000000	0.142757   
849.500000	0.129803   
850.000000	0.172742   
850.500000	0.323090   
851.000000	0.459045   
851.500000	0.468280   
852.000000	0.346530   
852.500000	0.197545   
853.000000	0.166704   
853.500000	0.260060   
854.000000	0.378356   
854.500000	0.317045   
855.000000	0.230818   
855.500000	0.148984   
856.000000	0.160340   
856.500000	0.140871   
857.000000	0.181431   
857.500000	0.179181   
858.000000	0.260280   
858.500000	0.375219   
859.000000	0.466840   
859.500000	0.405083   
860.000000	0.210621   
860.500000	0.040545   
861.000000	0.042825   
861.500000	0.057977   
862.000000	0.000553   
862.500000	-0.118015  
863.000000	-0.130992  
863.500000	-0.065083  
864.000000	0.051818   
864.500000	0.105462   
865.000000	0.079507   
865.500000	-0.000189  
866.000000	-0.080749  
866.500000	-0.072295  
867.000000	-0.047022  
867.500000	-0.024462  
868.000000	0.010356   
868.500000	-0.048083  
869.000000	-0.148272  
869.500000	-0.227075  
870.000000	-0.090000  
870.500000	-0.036924  
871.000000	-0.076068  
871.500000	-0.211840  
872.000000	-0.132909  
872.500000	-0.050863  
873.000000	0.000818   
873.500000	-0.117757  
874.000000	-0.217257  
874.500000	-0.230250  
875.000000	-0.132666  
875.500000	-0.014545  
876.000000	0.032015   
876.500000	0.097257   
877.000000	0.151128   
877.500000	0.201053   
878.000000	0.141946   
878.500000	0.195946   
879.000000	0.331780   
879.500000	0.449439   
880.000000	0.345484   
880.500000	0.151166   
881.000000	-0.025204  
881.500000	-0.083000  
882.000000	-0.107106  
882.500000	-0.059007  
883.000000	-0.001181  
883.500000	0.030492   
884.000000	-0.046098  
884.500000	-0.068477  
885.000000	-0.017477  
885.500000	0.056303   
886.000000	0.058575   
886.500000	-0.064045  
887.000000	-0.150022  
887.500000	-0.140212  
888.000000	-0.040515  
888.500000	-0.020151  
889.000000	-0.034606  
889.500000	-0.049537  
890.000000	0.020795   
890.500000	-0.031590  
891.000000	-0.092909  
891.500000	-0.115643  
892.000000	-0.041530  
892.500000	-0.042901  
893.000000	-0.065651  
893.500000	-0.088825  
894.000000	-0.132810  
894.500000	-0.181553  
895.000000	-0.172113  
895.500000	0.020378   
896.000000	0.091712   
896.500000	0.052522   
897.000000	-0.092560  
897.500000	-0.081674  
898.000000	-0.069719  
898.500000	-0.076856  
899.000000	-0.122984  
899.500000	-0.066545  
900.000000	0.047992   
900.500000	0.167000   

