PE FL                   SPECTRUM    ASCII       PEDS        1.60        
  -1
S12#14.SP
24/04/15
15:14:49.00
24/04/15
15:16:14.00
Jan

900.500000
1









LS55
405.00
5.00
5.00
SCAN
1
20
100
100
0
400
0
1
0
1
5
ON
900 405 
1 0 0
#HDR
-1
-1
#GR
NM

0.00002384185791015625
0.0
450.000000
0.500000
902
8
292.978810
-0.324818
#DATA
450.000000	-0.304000  
450.500000	0.067780   
451.000000	0.138984   
451.500000	-0.030333  
452.000000	-0.091363  
452.500000	-0.044234  
453.000000	0.004825   
453.500000	-0.021765  
454.000000	0.089674   
454.500000	0.127098   
455.000000	0.103818   
455.500000	0.015984   
456.000000	0.079575   
456.500000	0.017121   
457.000000	-0.097924  
457.500000	-0.159121  
458.000000	0.010795   
458.500000	0.081833   
459.000000	0.013916   
459.500000	-0.037113  
460.000000	-0.027795  
460.500000	-0.097750  
461.000000	-0.134583  
461.500000	-0.009939  
462.000000	0.134628   
462.500000	0.153053   
463.000000	0.059878   
463.500000	0.088128   
464.000000	0.162871   
464.500000	0.147810   
465.000000	0.018939   
465.500000	-0.092704  
466.000000	-0.107431  
466.500000	-0.119462  
467.000000	-0.178280  
467.500000	-0.309181  
468.000000	-0.288469  
468.500000	-0.180681  
469.000000	0.060469   
469.500000	0.200636   
470.000000	0.192007   
470.500000	0.112075   
471.000000	0.098424   
471.500000	0.121424   
472.000000	0.037386   
472.500000	-0.039840  
473.000000	0.068651   
473.500000	0.276265   
474.000000	0.250886   
474.500000	0.080068   
475.000000	-0.028825  
475.500000	0.008068   
476.000000	0.048159   
476.500000	0.015810   
477.000000	0.007742   
477.500000	0.067901   
478.000000	0.069553   
478.500000	0.046363   
479.000000	0.149007   
479.500000	0.319227   
480.000000	0.435462   
480.500000	0.430757   
481.000000	0.352681   
481.500000	0.192037   
482.000000	0.038265   
482.500000	-0.007219  
483.000000	0.072727   
483.500000	-0.003393  
484.000000	-0.237931  
484.500000	-0.324818  
485.000000	-0.165916  
485.500000	0.060893   
486.000000	0.057916   
486.500000	-0.077734  
487.000000	-0.148977  
487.500000	-0.029121  
488.000000	0.054750   
488.500000	0.100348   
489.000000	0.002500   
489.500000	-0.080916  
490.000000	-0.075219  
490.500000	0.130545   
491.000000	0.285583   
491.500000	0.252310   
492.000000	0.103462   
492.500000	0.097416   
493.000000	0.320787   
493.500000	0.433840   
494.000000	0.371022   
494.500000	0.133734   
495.000000	0.054901   
495.500000	0.119833   
496.000000	0.361128   
496.500000	0.533484   
497.000000	0.625287   
497.500000	0.670787   
498.000000	0.779068   
498.500000	0.906007   
499.000000	0.884371   
499.500000	0.674704   
500.000000	0.511037   
500.500000	0.522666   
501.000000	0.722000   
501.500000	0.928121   
502.000000	1.098636   
502.500000	1.131848   
503.000000	1.191439   
503.500000	1.191598   
504.000000	1.305272   
504.500000	1.366696   
505.000000	1.487969   
505.500000	1.445227   
506.000000	1.516522   
506.500000	1.716734   
507.000000	2.086166   
507.500000	2.266000   
508.000000	2.224500   
508.500000	2.102681   
509.000000	2.080371   
509.500000	2.161651   
510.000000	2.321553   
510.500000	2.602583   
511.000000	2.885068   
511.500000	3.043022   
512.000000	3.073795   
512.500000	3.070909   
513.000000	3.041295   
513.500000	2.946787   
514.000000	2.810303   
514.500000	2.922643   
515.000000	3.200098   
515.500000	3.431530   
516.000000	3.314810   
516.500000	3.271772   
517.000000	3.340598   
517.500000	3.552439   
518.000000	3.486712   
518.500000	3.391356   
519.000000	3.310750   
519.500000	3.457227   
520.000000	3.513507   
520.500000	3.650681   
521.000000	3.584840   
521.500000	3.515916   
522.000000	3.485515   
522.500000	3.576280   
523.000000	3.660007   
523.500000	3.718727   
524.000000	3.946113   
524.500000	4.237053   
525.000000	4.437492   
525.500000	4.340151   
526.000000	4.219143   
526.500000	4.265022   
527.000000	4.492318   
527.500000	4.700962   
528.000000	4.776416   
528.500000	4.886401   
529.000000	5.069757   
529.500000	5.418128   
530.000000	5.589348   
530.500000	5.672643   
531.000000	5.752424   
531.500000	6.091280   
532.000000	6.451469   
532.500000	6.870772   
533.000000	7.121787   
533.500000	7.304742   
534.000000	7.330000   
534.500000	7.622628   
535.000000	8.109651   
535.500000	8.531962   
536.000000	8.936477   
536.500000	9.522522   
537.000000	10.422833  
537.500000	11.051893  
538.000000	11.413583  
538.500000	11.557030  
539.000000	12.002954  
539.500000	12.619696  
540.000000	13.604500  
540.500000	14.521893  
541.000000	14.807166  
541.500000	14.319871  
542.000000	13.494590  
542.500000	13.143310  
543.000000	13.481325  
543.500000	13.879734  
544.000000	13.639401  
544.500000	13.020310  
545.000000	12.254022  
545.500000	11.480477  
546.000000	10.811356  
546.500000	10.470348  
547.000000	10.257583  
547.500000	9.800643   
548.000000	8.929606   
548.500000	8.035727   
549.000000	7.343712   
549.500000	6.715818   
550.000000	6.358196   
550.500000	6.164878   
551.000000	5.821909   
551.500000	5.249568   
552.000000	4.706242   
552.500000	4.442212   
553.000000	4.162068   
553.500000	3.815409   
554.000000	3.411939   
554.500000	3.229090   
555.000000	3.184643   
555.500000	3.427765   
556.000000	3.709363   
556.500000	3.913750   
557.000000	3.847204   
557.500000	3.662196   
558.000000	3.472189   
558.500000	3.379106   
559.000000	3.292181   
559.500000	3.213068   
560.000000	3.170780   
560.500000	3.322962   
561.000000	3.593022   
561.500000	3.708098   
562.000000	3.633393   
562.500000	3.547484   
563.000000	3.526598   
563.500000	3.587128   
564.000000	3.676310   
564.500000	3.635325   
565.000000	3.493401   
565.500000	3.379037   
566.000000	3.365280   
566.500000	3.322348   
567.000000	3.243681   
567.500000	3.216143   
568.000000	3.382765   
568.500000	3.462719   
569.000000	3.522750   
569.500000	3.565689   
570.000000	3.700537   
570.500000	3.682515   
571.000000	3.515590   
571.500000	3.270757   
572.000000	3.266916   
572.500000	3.316196   
573.000000	3.267704   
573.500000	3.301219   
574.000000	3.591174   
574.500000	3.983977   
575.000000	4.068121   
575.500000	3.854878   
576.000000	3.605242   
576.500000	3.483878   
577.000000	3.319984   
577.500000	3.296469   
578.000000	3.421219   
578.500000	3.701719   
579.000000	3.879098   
579.500000	3.916621   
580.000000	3.701454   
580.500000	3.505893   
581.000000	3.511984   
581.500000	3.720492   
582.000000	3.792265   
582.500000	3.586818   
583.000000	3.466757   
583.500000	3.507386   
584.000000	3.623356   
584.500000	3.464689   
585.000000	3.448098   
585.500000	3.708863   
586.000000	4.224765   
586.500000	4.417742   
587.000000	4.336840   
587.500000	4.234098   
588.000000	4.381340   
588.500000	4.367295   
589.000000	4.198250   
589.500000	4.019250   
590.000000	4.252295   
590.500000	4.439803   
591.000000	4.429803   
591.500000	4.202083   
592.000000	4.094174   
592.500000	4.039689   
593.000000	4.058454   
593.500000	4.155242   
594.000000	4.462462   
594.500000	4.935757   
595.000000	5.167727   
595.500000	4.941219   
596.000000	4.615946   
596.500000	4.458257   
597.000000	4.768136   
597.500000	5.187068   
598.000000	5.553621   
598.500000	5.618772   
599.000000	5.557143   
599.500000	5.312833   
600.000000	5.221189   
600.500000	5.173469   
601.000000	5.352674   
601.500000	5.511530   
602.000000	5.620068   
602.500000	5.733803   
603.000000	6.101757   
603.500000	6.347575   
604.000000	6.366121   
604.500000	6.182772   
605.000000	6.320174   
605.500000	6.517378   
606.000000	6.726469   
606.500000	6.696166   
607.000000	6.875795   
607.500000	7.172083   
608.000000	7.763250   
608.500000	7.962401   
609.000000	8.089060   
609.500000	8.220227   
610.000000	8.547560   
610.500000	8.475219   
611.000000	8.544939   
611.500000	8.904371   
612.000000	9.564666   
612.500000	9.827803   
613.000000	10.057590  
613.500000	10.427212  
614.000000	10.943303  
614.500000	11.430909  
615.000000	11.661515  
615.500000	11.769000  
616.000000	11.922242  
616.500000	12.756128  
617.000000	13.755189  
617.500000	14.466250  
618.000000	14.579848  
618.500000	14.602280  
619.000000	14.653393  
619.500000	15.051007  
620.000000	15.947681  
620.500000	17.090696  
621.000000	17.954196  
621.500000	18.440340  
622.000000	19.165787  
622.500000	19.724060  
623.000000	20.147287  
623.500000	19.969000  
624.000000	20.080696  
624.500000	20.449545  
625.000000	21.723727  
625.500000	23.299871  
626.000000	25.043674  
626.500000	26.391712  
627.000000	27.310651  
627.500000	28.024189  
628.000000	28.493765  
628.500000	29.386848  
629.000000	30.639568  
629.500000	32.025030  
630.000000	32.817666  
630.500000	34.155750  
631.000000	36.345462  
631.500000	38.719719  
632.000000	39.827984  
632.500000	39.963484  
633.000000	40.365848  
633.500000	42.028219  
634.000000	43.746250  
634.500000	45.064909  
635.000000	46.488007  
635.500000	48.729522  
636.000000	50.879757  
636.500000	52.551651  
637.000000	53.822212  
637.500000	55.713310  
638.000000	58.091083  
638.500000	60.585689  
639.000000	62.978537  
639.500000	65.107295  
640.000000	67.268098  
640.500000	69.439462  
641.000000	71.854674  
641.500000	73.619287  
642.000000	75.026166  
642.500000	77.512833  
643.000000	81.091189  
643.500000	84.647719  
644.000000	87.193962  
644.500000	89.847628  
645.000000	92.779045  
645.500000	95.955166  
646.000000	98.221401  
646.500000	100.804863 
647.000000	103.272469 
647.500000	105.379689 
648.000000	107.977727 
648.500000	111.641969 
649.000000	115.953000 
649.500000	119.658560 
650.000000	122.730136 
650.500000	125.419666 
651.000000	128.528340 
651.500000	130.745696 
652.000000	133.363424 
652.500000	136.235439 
653.000000	140.175621 
653.500000	144.298348 
654.000000	148.999696 
654.500000	151.940325 
655.000000	153.707098 
655.500000	155.232446 
656.000000	159.153992 
656.500000	164.544681 
657.000000	169.570053 
657.500000	173.832621 
658.000000	177.931795 
658.500000	181.754393 
659.000000	184.840856 
659.500000	188.672863 
660.000000	193.417348 
660.500000	198.362583 
661.000000	201.615000 
661.500000	203.703681 
662.000000	206.601643 
662.500000	209.919833 
663.000000	213.522575 
663.500000	215.562340 
664.000000	218.897439 
664.500000	224.058469 
665.000000	231.624030 
665.500000	237.325106 
666.000000	240.095015 
666.500000	240.957196 
667.000000	242.652325 
667.500000	246.090772 
668.000000	248.433318 
668.500000	249.890871 
669.000000	251.577090 
669.500000	254.714416 
670.000000	257.947371 
670.500000	260.438106 
671.000000	263.499984 
671.500000	266.901287 
672.000000	270.517219 
672.500000	273.114681 
673.000000	274.727212 
673.500000	275.077818 
674.000000	275.173151 
674.500000	277.479219 
675.000000	280.740924 
675.500000	283.456969 
676.000000	284.970795 
676.500000	286.598606 
677.000000	288.651704 
677.500000	290.837962 
678.000000	292.624871 
678.500000	292.978810 
679.000000	292.365659 
679.500000	291.922606 
680.000000	292.712833 
680.500000	292.760530 
681.000000	291.267712 
681.500000	289.512757 
682.000000	289.116537 
682.500000	290.073696 
683.000000	290.620340 
683.500000	289.561431 
684.000000	288.013325 
684.500000	286.826492 
685.000000	286.804689 
685.500000	287.242272 
686.000000	287.387166 
686.500000	286.097553 
687.000000	283.708545 
687.500000	280.415689 
688.000000	277.248825 
688.500000	275.228939 
689.000000	273.902719 
689.500000	272.052590 
690.000000	268.517848 
690.500000	264.202628 
691.000000	260.097507 
691.500000	256.683590 
692.000000	253.358962 
692.500000	250.332856 
693.000000	246.158181 
693.500000	241.208568 
694.000000	235.580840 
694.500000	230.041378 
695.000000	223.983757 
695.500000	218.676848 
696.000000	214.746196 
696.500000	210.890651 
697.000000	206.277204 
697.500000	201.426628 
698.000000	198.162984 
698.500000	195.087090 
699.000000	191.863098 
699.500000	188.290833 
700.000000	183.829931 
700.500000	177.402469 
701.000000	170.950871 
701.500000	166.469909 
702.000000	163.674568 
702.500000	159.434022 
703.000000	154.357893 
703.500000	148.948325 
704.000000	144.961810 
704.500000	140.416333 
705.000000	136.120446 
705.500000	131.350469 
706.000000	128.108856 
706.500000	126.089530 
707.000000	124.524840 
707.500000	121.343969 
708.000000	117.035909 
708.500000	112.367037 
709.000000	108.575106 
709.500000	105.992674 
710.000000	103.999522 
710.500000	101.633780 
711.000000	98.628424  
711.500000	95.306666  
712.000000	92.061621  
712.500000	89.814340  
713.000000	87.927303  
713.500000	85.564212  
714.000000	81.662537  
714.500000	78.173719  
715.000000	75.993090  
715.500000	75.076840  
716.000000	73.863204  
716.500000	72.684984  
717.000000	70.503992  
717.500000	67.350810  
718.000000	63.915545  
718.500000	61.702954  
719.000000	60.118507  
719.500000	58.813386  
720.000000	57.491886  
720.500000	56.592696  
721.000000	55.134977  
721.500000	52.956712  
722.000000	50.267689  
722.500000	48.463689  
723.000000	47.482371  
723.500000	46.587909  
724.000000	44.637348  
724.500000	42.471393  
725.000000	40.834621  
725.500000	39.826992  
726.000000	38.936818  
726.500000	38.039492  
727.000000	37.040030  
727.500000	35.934257  
728.000000	34.661931  
728.500000	34.045045  
729.000000	33.805053  
729.500000	33.383856  
730.000000	32.516280  
730.500000	31.324522  
731.000000	29.908204  
731.500000	28.535416  
732.000000	27.438840  
732.500000	26.892234  
733.000000	26.637651  
733.500000	26.011257  
734.000000	24.990015  
734.500000	23.795060  
735.000000	22.732818  
735.500000	22.313250  
736.000000	22.120848  
736.500000	21.687295  
737.000000	20.710469  
737.500000	19.797522  
738.000000	19.167628  
738.500000	18.880106  
739.000000	18.498280  
739.500000	18.142856  
740.000000	17.692984  
740.500000	17.052242  
741.000000	16.346053  
741.500000	15.744151  
742.000000	15.472507  
742.500000	15.313954  
743.000000	15.394318  
743.500000	15.303416  
744.000000	14.915590  
744.500000	14.234189  
745.000000	13.402787  
745.500000	12.598265  
746.000000	12.129022  
746.500000	11.966992  
747.000000	12.163530  
747.500000	12.211636  
748.000000	11.976962  
748.500000	11.536704  
749.000000	11.320151  
749.500000	11.402030  
750.000000	11.721007  
750.500000	11.547628  
751.000000	10.917083  
751.500000	10.180037  
752.000000	9.870416   
752.500000	9.964333   
753.000000	10.048401  
753.500000	9.633318   
754.000000	9.166916   
754.500000	8.881537   
755.000000	8.799128   
755.500000	8.609727   
756.000000	8.113454   
756.500000	7.698825   
757.000000	7.675613   
757.500000	7.990704   
758.000000	8.283500   
758.500000	8.441022   
759.000000	8.211378   
759.500000	7.938696   
760.000000	7.558401   
760.500000	7.303719   
761.000000	7.088765   
761.500000	6.845765   
762.000000	6.478492   
762.500000	6.335522   
763.000000	6.428659   
763.500000	6.464477   
764.000000	6.179189   
764.500000	6.019742   
765.000000	6.193750   
765.500000	6.425871   
766.000000	6.180159   
766.500000	6.054113   
767.000000	6.181734   
767.500000	6.455734   
768.000000	6.059143   
768.500000	5.338189   
769.000000	4.792681   
769.500000	4.841113   
770.000000	5.010189   
770.500000	5.098500   
771.000000	4.937924   
771.500000	4.629174   
772.000000	4.362204   
772.500000	4.443833   
773.000000	4.798295   
773.500000	5.049416   
774.000000	4.696916   
774.500000	4.262325   
775.000000	4.063249   
775.500000	4.069863   
776.000000	4.005977   
776.500000	4.017704   
777.000000	4.114893   
777.500000	4.094454   
778.000000	3.893454   
778.500000	3.701848   
779.000000	3.756303   
779.500000	3.915621   
780.000000	3.901772   
780.500000	3.946128   
781.000000	3.878734   
781.500000	3.845492   
782.000000	3.530689   
782.500000	3.338568   
783.000000	3.187583   
783.500000	3.209325   
784.000000	3.149795   
784.500000	3.198151   
785.000000	3.252371   
785.500000	3.181810   
786.000000	3.041310   
786.500000	3.085507   
787.000000	3.384242   
787.500000	3.618636   
788.000000	3.537295   
788.500000	3.319060   
789.000000	3.190924   
789.500000	3.176984   
790.000000	3.179143   
790.500000	3.085159   
791.000000	3.050181   
791.500000	3.007803   
792.000000	3.069212   
792.500000	3.048356   
793.000000	3.089128   
793.500000	3.030113   
794.000000	3.000287   
794.500000	2.737166   
795.000000	2.578833   
795.500000	2.586151   
796.000000	2.807181   
796.500000	2.925507   
797.000000	2.980356   
797.500000	2.953212   
798.000000	2.964219   
798.500000	2.934075   
799.000000	2.992651   
799.500000	2.992696   
800.000000	2.871469   
800.500000	2.534719   
801.000000	2.306037   
801.500000	2.223590   
802.000000	2.273681   
802.500000	2.345075   
803.000000	2.498878   
803.500000	2.595189   
804.000000	2.589030   
804.500000	2.364431   
805.000000	2.041666   
805.500000	1.906787   
806.000000	2.151750   
806.500000	2.478265   
807.000000	2.537537   
807.500000	2.359583   
808.000000	2.211325   
808.500000	2.146537   
809.000000	2.033863   
809.500000	2.009666   
810.000000	2.103750   
810.500000	1.998750   
811.000000	1.797113   
811.500000	1.560204   
812.000000	1.590439   
812.500000	1.632803   
813.000000	1.782909   
813.500000	1.782863   
814.000000	1.852136   
814.500000	1.878871   
815.000000	1.972681   
815.500000	1.955590   
816.000000	1.923984   
816.500000	1.744727   
817.000000	1.560598   
817.500000	1.388234   
818.000000	1.458265   
818.500000	1.481083   
819.000000	1.572424   
819.500000	1.701696   
820.000000	1.976431   
820.500000	1.988878   
821.000000	1.974666   
821.500000	2.071196   
822.000000	2.453416   
822.500000	2.588750   
823.000000	2.604409   
823.500000	2.497424   
824.000000	2.514272   
824.500000	2.475227   
825.000000	2.510348   
825.500000	2.605727   
826.000000	2.690143   
826.500000	2.531674   
827.000000	2.188386   
827.500000	1.860401   
828.000000	1.723833   
828.500000	1.741772   
829.000000	1.867363   
829.500000	1.842500   
830.000000	1.692613   
830.500000	1.387568   
831.000000	1.128121   
831.500000	0.987999   
832.000000	1.029734   
832.500000	1.091053   
833.000000	1.059659   
833.500000	0.988265   
834.000000	1.092590   
834.500000	1.311636   
835.000000	1.405931   
835.500000	1.277553   
836.000000	1.141189   
836.500000	1.067924   
837.000000	1.076371   
837.500000	1.032674   
838.000000	0.961166   
838.500000	0.786196   
839.000000	0.689712   
839.500000	0.656401   
840.000000	0.807060   
840.500000	0.900310   
841.000000	0.974227   
841.500000	0.956924   
842.000000	0.975613   
842.500000	0.884848   
843.000000	0.689901   
843.500000	0.471128   
844.000000	0.340212   
844.500000	0.408613   
845.000000	0.485424   
845.500000	0.511030   
846.000000	0.375053   
846.500000	0.267250   
847.000000	0.199780   
847.500000	0.248037   
848.000000	0.306568   
848.500000	0.307280   
849.000000	0.325469   
849.500000	0.275022   
850.000000	0.237886   
850.500000	0.155462   
851.000000	0.161530   
851.500000	0.096712   
852.000000	0.038416   
852.500000	0.031939   
853.000000	0.206098   
853.500000	0.377772   
854.000000	0.411537   
854.500000	0.376651   
855.000000	0.396371   
855.500000	0.352507   
856.000000	0.203325   
856.500000	0.047537   
857.000000	0.016022   
857.500000	0.013030   
858.000000	0.032984   
858.500000	0.043083   
859.000000	0.079098   
859.500000	0.092318   
860.000000	0.051477   
860.500000	-0.033113  
861.000000	-0.104583  
861.500000	0.020999   
862.000000	0.286840   
862.500000	0.443409   
863.000000	0.297757   
863.500000	0.050363   
864.000000	-0.053719  
864.500000	-0.056613  
865.000000	-0.082613  
865.500000	-0.096757  
866.000000	-0.034795  
866.500000	0.078303   
867.000000	0.141265   
867.500000	0.153022   
868.000000	0.103575   
868.500000	0.068924   
869.000000	0.038181   
869.500000	0.031053   
870.000000	0.034727   
870.500000	0.057181   
871.000000	0.081575   
871.500000	0.053833   
872.000000	-0.002234  
872.500000	0.032083   
873.000000	0.119340   
873.500000	0.165537   
874.000000	-0.008250  
874.500000	-0.154522  
875.000000	-0.177795  
875.500000	-0.023242  
876.000000	-0.026181  
876.500000	-0.064234  
877.000000	-0.087946  
877.500000	0.066280   
878.000000	0.128007   
878.500000	0.174507   
879.000000	0.152257   
879.500000	0.140280   
880.000000	0.067333   
880.500000	0.026606   
881.000000	0.004378   
881.500000	0.057848   
882.000000	0.135045   
882.500000	0.180060   
883.000000	0.129553   
883.500000	-0.000068  
884.000000	-0.118598  
884.500000	-0.195893  
885.000000	-0.210636  
885.500000	-0.125106  
886.000000	0.001227   
886.500000	0.130818   
887.000000	0.133098   
887.500000	0.048090   
888.000000	-0.151977  
888.500000	-0.222598  
889.000000	-0.255712  
889.500000	-0.195083  
890.000000	-0.163492  
890.500000	-0.043628  
891.000000	0.052992   
891.500000	0.069825   
892.000000	0.038083   
892.500000	-0.025659  
893.000000	-0.070522  
893.500000	-0.135803  
894.000000	-0.139257  
894.500000	-0.147295  
895.000000	-0.109689  
895.500000	-0.063219  
896.000000	-0.009712  
896.500000	-0.009295  
897.000000	0.023537   
897.500000	0.078159   
898.000000	0.071704   
898.500000	-0.028871  
899.000000	-0.082628  
899.500000	-0.050106  
900.000000	-0.003946  
900.500000	-0.032000  

