PE FL                   SPECTRUM    ASCII       PEDS        1.60        
  -1
S12#23.SP
24/04/15
15:27:38.00
24/04/15
15:29:03.00
Jan

900.500000
1









LS55
405.00
5.00
5.00
SCAN
1
20
100
100
0
400
0
1
0
1
5
ON
900 405 
1 0 0
#HDR
-1
-1
#GR
NM

0.00002384185791015625
0.0
450.000000
0.500000
902
8
263.597636
-0.492757
#DATA
450.000000	-0.001000  
450.500000	-0.111628  
451.000000	-0.195022  
451.500000	-0.196159  
452.000000	-0.091863  
452.500000	0.025333   
453.000000	0.122712   
453.500000	0.161477   
454.000000	0.161901   
454.500000	0.004022   
455.000000	-0.226598  
455.500000	-0.357628  
456.000000	-0.248643  
456.500000	-0.014749  
457.000000	0.058871   
457.500000	-0.108643  
458.000000	-0.416227  
458.500000	-0.492757  
459.000000	-0.439515  
459.500000	-0.184969  
460.000000	-0.057469  
460.500000	0.029719   
461.000000	-0.076295  
461.500000	-0.079212  
462.000000	0.002272   
462.500000	0.125348   
463.000000	0.076916   
463.500000	-0.035219  
464.000000	-0.041378  
464.500000	0.041537   
465.000000	0.134931   
465.500000	0.164242   
466.000000	0.093151   
466.500000	0.047886   
467.000000	0.040295   
467.500000	0.091590   
468.000000	0.033045   
468.500000	-0.068083  
469.000000	-0.098749  
469.500000	-0.018439  
470.000000	0.088181   
470.500000	0.106204   
471.000000	0.085340   
471.500000	0.028954   
472.000000	0.046825   
472.500000	0.087348   
473.000000	0.019712   
473.500000	-0.097787  
474.000000	-0.242871  
474.500000	-0.295530  
475.000000	-0.207204  
475.500000	0.060409   
476.000000	0.248439   
476.500000	0.152166   
477.000000	-0.069772  
477.500000	-0.042007  
478.000000	0.157257   
478.500000	0.250098   
479.000000	0.081856   
479.500000	-0.029378  
480.000000	0.007098   
480.500000	0.166189   
481.000000	0.219106   
481.500000	0.214098   
482.000000	0.115325   
482.500000	0.058628   
483.000000	0.030196   
483.500000	0.022757   
484.000000	0.008530   
484.500000	-0.061507  
485.000000	-0.105810  
485.500000	-0.080409  
486.000000	-0.084954  
486.500000	-0.071992  
487.000000	-0.055212  
487.500000	-0.064022  
488.000000	-0.162484  
488.500000	-0.254878  
489.000000	-0.214045  
489.500000	-0.051863  
490.000000	0.084310   
490.500000	0.044999   
491.000000	0.010977   
491.500000	-0.085060  
492.000000	0.036340   
492.500000	0.068530   
493.000000	0.058098   
493.500000	0.014712   
494.000000	0.196075   
494.500000	0.322136   
495.000000	0.298636   
495.500000	0.093386   
496.000000	0.122295   
496.500000	0.279037   
497.000000	0.459590   
497.500000	0.516106   
498.000000	0.709916   
498.500000	0.758803   
499.000000	0.663143   
499.500000	0.413492   
500.000000	0.455946   
500.500000	0.691075   
501.000000	0.896424   
501.500000	0.798000   
502.000000	0.655818   
502.500000	0.606795   
503.000000	0.753818   
503.500000	0.891037   
504.000000	0.980757   
504.500000	1.065492   
505.000000	1.183492   
505.500000	1.236946   
506.000000	1.273537   
506.500000	1.352901   
507.000000	1.483280   
507.500000	1.584863   
508.000000	1.819750   
508.500000	2.173825   
509.000000	2.490939   
509.500000	2.473939   
510.000000	2.380946   
510.500000	2.403287   
511.000000	2.582242   
511.500000	2.673477   
512.000000	2.653166   
512.500000	2.725825   
513.000000	2.932553   
513.500000	3.118083   
514.000000	3.075166   
514.500000	2.891424   
515.000000	2.795265   
515.500000	2.880893   
516.000000	3.096325   
516.500000	3.300401   
517.000000	3.420795   
517.500000	3.473901   
518.000000	3.701946   
518.500000	3.917886   
519.000000	3.954212   
519.500000	3.793340   
520.000000	3.593477   
520.500000	3.586446   
521.000000	3.685212   
521.500000	3.812446   
522.000000	3.722727   
522.500000	3.740984   
523.000000	3.842136   
523.500000	4.055962   
524.000000	3.905931   
524.500000	3.602416   
525.000000	3.404257   
525.500000	3.633598   
526.000000	4.009818   
526.500000	4.321598   
527.000000	4.550356   
527.500000	4.808681   
528.000000	5.047068   
528.500000	5.213727   
529.000000	5.451651   
529.500000	5.839681   
530.000000	6.112636   
530.500000	6.037606   
531.000000	5.794727   
531.500000	5.694734   
532.000000	5.887439   
532.500000	6.299287   
533.000000	6.763303   
533.500000	7.191613   
534.000000	7.679386   
534.500000	8.173371   
535.000000	8.471037   
535.500000	8.599537   
536.000000	9.015651   
536.500000	9.531628   
537.000000	9.939386   
537.500000	10.277886  
538.000000	10.908446  
538.500000	11.777901  
539.000000	12.427848  
539.500000	12.872507  
540.000000	13.065333  
540.500000	13.289719  
541.000000	13.457113  
541.500000	13.860727  
542.000000	14.114931  
542.500000	14.225795  
543.000000	13.948378  
543.500000	13.564825  
544.000000	13.053954  
544.500000	12.748856  
545.000000	12.534492  
545.500000	12.286295  
546.000000	11.397522  
546.500000	10.465363  
547.000000	9.677318   
547.500000	9.189969   
548.000000	8.487787   
548.500000	7.861462   
549.000000	7.490878   
549.500000	7.215227   
550.000000	6.720106   
550.500000	6.206204   
551.000000	5.905810   
551.500000	5.487174   
552.000000	4.778484   
552.500000	4.114333   
553.000000	4.016545   
553.500000	4.223416   
554.000000	4.256128   
554.500000	3.867507   
555.000000	3.703477   
555.500000	3.844537   
556.000000	3.971083   
556.500000	3.593848   
557.000000	3.197863   
557.500000	3.108606   
558.000000	3.243333   
558.500000	3.296333   
559.000000	3.277825   
559.500000	3.384500   
560.000000	3.487613   
560.500000	3.564568   
561.000000	3.515196   
561.500000	3.455106   
562.000000	3.294734   
562.500000	3.233287   
563.000000	3.227189   
563.500000	3.417068   
564.000000	3.484825   
564.500000	3.351795   
565.000000	3.025560   
565.500000	2.891500   
566.000000	3.030886   
566.500000	3.212613   
567.000000	3.289772   
567.500000	3.243901   
568.000000	3.184431   
568.500000	3.230803   
569.000000	3.382492   
569.500000	3.494946   
570.000000	3.407454   
570.500000	3.278886   
571.000000	3.306659   
571.500000	3.436606   
572.000000	3.366371   
572.500000	3.158500   
573.000000	3.069613   
573.500000	3.364977   
574.000000	3.788409   
574.500000	4.148151   
575.000000	3.927583   
575.500000	3.665030   
576.000000	3.410219   
576.500000	3.458098   
577.000000	3.180522   
577.500000	3.047121   
578.000000	3.106378   
578.500000	3.568424   
579.000000	3.632954   
579.500000	3.448287   
580.000000	3.111893   
580.500000	3.233280   
581.000000	3.545765   
581.500000	3.946916   
582.000000	3.884689   
582.500000	3.478212   
583.000000	3.077901   
583.500000	3.072363   
584.000000	3.475500   
584.500000	3.863871   
585.000000	4.065704   
585.500000	3.854969   
586.000000	3.501901   
586.500000	3.258212   
587.000000	3.386500   
587.500000	3.561598   
588.000000	3.711772   
588.500000	3.657492   
589.000000	3.713484   
589.500000	3.795909   
590.000000	4.123886   
590.500000	4.230621   
591.000000	4.313454   
591.500000	4.089318   
592.000000	4.177984   
592.500000	4.092946   
593.000000	4.039757   
593.500000	3.853431   
594.000000	4.055916   
594.500000	4.358545   
595.000000	4.729371   
595.500000	4.831780   
596.000000	4.807696   
596.500000	4.681378   
597.000000	4.711507   
597.500000	4.844075   
598.000000	5.041272   
598.500000	5.068242   
599.000000	5.235795   
599.500000	5.491734   
600.000000	5.942045   
600.500000	5.985204   
601.000000	5.992045   
601.500000	5.849318   
602.000000	6.058083   
602.500000	6.136909   
603.000000	6.169598   
603.500000	6.040143   
604.000000	6.045227   
604.500000	5.999053   
605.000000	6.020810   
605.500000	6.228340   
606.000000	6.777621   
606.500000	7.539757   
607.000000	7.869856   
607.500000	7.854651   
608.000000	7.837765   
608.500000	7.948909   
609.000000	8.144303   
609.500000	8.380863   
610.000000	8.609818   
610.500000	8.839780   
611.000000	9.090015   
611.500000	9.187878   
612.000000	9.139893   
612.500000	9.134098   
613.000000	9.652719   
613.500000	10.450143  
614.000000	10.944462  
614.500000	11.050416  
615.000000	11.120454  
615.500000	11.221333  
616.000000	11.529204  
616.500000	12.036833  
617.000000	12.813128  
617.500000	13.658151  
618.000000	14.430121  
618.500000	15.048484  
619.000000	15.247272  
619.500000	15.403310  
620.000000	15.321310  
620.500000	15.510507  
621.000000	15.785757  
621.500000	16.675598  
622.000000	17.457939  
622.500000	18.488871  
623.000000	19.240780  
623.500000	19.993750  
624.000000	20.248545  
624.500000	20.609727  
625.000000	21.267871  
625.500000	22.257939  
626.000000	23.246825  
626.500000	24.314325  
627.000000	25.453045  
627.500000	26.531409  
628.000000	27.698628  
628.500000	28.738287  
629.000000	29.693734  
629.500000	30.682477  
630.000000	32.270340  
630.500000	34.203871  
631.000000	35.513106  
631.500000	35.894431  
632.000000	36.839257  
632.500000	39.059621  
633.000000	41.625090  
633.500000	43.244310  
634.000000	44.044393  
634.500000	44.741393  
635.000000	45.575234  
635.500000	46.849446  
636.000000	48.405651  
636.500000	50.415227  
637.000000	52.289060  
637.500000	54.596053  
638.000000	56.807106  
638.500000	59.130969  
639.000000	61.172242  
639.500000	63.218295  
640.000000	65.298166  
640.500000	67.506848  
641.000000	69.614636  
641.500000	71.441007  
642.000000	73.540666  
642.500000	75.509431  
643.000000	78.080530  
643.500000	80.374765  
644.000000	82.950977  
644.500000	85.307621  
645.000000	87.892598  
645.500000	90.797151  
646.000000	93.916840  
646.500000	96.223954  
647.000000	98.330749  
647.500000	101.195287 
648.000000	104.675931 
648.500000	107.411886 
649.000000	109.637689 
649.500000	111.675113 
650.000000	114.683984 
650.500000	118.382196 
651.000000	122.534643 
651.500000	125.675037 
652.000000	127.579477 
652.500000	129.838833 
653.000000	133.812909 
653.500000	138.307696 
654.000000	141.252621 
654.500000	143.522113 
655.000000	146.547121 
655.500000	151.242318 
656.000000	155.657628 
656.500000	159.077196 
657.000000	161.093242 
657.500000	164.372848 
658.000000	168.277727 
658.500000	172.227075 
659.000000	174.933545 
659.500000	178.274219 
660.000000	182.010295 
660.500000	186.575174 
661.000000	189.965606 
661.500000	193.000068 
662.000000	194.851833 
662.500000	197.970219 
663.000000	200.764939 
663.500000	204.444643 
664.000000	206.113371 
664.500000	208.505772 
665.000000	210.303931 
665.500000	212.836280 
666.000000	216.078090 
666.500000	220.031696 
667.000000	223.148045 
667.500000	224.502712 
668.000000	226.193265 
668.500000	229.477704 
669.000000	233.631515 
669.500000	236.657037 
670.000000	238.450583 
670.500000	240.370462 
671.000000	242.087863 
671.500000	243.872333 
672.000000	245.277719 
672.500000	246.651295 
673.000000	247.910560 
673.500000	248.630583 
674.000000	250.553628 
674.500000	252.963901 
675.000000	255.736780 
675.500000	256.907280 
676.000000	256.910166 
676.500000	255.905954 
677.000000	255.041189 
677.500000	255.352795 
678.000000	256.498939 
678.500000	258.212159 
679.000000	259.152992 
679.500000	259.850083 
680.000000	260.552757 
680.500000	262.285287 
681.000000	263.597636 
681.500000	262.905318 
682.000000	259.451696 
682.500000	256.432780 
683.000000	255.068606 
683.500000	256.260068 
684.000000	257.399984 
684.500000	257.612931 
685.000000	254.833893 
685.500000	250.756681 
686.000000	247.601818 
686.500000	246.038431 
687.000000	245.593196 
687.500000	244.803287 
688.000000	242.352878 
688.500000	238.333166 
689.000000	235.107636 
689.500000	232.792310 
690.000000	230.838030 
690.500000	228.144272 
691.000000	224.128363 
691.500000	219.600439 
692.000000	214.930272 
692.500000	212.434000 
693.000000	210.688560 
693.500000	207.697113 
694.000000	202.528818 
694.500000	197.786386 
695.000000	193.528750 
695.500000	190.106416 
696.000000	186.240257 
696.500000	181.952340 
697.000000	176.651257 
697.500000	171.231257 
698.000000	166.293219 
698.500000	161.849143 
699.000000	157.770083 
699.500000	154.768962 
700.000000	151.880363 
700.500000	148.241643 
701.000000	143.389795 
701.500000	138.472401 
702.000000	134.812477 
702.500000	130.944969 
703.000000	126.326537 
703.500000	121.958515 
704.000000	119.418545 
704.500000	117.101590 
705.000000	113.910507 
705.500000	109.652742 
706.000000	105.978325 
706.500000	102.778075 
707.000000	99.946515  
707.500000	97.608310  
708.000000	96.123462  
708.500000	93.625174  
709.000000	90.084931  
709.500000	86.387992  
710.000000	84.381363  
710.500000	83.045704  
711.000000	81.347136  
711.500000	79.072727  
712.000000	77.076962  
712.500000	75.304431  
713.000000	73.181606  
713.500000	70.872666  
714.000000	68.172696  
714.500000	65.526749  
715.000000	63.073174  
715.500000	61.507348  
716.000000	60.371643  
716.500000	58.946045  
717.000000	56.827931  
717.500000	54.939628  
718.000000	53.168583  
718.500000	51.862219  
719.000000	50.317295  
719.500000	48.623886  
720.000000	46.684568  
720.500000	45.377477  
721.000000	43.819878  
721.500000	42.516590  
722.000000	40.386128  
722.500000	39.096060  
723.000000	38.334136  
723.500000	38.499863  
724.000000	37.347742  
724.500000	36.125053  
725.000000	34.977704  
725.500000	35.078416  
726.000000	34.738757  
726.500000	33.254946  
727.000000	31.114280  
727.500000	29.460628  
728.000000	28.445909  
728.500000	27.914196  
729.000000	27.689393  
729.500000	27.476462  
730.000000	26.739901  
730.500000	25.915500  
731.000000	24.825030  
731.500000	23.849553  
732.000000	22.487318  
732.500000	21.752818  
733.000000	21.589939  
733.500000	21.563219  
734.000000	20.587181  
734.500000	19.203727  
735.000000	18.228757  
735.500000	18.091371  
736.000000	18.233537  
736.500000	18.185393  
737.000000	18.034628  
737.500000	17.787106  
738.000000	17.344068  
738.500000	16.393363  
739.000000	15.405871  
739.500000	14.569621  
740.000000	14.282825  
740.500000	14.120053  
741.000000	14.375674  
741.500000	14.341174  
742.000000	14.257901  
742.500000	13.664962  
743.000000	13.106015  
743.500000	12.566431  
744.000000	12.364901  
744.500000	12.085628  
745.000000	11.794098  
745.500000	11.325689  
746.000000	10.772053  
746.500000	10.536856  
747.000000	10.544174  
747.500000	10.829583  
748.000000	10.788257  
748.500000	10.565954  
749.000000	10.006787  
749.500000	9.516212   
750.000000	8.781560   
750.500000	8.794098   
751.000000	9.149000   
751.500000	9.641613   
752.000000	9.245204   
752.500000	8.511333   
753.000000	7.782492   
753.500000	7.650121   
754.000000	7.764681   
754.500000	8.041666   
755.000000	8.115636   
755.500000	7.819613   
756.000000	7.448234   
756.500000	7.235348   
757.000000	7.159151   
757.500000	7.033727   
758.000000	6.817272   
758.500000	6.981166   
759.000000	7.137840   
759.500000	7.037560   
760.000000	6.418689   
760.500000	6.040469   
761.000000	5.908825   
761.500000	5.923454   
762.000000	5.828356   
762.500000	6.000696   
763.000000	6.252348   
763.500000	6.300522   
764.000000	5.976818   
764.500000	5.723500   
765.000000	5.646553   
765.500000	5.536045   
766.000000	5.253712   
766.500000	4.792462   
767.000000	4.677015   
767.500000	4.781136   
768.000000	5.139242   
768.500000	5.017068   
769.000000	4.772053   
769.500000	4.322462   
770.000000	4.360742   
770.500000	4.540931   
771.000000	4.695878   
771.500000	4.430318   
772.000000	3.810431   
772.500000	3.457916   
773.000000	3.577431   
773.500000	4.012022   
774.000000	3.993583   
774.500000	3.830022   
775.000000	3.607946   
775.500000	3.874401   
776.000000	3.995280   
776.500000	3.997651   
777.000000	3.766257   
777.500000	3.742621   
778.000000	3.726484   
778.500000	3.698886   
779.000000	3.455484   
779.500000	3.326189   
780.000000	3.316234   
780.500000	3.358257   
781.000000	3.383318   
781.500000	3.450848   
782.000000	3.578734   
782.500000	3.586053   
783.000000	3.521659   
783.500000	3.362416   
784.000000	3.332303   
784.500000	3.225651   
785.000000	3.160553   
785.500000	3.075401   
786.000000	3.090628   
786.500000	3.127613   
787.000000	3.126530   
787.500000	3.130696   
788.000000	3.225681   
788.500000	3.158333   
789.000000	2.979992   
789.500000	2.821954   
790.000000	2.915333   
790.500000	3.033946   
791.000000	3.124954   
791.500000	3.056659   
792.000000	3.054886   
792.500000	3.096537   
793.000000	3.148143   
793.500000	3.096234   
794.000000	2.875606   
794.500000	2.615424   
795.000000	2.496250   
795.500000	2.472833   
796.000000	2.459931   
796.500000	2.472727   
797.000000	2.498553   
797.500000	2.589545   
798.000000	2.712848   
798.500000	2.733818   
799.000000	2.593037   
799.500000	2.495015   
800.000000	2.501189   
800.500000	2.518803   
801.000000	2.469575   
801.500000	2.481636   
802.000000	2.580803   
802.500000	2.633083   
803.000000	2.535015   
803.500000	2.383962   
804.000000	2.150090   
804.500000	2.029053   
805.000000	2.054340   
805.500000	2.235916   
806.000000	2.315636   
806.500000	2.264037   
807.000000	2.157780   
807.500000	2.051984   
808.000000	2.029871   
808.500000	2.081113   
809.000000	2.174083   
809.500000	2.099136   
810.000000	2.104454   
810.500000	2.134954   
811.000000	2.179818   
811.500000	2.066325   
812.000000	1.934393   
812.500000	1.803878   
813.000000	1.821530   
813.500000	1.766825   
814.000000	1.719909   
814.500000	1.631636   
815.000000	1.692840   
815.500000	1.718772   
816.000000	1.815803   
816.500000	1.832469   
817.000000	1.826651   
817.500000	1.611151   
818.000000	1.495893   
818.500000	1.591750   
819.000000	1.892507   
819.500000	2.044575   
820.000000	2.237886   
820.500000	2.344204   
821.000000	2.357848   
821.500000	2.248553   
822.000000	2.339962   
822.500000	2.472409   
823.000000	2.423257   
823.500000	2.268280   
824.000000	2.253674   
824.500000	2.384871   
825.000000	2.430257   
825.500000	2.497712   
826.000000	2.515659   
826.500000	2.296742   
827.000000	1.977666   
827.500000	1.834189   
828.000000	1.940583   
828.500000	1.938409   
829.000000	1.843613   
829.500000	1.778416   
830.000000	1.768856   
830.500000	1.516704   
831.000000	1.172613   
831.500000	1.094121   
832.000000	1.215280   
832.500000	1.305431   
833.000000	1.198477   
833.500000	1.082765   
834.000000	0.956901   
834.500000	0.926795   
835.000000	0.877590   
835.500000	0.931000   
836.000000	0.941545   
836.500000	0.993984   
837.000000	0.970159   
837.500000	0.917310   
838.000000	0.772030   
838.500000	0.787803   
839.000000	0.866174   
839.500000	0.862628   
840.000000	0.783537   
840.500000	0.781878   
841.000000	0.821249   
841.500000	0.780522   
842.000000	0.741287   
842.500000	0.713916   
843.000000	0.756272   
843.500000	0.645962   
844.000000	0.468628   
844.500000	0.257916   
845.000000	0.226151   
845.500000	0.319909   
846.000000	0.469045   
846.500000	0.369015   
847.000000	0.184303   
847.500000	0.048128   
848.000000	0.113901   
848.500000	0.174575   
849.000000	0.239000   
849.500000	0.197848   
850.000000	0.225386   
850.500000	0.191628   
851.000000	0.169856   
851.500000	0.073643   
852.000000	0.024530   
852.500000	-0.168893  
853.000000	-0.229530  
853.500000	-0.185272  
854.000000	0.030136   
854.500000	0.143401   
855.000000	0.178484   
855.500000	0.102954   
856.000000	-0.039818  
856.500000	-0.191939  
857.000000	-0.243212  
857.500000	-0.212439  
858.000000	-0.203136  
858.500000	-0.131348  
859.000000	0.081090   
859.500000	0.213143   
860.000000	0.261848   
860.500000	0.275590   
861.000000	0.365515   
861.500000	0.300696   
862.000000	0.189143   
862.500000	-0.024765  
863.000000	-0.096999  
863.500000	-0.134946  
864.000000	-0.099386  
864.500000	-0.089037  
865.000000	-0.043522  
865.500000	-0.017803  
866.000000	-0.042325  
866.500000	-0.094712  
867.000000	-0.073189  
867.500000	0.061962   
868.000000	0.152166   
868.500000	0.106931   
869.000000	0.017803   
869.500000	-0.068727  
870.000000	-0.026613  
870.500000	-0.124772  
871.000000	-0.196106  
871.500000	-0.256734  
872.000000	-0.113833  
872.500000	-0.111621  
873.000000	-0.177303  
873.500000	-0.218863  
874.000000	-0.068128  
874.500000	0.010136   
875.000000	0.054348   
875.500000	0.117242   
876.000000	0.200515   
876.500000	0.124719   
877.000000	0.006712   
877.500000	-0.052939  
878.000000	-0.075219  
878.500000	-0.109530  
879.000000	-0.076310  
879.500000	0.053098   
880.000000	0.120333   
880.500000	0.114606   
881.000000	0.060765   
881.500000	0.066287   
882.000000	0.065378   
882.500000	-0.007469  
883.000000	-0.116704  
883.500000	-0.163462  
884.000000	-0.095636  
884.500000	-0.033113  
885.000000	0.023212   
885.500000	0.031287   
886.000000	0.077416   
886.500000	0.056931   
887.000000	0.032750   
887.500000	-0.047371  
888.000000	-0.070772  
888.500000	-0.124750  
889.000000	-0.099643  
889.500000	-0.096825  
890.000000	-0.067356  
890.500000	-0.080098  
891.000000	-0.054386  
891.500000	-0.100174  
892.000000	-0.186621  
892.500000	-0.311636  
893.000000	-0.260946  
893.500000	-0.075530  
894.000000	0.075204   
894.500000	0.014053   
895.000000	-0.080674  
895.500000	-0.107250  
896.000000	-0.034250  
896.500000	-0.007522  
897.000000	-0.005553  
897.500000	-0.067613  
898.000000	-0.095651  
898.500000	-0.096893  
899.000000	-0.030659  
899.500000	-0.005007  
900.000000	0.008060   
900.500000	0.000000   

