PE FL                   SPECTRUM    ASCII       PEDS        1.60        
  -1
S12#16.SP
24/04/15
15:17:40.00
24/04/15
15:19:05.00
Jan

900.500000
1









LS55
405.00
5.00
5.00
SCAN
1
20
100
100
0
400
0
1
0
1
5
ON
900 405 
1 0 0
#HDR
-1
-1
#GR
NM

0.00002384185791015625
0.0
450.000000
0.500000
902
8
280.621363
-0.364946
#DATA
450.000000	-0.032999  
450.500000	-0.041848  
451.000000	0.095121   
451.500000	0.252530   
452.000000	0.302083   
452.500000	0.294598   
453.000000	0.276621   
453.500000	0.164053   
454.000000	0.091568   
454.500000	0.174765   
455.000000	0.330590   
455.500000	0.247742   
456.000000	0.080931   
456.500000	-0.024212  
457.000000	0.085628   
457.500000	0.131689   
458.000000	0.186575   
458.500000	0.106106   
459.000000	0.019636   
459.500000	-0.078356  
460.000000	0.079310   
460.500000	0.364954   
461.000000	0.486704   
461.500000	0.256234   
462.000000	-0.094393  
462.500000	-0.234704  
463.000000	-0.134500  
463.500000	0.123356   
464.000000	0.209575   
464.500000	0.085893   
465.000000	-0.121787  
465.500000	-0.188977  
466.000000	-0.118704  
466.500000	-0.205818  
467.000000	-0.325969  
467.500000	-0.292893  
468.000000	0.048977   
468.500000	0.164136   
469.000000	0.064181   
469.500000	-0.242924  
470.000000	-0.192689  
470.500000	-0.024863  
471.000000	0.163075   
471.500000	0.060378   
472.000000	-0.053484  
472.500000	0.004803   
473.000000	0.161530   
473.500000	0.197272   
474.000000	0.006946   
474.500000	-0.072363  
475.000000	-0.121030  
475.500000	-0.094159  
476.000000	-0.117545  
476.500000	-0.042787  
477.000000	-0.055765  
477.500000	-0.151287  
478.000000	-0.144787  
478.500000	0.019916   
479.000000	0.145606   
479.500000	-0.025492  
480.000000	-0.277992  
480.500000	-0.364946  
481.000000	-0.217886  
481.500000	-0.108727  
482.000000	-0.086651  
482.500000	-0.062962  
483.000000	0.114015   
483.500000	0.300780   
484.000000	0.326969   
484.500000	0.187219   
485.000000	0.020636   
485.500000	-0.021030  
486.000000	-0.020507  
486.500000	0.021734   
487.000000	-0.002583  
487.500000	0.103863   
488.000000	0.286037   
488.500000	0.490818   
489.000000	0.414181   
489.500000	0.130818   
490.000000	-0.041856  
490.500000	0.002416   
491.000000	0.047310   
491.500000	-0.061272  
492.000000	-0.105159  
492.500000	-0.050136  
493.000000	0.061818   
493.500000	0.130340   
494.000000	0.301909   
494.500000	0.477446   
495.000000	0.517909   
495.500000	0.439992   
496.000000	0.394151   
496.500000	0.496643   
497.000000	0.672848   
497.500000	0.787068   
498.000000	0.741265   
498.500000	0.643303   
499.000000	0.584931   
499.500000	0.633719   
500.000000	0.660348   
500.500000	0.795045   
501.000000	1.000401   
501.500000	1.246909   
502.000000	1.296734   
502.500000	1.247022   
503.000000	1.088916   
503.500000	1.039553   
504.000000	1.004143   
504.500000	1.098765   
505.000000	1.292090   
505.500000	1.496007   
506.000000	1.683977   
506.500000	1.874090   
507.000000	2.042204   
507.500000	2.126287   
508.000000	2.107810   
508.500000	2.059401   
509.000000	2.068174   
509.500000	2.183659   
510.000000	2.390143   
510.500000	2.607992   
511.000000	2.703143   
511.500000	2.729015   
512.000000	2.800439   
512.500000	2.843227   
513.000000	2.877893   
513.500000	2.873015   
514.000000	3.041856   
514.500000	3.192787   
515.000000	3.286946   
515.500000	3.298878   
516.000000	3.279901   
516.500000	3.224583   
517.000000	3.146234   
517.500000	3.230750   
518.000000	3.435484   
518.500000	3.543530   
519.000000	3.423507   
519.500000	3.316590   
520.000000	3.282643   
520.500000	3.182856   
521.000000	3.028696   
521.500000	2.952545   
522.000000	3.302787   
522.500000	3.872628   
523.000000	4.191090   
523.500000	3.911590   
524.000000	3.459106   
524.500000	3.345992   
525.000000	3.737106   
525.500000	4.082378   
526.000000	4.290151   
526.500000	4.493507   
527.000000	4.873469   
527.500000	5.217356   
528.000000	5.364257   
528.500000	5.346022   
529.000000	5.274674   
529.500000	5.274515   
530.000000	5.452075   
530.500000	5.763833   
531.000000	5.993651   
531.500000	5.984106   
532.000000	5.947348   
532.500000	6.169189   
533.000000	6.520643   
533.500000	6.952356   
534.000000	7.601742   
534.500000	8.228863   
535.000000	8.547128   
535.500000	8.687022   
536.000000	8.882068   
536.500000	9.183249   
537.000000	9.365037   
537.500000	9.746499   
538.000000	10.521840  
538.500000	11.590128  
539.000000	12.578000  
539.500000	13.262068  
540.000000	13.308325  
540.500000	13.550871  
541.000000	14.250393  
541.500000	15.273901  
542.000000	15.674856  
542.500000	15.596863  
543.000000	15.025181  
543.500000	14.258007  
544.000000	12.953242  
544.500000	12.171590  
545.000000	11.881409  
545.500000	11.755537  
546.000000	11.147340  
546.500000	10.354075  
547.000000	9.722719   
547.500000	9.161507   
548.000000	8.597484   
548.500000	8.149833   
549.000000	7.966545   
549.500000	7.547143   
550.000000	7.016166   
550.500000	6.360749   
551.000000	5.700439   
551.500000	5.100984   
552.000000	4.686174   
552.500000	4.746848   
553.000000	4.853962   
553.500000	4.807310   
554.000000	4.328037   
554.500000	3.876689   
555.000000	3.478007   
555.500000	3.487371   
556.000000	3.553219   
556.500000	3.568469   
557.000000	3.458356   
557.500000	3.370454   
558.000000	3.336303   
558.500000	3.257522   
559.000000	3.122045   
559.500000	2.981749   
560.000000	2.989734   
560.500000	3.085462   
561.000000	3.317848   
561.500000	3.488250   
562.000000	3.535386   
562.500000	3.449651   
563.000000	3.395583   
563.500000	3.343696   
564.000000	3.232053   
564.500000	3.130318   
565.000000	3.079151   
565.500000	3.114719   
566.000000	3.211636   
566.500000	3.305416   
567.000000	3.322181   
567.500000	3.269022   
568.000000	3.198303   
568.500000	3.118560   
569.000000	3.033250   
569.500000	3.181553   
570.000000	3.510568   
570.500000	3.743840   
571.000000	3.686553   
571.500000	3.616606   
572.000000	3.605765   
572.500000	3.486765   
573.000000	3.237227   
573.500000	3.050537   
574.000000	3.142310   
574.500000	3.181742   
575.000000	3.222174   
575.500000	3.277136   
576.000000	3.435280   
576.500000	3.518916   
577.000000	3.452863   
577.500000	3.355840   
578.000000	3.379750   
578.500000	3.544325   
579.000000	3.643643   
579.500000	3.689772   
580.000000	3.524181   
580.500000	3.563969   
581.000000	3.622250   
581.500000	3.698000   
582.000000	3.502174   
582.500000	3.405969   
583.000000	3.333045   
583.500000	3.395946   
584.000000	3.412856   
584.500000	3.556378   
585.000000	3.787015   
585.500000	3.818348   
586.000000	3.645893   
586.500000	3.337946   
587.000000	3.217477   
587.500000	3.365045   
588.000000	3.863734   
588.500000	4.303674   
589.000000	4.330674   
589.500000	3.955787   
590.000000	3.727575   
590.500000	3.817356   
591.000000	4.041946   
591.500000	4.032333   
592.000000	3.955507   
592.500000	4.005712   
593.000000	4.158083   
593.500000	4.103628   
594.000000	4.069363   
594.500000	4.205219   
595.000000	4.594742   
595.500000	4.854022   
596.000000	4.786477   
596.500000	4.578765   
597.000000	4.656893   
597.500000	4.788674   
598.000000	4.819257   
598.500000	4.718371   
599.000000	4.952386   
599.500000	5.370500   
600.000000	5.652916   
600.500000	5.596204   
601.000000	5.723098   
601.500000	6.112045   
602.000000	6.406037   
602.500000	6.276962   
603.000000	6.027757   
603.500000	6.262666   
604.000000	6.669962   
604.500000	6.769083   
605.000000	6.574772   
605.500000	6.717242   
606.000000	7.022196   
606.500000	7.142469   
607.000000	7.179712   
607.500000	7.530969   
608.000000	7.901053   
608.500000	7.985651   
609.000000	8.054643   
609.500000	8.181060   
610.000000	8.401242   
610.500000	8.462522   
611.000000	8.670378   
611.500000	8.749234   
612.000000	8.887795   
612.500000	9.041136   
613.000000	9.491098   
613.500000	9.974863   
614.000000	10.312098  
614.500000	10.696000  
615.000000	11.117568  
615.500000	11.783795  
616.000000	12.247234  
616.500000	12.529734  
617.000000	12.736659  
617.500000	13.237015  
618.000000	13.851825  
618.500000	14.145181  
619.000000	14.157439  
619.500000	14.373825  
620.000000	15.121734  
620.500000	15.752719  
621.000000	16.307500  
621.500000	16.957189  
622.000000	17.621068  
622.500000	18.357856  
623.000000	19.264939  
623.500000	20.378295  
624.000000	21.135712  
624.500000	21.170977  
625.000000	21.168015  
625.500000	21.877477  
626.000000	23.333977  
626.500000	24.863734  
627.000000	25.943871  
627.500000	26.568469  
628.000000	27.348219  
628.500000	28.643590  
629.000000	30.094462  
629.500000	31.453212  
630.000000	32.207659  
630.500000	32.967045  
631.000000	34.191204  
631.500000	35.911151  
632.000000	37.543621  
632.500000	38.845969  
633.000000	40.178159  
633.500000	41.538424  
634.000000	42.926575  
634.500000	44.260825  
635.000000	46.110969  
635.500000	47.947893  
636.000000	49.805143  
636.500000	51.354666  
637.000000	53.363219  
637.500000	55.402356  
638.000000	57.056954  
638.500000	58.188818  
639.000000	59.889628  
639.500000	62.506340  
640.000000	65.333287  
640.500000	67.892234  
641.000000	69.834174  
641.500000	71.588439  
642.000000	73.311462  
642.500000	75.255484  
643.000000	77.876196  
643.500000	81.040810  
644.000000	84.678666  
644.500000	87.415325  
645.000000	89.340537  
645.500000	91.075856  
646.000000	93.824159  
646.500000	96.894015  
647.000000	99.826795  
647.500000	102.894924 
648.000000	105.741765 
648.500000	108.315000 
649.000000	110.498386 
649.500000	113.234575 
650.000000	115.338234 
650.500000	118.061522 
651.000000	121.106681 
651.500000	125.531439 
652.000000	129.740757 
652.500000	133.546984 
653.000000	136.371037 
653.500000	139.321022 
654.000000	142.169537 
654.500000	146.274522 
655.000000	151.094121 
655.500000	155.628431 
656.000000	158.906462 
656.500000	161.054287 
657.000000	163.880643 
657.500000	167.415507 
658.000000	171.901462 
658.500000	175.384924 
659.000000	179.342227 
659.500000	182.264257 
660.000000	185.825424 
660.500000	188.210272 
661.000000	191.645242 
661.500000	193.828356 
662.000000	196.771333 
662.500000	200.481007 
663.000000	206.282386 
663.500000	211.206878 
664.000000	215.247583 
664.500000	218.006621 
665.000000	220.996977 
665.500000	223.305750 
666.000000	225.627575 
666.500000	227.957628 
667.000000	230.236242 
667.500000	232.309848 
668.000000	233.993401 
668.500000	236.818893 
669.000000	240.521015 
669.500000	245.744113 
670.000000	249.167333 
670.500000	252.937113 
671.000000	255.499386 
671.500000	257.499833 
672.000000	256.719750 
672.500000	257.116946 
673.000000	259.295469 
673.500000	261.701227 
674.000000	262.418015 
674.500000	264.006128 
675.000000	267.819318 
675.500000	271.623181 
676.000000	274.392621 
676.500000	275.479628 
677.000000	276.072303 
677.500000	276.483750 
678.000000	277.656568 
678.500000	277.903636 
679.000000	276.804037 
679.500000	276.522250 
680.000000	278.843393 
680.500000	280.621363 
681.000000	279.026106 
681.500000	276.999204 
682.000000	276.576863 
682.500000	278.430219 
683.000000	278.324371 
683.500000	277.526318 
684.000000	275.710204 
684.500000	275.316500 
685.000000	275.158242 
685.500000	274.832636 
686.000000	273.086083 
686.500000	270.638530 
687.000000	268.721575 
687.500000	266.151106 
688.000000	263.752469 
688.500000	260.979712 
689.000000	259.218553 
689.500000	257.076439 
690.000000	253.635886 
690.500000	249.217174 
691.000000	245.250196 
691.500000	242.387765 
692.000000	239.227431 
692.500000	235.422507 
693.000000	231.184689 
693.500000	227.212212 
694.000000	222.753553 
694.500000	217.081151 
695.000000	212.260962 
695.500000	208.862856 
696.000000	205.545060 
696.500000	200.769227 
697.000000	195.740833 
697.500000	191.683454 
698.000000	188.222136 
698.500000	182.982386 
699.000000	176.860553 
699.500000	171.588696 
700.000000	168.165500 
700.500000	165.570765 
701.000000	162.379848 
701.500000	157.878446 
702.000000	153.017196 
702.500000	149.192575 
703.000000	145.881553 
703.500000	142.702060 
704.000000	138.392121 
704.500000	133.444727 
705.000000	128.563628 
705.500000	125.158651 
706.000000	122.185393 
706.500000	118.456227 
707.000000	114.075106 
707.500000	110.726924 
708.000000	108.325704 
708.500000	106.223969 
709.000000	103.266424 
709.500000	99.968083  
710.000000	96.643999  
710.500000	94.069962  
711.000000	92.087106  
711.500000	89.631537  
712.000000	86.641954  
712.500000	84.196318  
713.000000	82.805780  
713.500000	81.390265  
714.000000	79.013575  
714.500000	75.663719  
715.000000	72.392060  
715.500000	69.961583  
716.000000	68.020803  
716.500000	66.081530  
717.000000	63.957227  
717.500000	62.034871  
718.000000	60.044310  
718.500000	58.653204  
719.000000	57.419545  
719.500000	56.231674  
720.000000	53.887530  
720.500000	51.377939  
721.000000	49.016946  
721.500000	47.397128  
722.000000	45.912931  
722.500000	44.846431  
723.000000	43.906356  
723.500000	42.810242  
724.000000	41.502083  
724.500000	40.636060  
725.000000	39.668272  
725.500000	38.428878  
726.000000	36.822674  
726.500000	35.520962  
727.000000	34.887166  
727.500000	34.254477  
728.000000	33.520704  
728.500000	31.945704  
729.000000	30.417007  
729.500000	28.735583  
730.000000	27.741590  
730.500000	27.331075  
731.000000	27.257946  
731.500000	26.574712  
732.000000	25.335363  
732.500000	24.402439  
733.000000	23.949333  
733.500000	23.549121  
734.000000	22.480583  
734.500000	21.524484  
735.000000	20.980628  
735.500000	20.815227  
736.000000	20.493272  
736.500000	20.341780  
737.000000	19.923477  
737.500000	19.401098  
738.000000	18.456113  
738.500000	17.659492  
739.000000	17.103000  
739.500000	17.097674  
740.000000	17.068704  
740.500000	16.858280  
741.000000	16.054295  
741.500000	15.226227  
742.000000	14.718143  
742.500000	14.486045  
743.000000	14.230787  
743.500000	13.855136  
744.000000	13.298401  
744.500000	12.481651  
745.000000	12.220772  
745.500000	12.525106  
746.000000	12.968621  
746.500000	12.697878  
747.000000	11.968856  
747.500000	11.451340  
748.000000	11.231924  
748.500000	11.209787  
749.000000	11.237863  
749.500000	11.191310  
750.000000	10.720227  
750.500000	10.242507  
751.000000	10.164757  
751.500000	10.300265  
752.000000	10.144924  
752.500000	9.579628   
753.000000	9.077371   
753.500000	8.882431   
754.000000	8.911386   
754.500000	8.731143   
755.000000	8.384333   
755.500000	8.012484   
756.000000	7.826719   
756.500000	7.909757   
757.000000	7.957954   
757.500000	7.842560   
758.000000	7.501106   
758.500000	7.194469   
759.000000	6.939409   
759.500000	6.807886   
760.000000	6.480598   
760.500000	6.093916   
761.000000	6.018113   
761.500000	6.235219   
762.000000	6.659992   
762.500000	6.607712   
763.000000	6.332068   
763.500000	6.050257   
764.000000	6.205083   
764.500000	6.231681   
765.000000	6.065204   
765.500000	5.616325   
766.000000	5.531348   
766.500000	5.695704   
767.000000	5.774537   
767.500000	5.440954   
768.000000	5.024553   
768.500000	4.962560   
769.000000	4.968598   
769.500000	4.987749   
770.000000	4.839568   
770.500000	4.896166   
771.000000	4.875325   
771.500000	4.883196   
772.000000	4.815803   
772.500000	4.950121   
773.000000	4.930628   
773.500000	4.762825   
774.000000	4.373469   
774.500000	4.063234   
775.000000	4.006946   
775.500000	4.192166   
776.000000	4.121643   
776.500000	3.933136   
777.000000	3.790893   
777.500000	3.972659   
778.000000	4.155121   
778.500000	4.111840   
779.000000	3.808484   
779.500000	3.498000   
780.000000	3.363772   
780.500000	3.444537   
781.000000	3.515272   
781.500000	3.410765   
782.000000	3.286022   
782.500000	3.208734   
783.000000	3.254250   
783.500000	3.191840   
784.000000	3.150409   
784.500000	3.029045   
785.000000	3.005325   
785.500000	3.002053   
786.000000	3.071916   
786.500000	3.066295   
787.000000	3.043469   
787.500000	3.013492   
788.000000	3.008439   
788.500000	2.941636   
789.000000	2.843757   
789.500000	2.782583   
790.000000	2.884636   
790.500000	2.911939   
791.000000	2.871939   
791.500000	2.763250   
792.000000	2.831371   
792.500000	2.949727   
793.000000	2.951143   
793.500000	2.883787   
794.000000	2.855189   
794.500000	2.959060   
795.000000	2.945643   
795.500000	2.899750   
796.000000	2.785007   
796.500000	2.662098   
797.000000	2.548393   
797.500000	2.605560   
798.000000	2.827250   
798.500000	2.832090   
799.000000	2.558757   
799.500000	2.241477   
800.000000	2.206977   
800.500000	2.238151   
801.000000	2.216060   
801.500000	2.196189   
802.000000	2.350416   
802.500000	2.572015   
803.000000	2.706553   
803.500000	2.584553   
804.000000	2.378454   
804.500000	2.119878   
805.000000	2.121462   
805.500000	2.239795   
806.000000	2.303863   
806.500000	2.301909   
807.000000	2.297886   
807.500000	2.287515   
808.000000	2.167651   
808.500000	2.127128   
809.000000	2.159704   
809.500000	2.277734   
810.000000	2.283863   
810.500000	2.243166   
811.000000	2.179765   
811.500000	2.077386   
812.000000	2.123704   
812.500000	2.111530   
813.000000	1.949954   
813.500000	1.625030   
814.000000	1.462886   
814.500000	1.612681   
815.000000	1.913287   
815.500000	2.126136   
816.000000	2.115780   
816.500000	1.919757   
817.000000	1.730060   
817.500000	1.740424   
818.000000	1.889568   
818.500000	1.885272   
819.000000	1.801280   
819.500000	1.683962   
820.000000	1.710492   
820.500000	1.822909   
821.000000	2.065378   
821.500000	2.266553   
822.000000	2.374477   
822.500000	2.451136   
823.000000	2.574628   
823.500000	2.706378   
824.000000	2.773787   
824.500000	2.762409   
825.000000	2.720113   
825.500000	2.553106   
826.000000	2.436462   
826.500000	2.254280   
827.000000	2.099022   
827.500000	1.950393   
828.000000	2.005500   
828.500000	1.995295   
829.000000	1.864037   
829.500000	1.668568   
830.000000	1.538704   
830.500000	1.559916   
831.000000	1.585166   
831.500000	1.554666   
832.000000	1.403136   
832.500000	1.315977   
833.000000	1.278893   
833.500000	1.286795   
834.000000	1.205765   
834.500000	1.139265   
835.000000	1.089568   
835.500000	1.075621   
836.000000	1.077825   
836.500000	1.142537   
837.000000	1.142613   
837.500000	1.125651   
838.000000	1.065416   
838.500000	0.993159   
839.000000	0.898954   
839.500000	0.824962   
840.000000	0.832674   
840.500000	0.865780   
841.000000	0.855409   
841.500000	0.737060   
842.000000	0.672007   
842.500000	0.670136   
843.000000	0.725621   
843.500000	0.662424   
844.000000	0.563507   
844.500000	0.604810   
845.000000	0.696613   
845.500000	0.657901   
846.000000	0.505689   
846.500000	0.400151   
847.000000	0.345371   
847.500000	0.297106   
848.000000	0.239878   
848.500000	0.283469   
849.000000	0.268780   
849.500000	0.154522   
850.000000	-0.104621  
850.500000	-0.187310  
851.000000	-0.068280  
851.500000	0.254651   
852.000000	0.358696   
852.500000	0.391128   
853.000000	0.398803   
853.500000	0.431856   
854.000000	0.306484   
854.500000	0.128287   
855.000000	0.016022   
855.500000	-0.017681  
856.000000	-0.019969  
856.500000	-0.012325  
857.000000	0.062583   
857.500000	0.096469   
858.000000	0.101219   
858.500000	0.041439   
859.000000	0.003356   
859.500000	-0.044098  
860.000000	-0.055886  
860.500000	-0.114431  
861.000000	-0.137666  
861.500000	-0.096393  
862.000000	-0.059265  
862.500000	-0.009075  
863.000000	0.020659   
863.500000	0.070310   
864.000000	-0.013174  
864.500000	-0.093931  
865.000000	-0.151363  
865.500000	0.068568   
866.000000	0.276643   
866.500000	0.322924   
867.000000	0.100727   
867.500000	-0.099666  
868.000000	-0.190166  
868.500000	-0.063492  
869.000000	0.095446   
869.500000	0.200742   
870.000000	0.118598   
870.500000	-0.020128  
871.000000	-0.086212  
871.500000	-0.017386  
872.000000	0.025416   
872.500000	-0.061553  
873.000000	-0.185613  
873.500000	-0.119439  
874.000000	0.150068   
874.500000	0.347000   
875.000000	0.259992   
875.500000	0.038424   
876.000000	-0.029742  
876.500000	0.076606   
877.000000	0.067166   
877.500000	-0.071757  
878.000000	-0.216189  
878.500000	-0.224310  
879.000000	-0.145242  
879.500000	-0.074181  
880.000000	-0.009590  
880.500000	0.082272   
881.000000	0.153840   
881.500000	0.171492   
882.000000	0.135083   
882.500000	0.136189   
883.000000	0.147946   
883.500000	0.153000   
884.000000	0.048446   
884.500000	-0.069878  
885.000000	-0.128083  
885.500000	-0.041234  
886.000000	0.065878   
886.500000	0.094060   
887.000000	0.024409   
887.500000	-0.017712  
888.000000	0.021613   
888.500000	0.059856   
889.000000	-0.033719  
889.500000	-0.164742  
890.000000	-0.221378  
890.500000	-0.155863  
891.000000	-0.021310  
891.500000	0.075356   
892.000000	0.160000   
892.500000	0.073636   
893.000000	-0.004022  
893.500000	-0.021704  
894.000000	0.109007   
894.500000	0.182825   
895.000000	0.093787   
895.500000	-0.034651  
896.000000	-0.078704  
896.500000	0.007424   
897.000000	0.055659   
897.500000	0.060212   
898.000000	-0.062757  
898.500000	-0.202893  
899.000000	-0.260704  
899.500000	-0.149113  
900.000000	0.146628   
900.500000	0.497999   

