PE FL                   SPECTRUM    ASCII       PEDS        1.60        
  -1
S12#09.SP
24/04/15
15:07:41.00
24/04/15
15:09:06.00
Jan

900.500000
1









LS55
405.00
5.00
5.00
SCAN
1
20
100
100
0
400
0
1
0
1
5
ON
900 405 
1 0 0
#HDR
-1
-1
#GR
NM

0.00002384185791015625
0.0
450.000000
0.500000
902
8
308.815780
-0.404000
#DATA
450.000000	-0.404000  
450.500000	0.199659   
451.000000	0.438015   
451.500000	0.261037   
452.000000	-0.034045  
452.500000	-0.102575  
453.000000	-0.022242  
453.500000	0.053780   
454.000000	-0.093727  
454.500000	-0.192946  
455.000000	-0.268636  
455.500000	-0.233780  
456.000000	-0.248931  
456.500000	-0.144378  
457.000000	-0.047878  
457.500000	0.058484   
458.000000	0.062318   
458.500000	0.078840   
459.000000	0.018090   
459.500000	-0.129393  
460.000000	-0.261151  
460.500000	-0.142151  
461.000000	0.071030   
461.500000	0.238000   
462.000000	0.227560   
462.500000	0.286227   
463.000000	0.235818   
463.500000	0.099204   
464.000000	-0.144371  
464.500000	-0.078901  
465.000000	0.029515   
465.500000	0.184537   
466.000000	0.096530   
466.500000	0.117613   
467.000000	0.060522   
467.500000	0.063060   
468.000000	-0.062484  
468.500000	0.025992   
469.000000	0.163242   
469.500000	0.365363   
470.000000	0.262439   
470.500000	0.105386   
471.000000	-0.074840  
471.500000	-0.011106  
472.000000	0.087992   
472.500000	0.268765   
473.000000	0.197931   
473.500000	0.022469   
474.000000	-0.127219  
474.500000	-0.179242  
475.000000	-0.181856  
475.500000	-0.180583  
476.000000	0.003121   
476.500000	0.047204   
477.000000	0.024280   
477.500000	0.014166   
478.000000	0.244977   
478.500000	0.309340   
479.000000	0.249386   
479.500000	0.110901   
480.000000	0.016856   
480.500000	-0.071916  
481.000000	-0.073954  
481.500000	0.071507   
482.000000	0.222234   
482.500000	0.329257   
483.000000	0.340522   
483.500000	0.172886   
484.000000	-0.099825  
484.500000	-0.114674  
485.000000	0.069916   
485.500000	0.221734   
486.000000	0.167424   
486.500000	0.112757   
487.000000	0.062871   
487.500000	0.044295   
488.000000	-0.062045  
488.500000	-0.144409  
489.000000	-0.216568  
489.500000	-0.093628  
490.000000	0.121287   
490.500000	0.346340   
491.000000	0.382462   
491.500000	0.343378   
492.000000	0.202787   
492.500000	0.085212   
493.000000	0.049416   
493.500000	0.192454   
494.000000	0.274295   
494.500000	0.191840   
495.000000	0.114295   
495.500000	0.121053   
496.000000	0.282075   
496.500000	0.463121   
497.000000	0.668856   
497.500000	0.719106   
498.000000	0.711356   
498.500000	0.623196   
499.000000	0.666878   
499.500000	0.667060   
500.000000	0.721303   
500.500000	0.768007   
501.000000	0.914598   
501.500000	0.944174   
502.000000	1.023856   
502.500000	0.980386   
503.000000	0.991454   
503.500000	1.053530   
504.000000	1.283121   
504.500000	1.472772   
505.000000	1.573030   
505.500000	1.715795   
506.000000	1.839750   
506.500000	1.903848   
507.000000	1.965795   
507.500000	2.282840   
508.000000	2.706757   
508.500000	2.857030   
509.000000	2.629992   
509.500000	2.353280   
510.000000	2.328575   
510.500000	2.534371   
511.000000	2.834825   
511.500000	3.045545   
512.000000	3.039568   
512.500000	2.935522   
513.000000	2.855575   
513.500000	2.833227   
514.000000	2.752325   
514.500000	2.720340   
515.000000	2.862030   
515.500000	3.068318   
516.000000	3.332840   
516.500000	3.413462   
517.000000	3.456128   
517.500000	3.332386   
518.000000	3.210984   
518.500000	3.237507   
519.000000	3.465265   
519.500000	3.752704   
520.000000	3.816810   
520.500000	4.029204   
521.000000	4.086651   
521.500000	4.083651   
522.000000	3.511848   
522.500000	3.181757   
523.000000	3.096075   
523.500000	3.454757   
524.000000	3.645340   
524.500000	3.836393   
525.000000	3.930681   
525.500000	4.203477   
526.000000	4.660401   
526.500000	5.127893   
527.000000	5.406446   
527.500000	5.470780   
528.000000	5.438734   
528.500000	5.303757   
529.000000	5.363590   
529.500000	5.585659   
530.000000	5.958636   
530.500000	6.204893   
531.000000	6.341901   
531.500000	6.335234   
532.000000	6.136454   
532.500000	6.285431   
533.000000	6.898106   
533.500000	7.772719   
534.000000	7.982015   
534.500000	7.965363   
535.000000	8.053787   
535.500000	8.606439   
536.000000	8.872265   
536.500000	9.134007   
537.000000	9.642575   
537.500000	10.437553  
538.000000	11.120833  
538.500000	11.509318  
539.000000	12.031113  
539.500000	12.776659  
540.000000	13.510030  
540.500000	14.201492  
541.000000	14.689757  
541.500000	14.818545  
542.000000	14.310977  
542.500000	14.010272  
543.000000	13.953992  
543.500000	14.137340  
544.000000	13.669803  
544.500000	12.828530  
545.000000	12.134166  
545.500000	11.761181  
546.000000	11.311939  
546.500000	10.984424  
547.000000	10.752954  
547.500000	10.337265  
548.000000	9.465833   
548.500000	8.539515   
549.000000	7.635196   
549.500000	6.998204   
550.000000	6.037068   
550.500000	5.367053   
551.000000	4.944643   
551.500000	5.015022   
552.000000	5.048174   
552.500000	5.186939   
553.000000	4.952166   
553.500000	4.549439   
554.000000	4.019696   
554.500000	3.623856   
555.000000	3.445477   
555.500000	3.434143   
556.000000	3.596704   
556.500000	3.646318   
557.000000	3.620121   
557.500000	3.496522   
558.000000	3.558878   
558.500000	3.708371   
559.000000	3.814204   
559.500000	3.776250   
560.000000	3.694075   
560.500000	3.601818   
561.000000	3.632848   
561.500000	3.708424   
562.000000	3.622886   
562.500000	3.452621   
563.000000	3.345825   
563.500000	3.464893   
564.000000	3.486787   
564.500000	3.315219   
565.000000	2.919174   
565.500000	2.763272   
566.000000	2.930689   
566.500000	3.249924   
567.000000	3.476015   
567.500000	3.497931   
568.000000	3.583909   
568.500000	3.686045   
569.000000	3.720871   
569.500000	3.544810   
570.000000	3.379325   
570.500000	3.386659   
571.000000	3.475704   
571.500000	3.518015   
572.000000	3.275825   
572.500000	3.213856   
573.000000	3.278765   
573.500000	3.541174   
574.000000	3.668454   
574.500000	3.717128   
575.000000	3.612250   
575.500000	3.532969   
576.000000	3.460810   
576.500000	3.634530   
577.000000	3.853863   
577.500000	3.928999   
578.000000	3.700477   
578.500000	3.611386   
579.000000	3.630712   
579.500000	3.724378   
580.000000	3.494568   
580.500000	3.474825   
581.000000	3.579666   
581.500000	3.666363   
582.000000	3.464598   
582.500000	3.395143   
583.000000	3.521590   
583.500000	3.636719   
584.000000	3.651500   
584.500000	3.652499   
585.000000	3.696333   
585.500000	3.572765   
586.000000	3.426689   
586.500000	3.608772   
587.000000	4.009909   
587.500000	4.271371   
588.000000	4.062643   
588.500000	3.901522   
589.000000	3.990272   
589.500000	4.431174   
590.000000	4.570560   
590.500000	4.646325   
591.000000	4.624136   
591.500000	4.690356   
592.000000	4.487477   
592.500000	4.256310   
593.000000	3.997303   
593.500000	4.031810   
594.000000	4.310537   
594.500000	4.567712   
595.000000	4.728098   
595.500000	4.798999   
596.000000	4.990765   
596.500000	5.098030   
597.000000	5.195318   
597.500000	5.251863   
598.000000	5.414613   
598.500000	5.453424   
599.000000	5.377977   
599.500000	5.528196   
600.000000	5.665227   
600.500000	5.713598   
601.000000	5.525765   
601.500000	5.674037   
602.000000	6.028719   
602.500000	6.576962   
603.000000	6.683613   
603.500000	6.468598   
604.000000	6.192234   
604.500000	6.408984   
605.000000	7.041287   
605.500000	7.630295   
606.000000	7.826446   
606.500000	7.764484   
607.000000	7.732893   
607.500000	7.735575   
608.000000	7.800249   
608.500000	8.013280   
609.000000	8.218545   
609.500000	8.387431   
610.000000	8.501416   
610.500000	8.723863   
611.000000	9.186257   
611.500000	9.703674   
612.000000	9.911128   
612.500000	9.996856   
613.000000	10.313174  
613.500000	10.986909  
614.000000	11.579719  
614.500000	11.845333  
615.000000	11.841424  
615.500000	12.098098  
616.000000	12.185265  
616.500000	12.605492  
617.000000	13.230227  
617.500000	14.278946  
618.000000	14.956689  
618.500000	15.476401  
619.000000	15.658704  
619.500000	16.198037  
620.000000	16.836810  
620.500000	17.732681  
621.000000	18.415545  
621.500000	18.724568  
622.000000	18.853712  
622.500000	19.394939  
623.000000	20.452810  
623.500000	21.549666  
624.000000	21.867545  
624.500000	21.801371  
625.000000	22.116075  
625.500000	23.418446  
626.000000	24.926560  
626.500000	25.918659  
627.000000	26.433454  
627.500000	27.296825  
628.000000	28.738340  
628.500000	29.940363  
629.000000	30.875272  
629.500000	31.694522  
630.000000	32.963742  
630.500000	34.027909  
631.000000	35.221363  
631.500000	36.810568  
632.000000	38.956037  
632.500000	40.993113  
633.000000	42.451522  
633.500000	44.112174  
634.000000	45.768530  
634.500000	47.088500  
635.000000	47.670704  
635.500000	48.984499  
636.000000	50.807265  
636.500000	53.390333  
637.000000	55.632704  
637.500000	57.632696  
638.000000	59.194265  
638.500000	60.620916  
639.000000	62.813454  
639.500000	65.557621  
640.000000	68.394939  
640.500000	70.011174  
641.000000	72.107560  
641.500000	74.790909  
642.000000	78.800893  
642.500000	82.051454  
643.000000	84.260909  
643.500000	85.748022  
644.000000	87.916878  
644.500000	90.569651  
645.000000	93.670606  
645.500000	97.139962  
646.000000	100.098409 
646.500000	101.990696 
647.000000	104.007424 
647.500000	107.382356 
648.000000	111.487628 
648.500000	114.360227 
649.000000	116.798204 
649.500000	120.016287 
650.000000	123.875863 
650.500000	127.293757 
651.000000	130.346386 
651.500000	133.551727 
652.000000	137.079196 
652.500000	140.969280 
653.000000	144.588454 
653.500000	148.365371 
654.000000	151.724553 
654.500000	155.376984 
655.000000	158.227666 
655.500000	161.358106 
656.000000	164.208287 
656.500000	168.916530 
657.000000	174.197242 
657.500000	180.115719 
658.000000	184.162613 
658.500000	187.631734 
659.000000	190.987606 
659.500000	194.996719 
660.000000	197.989219 
660.500000	201.188287 
661.000000	205.415984 
661.500000	210.291189 
662.000000	214.483719 
662.500000	217.540734 
663.000000	218.894257 
663.500000	220.270121 
664.000000	223.127272 
664.500000	229.367787 
665.000000	236.188522 
665.500000	241.679484 
666.000000	244.107893 
666.500000	246.151325 
667.000000	248.234371 
667.500000	251.683227 
668.000000	255.407462 
668.500000	257.414393 
669.000000	258.960916 
669.500000	261.609628 
670.000000	266.639651 
670.500000	270.164424 
671.000000	271.619992 
671.500000	272.638522 
672.000000	275.214492 
672.500000	279.063196 
673.000000	281.909606 
673.500000	283.819893 
674.000000	284.610643 
674.500000	286.443962 
675.000000	289.392295 
675.500000	292.520560 
676.000000	294.529856 
676.500000	295.624628 
677.000000	297.399007 
677.500000	299.511757 
678.000000	301.673818 
678.500000	303.676992 
679.000000	304.210446 
679.500000	304.282287 
680.000000	305.117833 
680.500000	307.476136 
681.000000	308.815780 
681.500000	307.034848 
682.000000	303.939386 
682.500000	302.261416 
683.000000	302.784469 
683.500000	302.987568 
684.000000	303.775984 
684.500000	305.283734 
685.000000	307.534249 
685.500000	307.763257 
686.000000	305.251636 
686.500000	301.287803 
687.000000	298.293159 
687.500000	296.836053 
688.000000	296.323386 
688.500000	295.428931 
689.000000	294.325303 
689.500000	292.140893 
690.000000	287.715060 
690.500000	282.682712 
691.000000	278.142477 
691.500000	274.834000 
692.000000	270.651651 
692.500000	267.058537 
693.000000	263.996159 
693.500000	261.005462 
694.000000	255.818469 
694.500000	250.986689 
695.000000	247.407469 
695.500000	243.982696 
696.000000	238.119053 
696.500000	231.709530 
697.000000	226.260401 
697.500000	222.303598 
698.000000	217.485674 
698.500000	211.858825 
699.000000	205.921181 
699.500000	200.709946 
700.000000	196.381643 
700.500000	193.569643 
701.000000	190.639212 
701.500000	186.096946 
702.000000	179.946037 
702.500000	173.788454 
703.000000	168.293651 
703.500000	164.418401 
704.000000	161.166530 
704.500000	157.692893 
705.000000	153.722045 
705.500000	148.928174 
706.000000	144.962303 
706.500000	140.982075 
707.000000	137.874992 
707.500000	134.114901 
708.000000	129.773045 
708.500000	124.207848 
709.000000	119.698015 
709.500000	117.566787 
710.000000	115.683068 
710.500000	113.054424 
711.000000	109.155537 
711.500000	106.272560 
712.000000	103.400128 
712.500000	100.722068 
713.000000	96.827689  
713.500000	93.214954  
714.000000	89.914901  
714.500000	87.930310  
715.000000	86.539477  
715.500000	84.667712  
716.000000	81.705530  
716.500000	78.279810  
717.000000	75.245431  
717.500000	72.862037  
718.000000	70.792174  
718.500000	69.010083  
719.000000	67.581780  
719.500000	66.142803  
720.000000	63.747265  
720.500000	60.970075  
721.000000	58.246068  
721.500000	56.699515  
722.000000	55.188651  
722.500000	53.817401  
723.000000	52.348363  
723.500000	51.040901  
724.000000	49.672568  
724.500000	48.607946  
725.000000	47.850250  
725.500000	46.950977  
726.000000	45.121818  
726.500000	43.210992  
727.000000	41.747628  
727.500000	40.781249  
728.000000	39.783636  
728.500000	38.508356  
729.000000	36.871977  
729.500000	34.968825  
730.000000	33.509007  
730.500000	32.160818  
731.000000	31.423363  
731.500000	30.500977  
732.000000	30.189537  
732.500000	29.261742  
733.000000	28.300333  
733.500000	27.174280  
734.000000	26.791393  
734.500000	26.036189  
735.000000	25.503333  
735.500000	24.624954  
736.000000	24.121431  
736.500000	23.140825  
737.000000	22.434295  
737.500000	21.590568  
738.000000	21.437962  
738.500000	21.065280  
739.000000	20.518886  
739.500000	19.400954  
740.000000	18.960045  
740.500000	18.934734  
741.000000	18.798969  
741.500000	18.045856  
742.000000	17.461015  
742.500000	17.251454  
743.000000	17.164393  
743.500000	16.743931  
744.000000	16.055848  
744.500000	15.654992  
745.000000	15.375106  
745.500000	15.174901  
746.000000	14.265007  
746.500000	13.599143  
747.000000	13.251174  
747.500000	13.393295  
748.000000	13.080666  
748.500000	12.795287  
749.000000	12.648939  
749.500000	12.509810  
750.000000	11.982174  
750.500000	11.641977  
751.000000	11.728712  
751.500000	11.689303  
752.000000	11.309916  
752.500000	10.897954  
753.000000	10.496128  
753.500000	10.124310  
754.000000	9.551689   
754.500000	9.330257   
755.000000	9.280787   
755.500000	9.223098   
756.000000	8.693659   
756.500000	8.383893   
757.000000	8.439401   
757.500000	8.981696   
758.000000	9.123409   
758.500000	8.785393   
759.000000	8.133462   
759.500000	7.885560   
760.000000	7.763333   
760.500000	7.772636   
761.000000	7.427946   
761.500000	7.126053   
762.000000	6.894659   
762.500000	6.981583   
763.000000	6.921446   
763.500000	6.736537   
764.000000	6.430825   
764.500000	6.180098   
765.000000	6.058787   
765.500000	6.009250   
766.000000	6.157628   
766.500000	6.457916   
767.000000	6.810810   
767.500000	6.857462   
768.000000	6.586280   
768.500000	6.176810   
769.000000	5.949871   
769.500000	5.839977   
770.000000	5.842462   
770.500000	5.638803   
771.000000	5.422462   
771.500000	5.065492   
772.000000	4.718053   
772.500000	4.513643   
773.000000	4.524204   
773.500000	4.649893   
774.000000	4.718249   
774.500000	4.615598   
775.000000	4.334712   
775.500000	4.123030   
776.000000	4.001159   
776.500000	3.974424   
777.000000	3.937537   
777.500000	3.847446   
778.000000	3.906530   
778.500000	4.043007   
779.000000	4.135696   
779.500000	4.004356   
780.000000	3.815431   
780.500000	3.581393   
781.000000	3.463992   
781.500000	3.384651   
782.000000	3.413553   
782.500000	3.439712   
783.000000	3.643515   
783.500000	3.702651   
784.000000	3.742924   
784.500000	3.666734   
785.000000	3.509583   
785.500000	3.252446   
786.000000	3.116590   
786.500000	3.071439   
787.000000	3.212325   
787.500000	3.364545   
788.000000	3.412924   
788.500000	3.254371   
789.000000	3.103909   
789.500000	3.141916   
790.000000	3.362318   
790.500000	3.367386   
791.000000	3.189143   
791.500000	3.003795   
792.000000	2.936621   
792.500000	2.937439   
793.000000	3.046325   
793.500000	3.134916   
794.000000	3.095469   
794.500000	2.900704   
795.000000	2.747477   
795.500000	2.684295   
796.000000	2.793886   
796.500000	2.954174   
797.000000	3.088742   
797.500000	3.053696   
798.000000	3.009159   
798.500000	2.840242   
799.000000	2.634212   
799.500000	2.427462   
800.000000	2.563257   
800.500000	2.710840   
801.000000	2.707113   
801.500000	2.415204   
802.000000	2.347901   
802.500000	2.427136   
803.000000	2.679030   
803.500000	2.726674   
804.000000	2.644318   
804.500000	2.380992   
805.000000	2.264310   
805.500000	2.216363   
806.000000	2.141628   
806.500000	1.903454   
807.000000	1.856113   
807.500000	2.004507   
808.000000	2.250234   
808.500000	2.284977   
809.000000	2.170704   
809.500000	1.982636   
810.000000	2.040636   
810.500000	1.999022   
811.000000	1.989159   
811.500000	1.818719   
812.000000	1.813984   
812.500000	1.652424   
813.000000	1.688060   
813.500000	1.859363   
814.000000	2.177083   
814.500000	2.110803   
815.000000	1.837500   
815.500000	1.720446   
816.000000	1.887227   
816.500000	2.098719   
817.000000	2.041515   
817.500000	1.856931   
818.000000	1.670196   
818.500000	1.792068   
819.000000	2.116401   
819.500000	2.423893   
820.000000	2.573598   
820.500000	2.426015   
821.000000	2.198878   
821.500000	2.042924   
822.000000	2.194651   
822.500000	2.456090   
823.000000	2.763583   
823.500000	2.834666   
824.000000	2.780310   
824.500000	2.557454   
825.000000	2.476560   
825.500000	2.541075   
826.000000	2.514477   
826.500000	2.400159   
827.000000	2.195022   
827.500000	1.972189   
828.000000	1.575924   
828.500000	1.394416   
829.000000	1.443674   
829.500000	1.744166   
830.000000	1.693916   
830.500000	1.549598   
831.000000	1.365795   
831.500000	1.340068   
832.000000	1.217280   
832.500000	1.132856   
833.000000	1.051121   
833.500000	1.088234   
834.000000	1.114651   
834.500000	1.187787   
835.000000	1.218212   
835.500000	1.194681   
836.000000	1.101500   
836.500000	0.961833   
837.000000	0.870659   
837.500000	0.906174   
838.000000	1.047219   
838.500000	1.076916   
839.000000	0.978833   
839.500000	0.909022   
840.000000	0.934196   
840.500000	0.992075   
841.000000	0.841386   
841.500000	0.651143   
842.000000	0.529818   
842.500000	0.530431   
843.000000	0.517106   
843.500000	0.504916   
844.000000	0.556037   
844.500000	0.702507   
845.000000	0.857151   
845.500000	0.856924   
846.000000	0.692696   
846.500000	0.489643   
847.000000	0.418999   
847.500000	0.496537   
848.000000	0.491227   
848.500000	0.357553   
849.000000	0.171045   
849.500000	0.173295   
850.000000	0.308780   
850.500000	0.359840   
851.000000	0.290060   
851.500000	0.220568   
852.000000	0.349772   
852.500000	0.417704   
853.000000	0.273159   
853.500000	-0.001500  
854.000000	-0.076750  
854.500000	-0.030325  
855.000000	0.084727   
855.500000	0.189068   
856.000000	0.268916   
856.500000	0.320484   
857.000000	0.206287   
857.500000	0.110469   
858.000000	0.033568   
858.500000	0.068924   
859.000000	0.076212   
859.500000	0.112727   
860.000000	0.069431   
860.500000	0.018151   
861.000000	-0.019818  
861.500000	-0.018689  
862.000000	0.077492   
862.500000	0.103310   
863.000000	0.087363   
863.500000	-0.022227  
864.000000	-0.029643  
864.500000	-0.005045  
865.000000	0.062916   
865.500000	0.000856   
866.000000	-0.055515  
866.500000	-0.078196  
867.000000	-0.040553  
867.500000	-0.062833  
868.000000	-0.176636  
868.500000	-0.138280  
869.000000	0.016583   
869.500000	0.232159   
870.000000	0.229522   
870.500000	0.149787   
871.000000	0.050015   
871.500000	0.027295   
872.000000	-0.028643  
872.500000	-0.032765  
873.000000	0.028704   
873.500000	0.080159   
874.000000	0.093598   
874.500000	0.063477   
875.000000	0.034893   
875.500000	0.008037   
876.000000	-0.020431  
876.500000	-0.004401  
877.000000	0.018287   
877.500000	0.058181   
878.000000	0.086946   
878.500000	0.103530   
879.000000	0.056378   
879.500000	0.022522   
880.000000	0.062742   
880.500000	0.075810   
881.000000	0.056378   
881.500000	0.003856   
882.000000	0.009356   
882.500000	-0.015143  
883.000000	-0.014318  
883.500000	-0.022189  
884.000000	0.011545   
884.500000	0.011234   
885.000000	-0.020166  
885.500000	-0.090954  
886.000000	-0.111977  
886.500000	-0.100484  
887.000000	-0.031515  
887.500000	-0.039083  
888.000000	-0.081553  
888.500000	-0.102606  
889.000000	-0.010666  
889.500000	0.125090   
890.000000	0.167712   
890.500000	0.082477   
891.000000	-0.005825  
891.500000	0.072356   
892.000000	0.125674   
892.500000	0.079666   
893.000000	-0.055909  
893.500000	-0.106136  
894.000000	-0.048325  
894.500000	0.013462   
895.000000	0.027159   
895.500000	0.031106   
896.000000	0.058303   
896.500000	0.066560   
897.000000	0.052249   
897.500000	-0.013053  
898.000000	-0.015659  
898.500000	-0.024439  
899.000000	-0.070083  
899.500000	-0.169825  
900.000000	-0.194439  
900.500000	-0.132000  

