PE FL                   SPECTRUM    ASCII       PEDS        1.60        
  -1
S12#10.SP
24/04/15
15:09:07.00
24/04/15
15:10:32.00
Jan

900.500000
1









LS55
405.00
5.00
5.00
SCAN
1
20
100
100
0
400
0
1
0
1
5
ON
900 405 
1 0 0
#HDR
-1
-1
#GR
NM

0.00002384185791015625
0.0
450.000000
0.500000
902
8
313.543401
-0.454166
#DATA
450.000000	0.202000   
450.500000	0.262643   
451.000000	0.328280   
451.500000	0.386204   
452.000000	0.240606   
452.500000	0.039204   
453.000000	-0.236795  
453.500000	-0.296787  
454.000000	-0.206924  
454.500000	0.028560   
455.000000	0.276174   
455.500000	0.458053   
456.000000	0.488909   
456.500000	0.302234   
457.000000	0.025393   
457.500000	-0.142893  
458.000000	-0.078681  
458.500000	0.028931   
459.000000	0.100734   
459.500000	0.133371   
460.000000	0.135386   
460.500000	-0.008083  
461.000000	-0.127719  
461.500000	-0.169575  
462.000000	-0.012446  
462.500000	0.143954   
463.000000	0.239219   
463.500000	0.167174   
464.000000	0.055121   
464.500000	0.047553   
465.000000	0.093424   
465.500000	0.028507   
466.000000	-0.203189  
466.500000	-0.348613  
467.000000	-0.230590  
467.500000	0.070212   
468.000000	0.206280   
468.500000	0.098689   
469.000000	-0.050333  
469.500000	-0.013007  
470.000000	0.127666   
470.500000	0.134492   
471.000000	-0.008810  
471.500000	-0.152075  
472.000000	-0.107787  
472.500000	-0.030348  
473.000000	0.035530   
473.500000	-0.021257  
474.000000	-0.094181  
474.500000	-0.211893  
475.000000	-0.208992  
475.500000	-0.077992  
476.000000	0.255113   
476.500000	0.252371   
477.000000	0.097181   
477.500000	-0.073424  
478.000000	0.153325   
478.500000	0.338840   
479.000000	0.441393   
479.500000	0.222446   
480.000000	0.117833   
480.500000	0.153462   
481.000000	0.306416   
481.500000	0.400295   
482.000000	0.371727   
482.500000	0.251083   
483.000000	0.126962   
483.500000	0.009795   
484.000000	-0.036128  
484.500000	-0.018272  
485.000000	0.024234   
485.500000	0.025303   
486.000000	0.046484   
486.500000	-0.103909  
487.000000	-0.260553  
487.500000	-0.272363  
488.000000	0.002606   
488.500000	0.247333   
489.000000	0.174166   
489.500000	-0.215659  
490.000000	-0.454166  
490.500000	-0.345272  
491.000000	-0.050803  
491.500000	0.086613   
492.000000	0.097621   
492.500000	-0.002621  
493.000000	0.112196   
493.500000	0.273674   
494.000000	0.484166   
494.500000	0.484772   
495.000000	0.489984   
495.500000	0.437643   
496.000000	0.437007   
496.500000	0.423803   
497.000000	0.425159   
497.500000	0.481757   
498.000000	0.468772   
498.500000	0.471613   
499.000000	0.493022   
499.500000	0.621386   
500.000000	0.768121   
500.500000	0.910386   
501.000000	0.896856   
501.500000	0.877659   
502.000000	0.852651   
502.500000	0.823954   
503.000000	0.810053   
503.500000	0.920151   
504.000000	1.163810   
504.500000	1.203204   
505.000000	1.196303   
505.500000	1.401477   
506.000000	1.888840   
506.500000	2.133242   
507.000000	2.026931   
507.500000	1.773098   
508.000000	1.843583   
508.500000	2.153250   
509.000000	2.524681   
509.500000	2.723250   
510.000000	2.831295   
510.500000	2.806537   
511.000000	2.844666   
511.500000	2.799931   
512.000000	2.857196   
512.500000	2.848893   
513.000000	2.913621   
513.500000	2.861946   
514.000000	2.890151   
514.500000	2.771318   
515.000000	2.693810   
515.500000	2.721113   
516.000000	2.954257   
516.500000	3.189856   
517.000000	3.308560   
517.500000	3.492416   
518.000000	3.693068   
518.500000	3.869265   
519.000000	3.770583   
519.500000	3.658969   
520.000000	3.491560   
520.500000	3.422075   
521.000000	3.499659   
521.500000	3.592803   
522.000000	3.473750   
522.500000	3.221962   
523.000000	3.347560   
523.500000	3.854780   
524.000000	4.388772   
524.500000	4.445053   
525.000000	4.286818   
525.500000	4.163780   
526.000000	4.207651   
526.500000	4.319393   
527.000000	4.403765   
527.500000	4.584212   
528.000000	4.821431   
528.500000	5.326439   
529.000000	5.538719   
529.500000	5.576416   
530.000000	5.479340   
530.500000	5.870780   
531.000000	6.353795   
531.500000	6.532750   
532.000000	6.459462   
532.500000	6.569310   
533.000000	7.096886   
533.500000	7.466083   
534.000000	7.764386   
534.500000	8.034409   
535.000000	8.441219   
535.500000	8.764037   
536.000000	8.690999   
536.500000	8.853196   
537.000000	9.282439   
537.500000	10.207371  
538.000000	10.682348  
538.500000	11.233462  
539.000000	11.716159  
539.500000	12.860401  
540.000000	13.894696  
540.500000	14.738143  
541.000000	14.862787  
541.500000	14.614174  
542.000000	14.204575  
542.500000	14.123007  
543.000000	14.016378  
543.500000	13.924840  
544.000000	13.536174  
544.500000	13.228780  
545.000000	12.723674  
545.500000	12.183431  
546.000000	11.203553  
546.500000	10.309310  
547.000000	9.528151   
547.500000	9.463113   
548.000000	9.542348   
548.500000	9.247719   
549.000000	8.286719   
549.500000	7.355818   
550.000000	6.846962   
550.500000	6.223416   
551.000000	5.374901   
551.500000	4.775446   
552.000000	4.748106   
552.500000	4.759174   
553.000000	4.497409   
553.500000	4.154393   
554.000000	3.903462   
554.500000	3.902454   
555.000000	4.058681   
555.500000	4.254318   
556.000000	3.950833   
556.500000	3.485515   
557.000000	3.422295   
557.500000	3.687954   
558.000000	3.646075   
558.500000	3.276689   
559.000000	3.037462   
559.500000	3.211310   
560.000000	3.356719   
560.500000	3.380765   
561.000000	3.245431   
561.500000	3.184015   
562.000000	3.030992   
562.500000	2.996742   
563.000000	3.145431   
563.500000	3.412856   
564.000000	3.533840   
564.500000	3.407393   
565.000000	3.221484   
565.500000	3.126265   
566.000000	3.135848   
566.500000	3.209886   
567.000000	3.281916   
567.500000	3.355234   
568.000000	3.338386   
568.500000	3.447992   
569.000000	3.528613   
569.500000	3.677848   
570.000000	3.608742   
570.500000	3.519310   
571.000000	3.375045   
571.500000	3.359606   
572.000000	3.225106   
572.500000	3.118666   
573.000000	3.152962   
573.500000	3.445090   
574.000000	3.697803   
574.500000	3.760780   
575.000000	3.578825   
575.500000	3.372704   
576.000000	3.174416   
576.500000	3.297598   
577.000000	3.670325   
577.500000	4.094280   
578.000000	4.051795   
578.500000	3.960909   
579.000000	3.792840   
579.500000	3.741795   
580.000000	3.411015   
580.500000	3.370856   
581.000000	3.511401   
581.500000	3.969909   
582.000000	3.989613   
582.500000	4.000174   
583.000000	3.845856   
583.500000	3.727810   
584.000000	3.503628   
584.500000	3.439469   
585.000000	3.448621   
585.500000	3.498689   
586.000000	3.601765   
586.500000	3.644431   
587.000000	3.534856   
587.500000	3.350151   
588.000000	3.490128   
588.500000	3.862098   
589.000000	4.156143   
589.500000	4.207318   
590.000000	4.264939   
590.500000	4.272303   
591.000000	4.211999   
591.500000	4.211477   
592.000000	4.449189   
592.500000	4.665416   
593.000000	4.617325   
593.500000	4.379696   
594.000000	4.302310   
594.500000	4.471651   
595.000000	4.602651   
595.500000	4.718356   
596.000000	4.631893   
596.500000	4.493871   
597.000000	4.462090   
597.500000	4.912007   
598.000000	5.560621   
598.500000	6.016454   
599.000000	5.945522   
599.500000	5.794522   
600.000000	5.618068   
600.500000	5.654242   
601.000000	5.661992   
601.500000	5.718469   
602.000000	5.711689   
602.500000	5.894492   
603.000000	6.266333   
603.500000	6.711946   
604.000000	6.842780   
604.500000	6.743568   
605.000000	6.769363   
605.500000	7.052181   
606.000000	7.278560   
606.500000	7.129257   
607.000000	6.886553   
607.500000	7.202803   
608.000000	7.972409   
608.500000	8.442340   
609.000000	8.509628   
609.500000	8.535833   
610.000000	8.977136   
610.500000	9.368560   
611.000000	9.522257   
611.500000	9.454674   
612.000000	9.606424   
612.500000	9.834916   
613.000000	10.126818  
613.500000	10.493265  
614.000000	10.871143  
614.500000	11.315166  
615.000000	11.809037  
615.500000	12.224378  
616.000000	12.729189  
616.500000	13.073303  
617.000000	13.517522  
617.500000	14.144946  
618.000000	14.937750  
618.500000	15.292621  
619.000000	15.498795  
619.500000	15.646030  
620.000000	16.121196  
620.500000	16.390840  
621.000000	16.595901  
621.500000	17.147318  
622.000000	18.123704  
622.500000	19.312856  
623.000000	20.285030  
623.500000	20.902795  
624.000000	21.212696  
624.500000	21.998409  
625.000000	23.251757  
625.500000	24.819946  
626.000000	25.632098  
626.500000	25.948484  
627.000000	26.253772  
627.500000	27.427136  
628.000000	29.030007  
628.500000	30.730250  
629.000000	31.467424  
629.500000	31.994575  
630.000000	33.036946  
630.500000	35.047181  
631.000000	36.961530  
631.500000	38.278007  
632.000000	39.394424  
632.500000	40.995833  
633.000000	42.471636  
633.500000	43.312007  
634.000000	44.267007  
634.500000	46.004954  
635.000000	48.391606  
635.500000	50.409083  
636.000000	52.079666  
636.500000	53.579795  
637.000000	55.890431  
637.500000	58.606621  
638.000000	61.151674  
638.500000	62.456674  
639.000000	63.566909  
639.500000	65.304568  
640.000000	68.238954  
640.500000	71.034537  
641.000000	73.429803  
641.500000	76.001484  
642.000000	78.897060  
642.500000	81.199356  
643.000000	82.888674  
643.500000	85.078068  
644.000000	89.012386  
644.500000	93.093772  
645.000000	95.784530  
645.500000	97.413356  
646.000000	99.846810  
646.500000	103.062272 
647.000000	106.239454 
647.500000	108.727871 
648.000000	111.233431 
648.500000	114.438454 
649.000000	117.384333 
649.500000	120.355727 
650.000000	123.216295 
650.500000	127.150984 
651.000000	131.695765 
651.500000	135.815128 
652.000000	138.942621 
652.500000	141.597174 
653.000000	145.391674 
653.500000	149.738113 
654.000000	153.808212 
654.500000	156.173318 
655.000000	159.665030 
655.500000	163.827500 
656.000000	169.789000 
656.500000	174.791136 
657.000000	178.652090 
657.500000	179.844348 
658.000000	182.013583 
658.500000	185.425522 
659.000000	191.539946 
659.500000	197.461962 
660.000000	203.562598 
660.500000	207.477598 
661.000000	209.992515 
661.500000	211.955166 
662.000000	215.971750 
662.500000	219.858189 
663.000000	222.570098 
663.500000	224.951840 
664.000000	229.051750 
664.500000	234.151757 
665.000000	238.446424 
665.500000	242.206356 
666.000000	245.433553 
666.500000	249.080325 
667.000000	251.750151 
667.500000	254.406310 
668.000000	256.105666 
668.500000	259.096727 
669.000000	261.822795 
669.500000	265.753340 
670.000000	268.964098 
670.500000	271.868560 
671.000000	273.398068 
671.500000	275.171083 
672.000000	277.245075 
672.500000	279.351151 
673.000000	281.983507 
673.500000	286.239780 
674.000000	291.432643 
674.500000	293.846037 
675.000000	294.000090 
675.500000	294.282363 
676.000000	295.738303 
676.500000	295.655696 
677.000000	295.029643 
677.500000	296.395416 
678.000000	300.422939 
678.500000	304.502484 
679.000000	306.467734 
679.500000	307.147939 
680.000000	307.949113 
680.500000	308.920606 
681.000000	309.714863 
681.500000	310.036007 
682.000000	309.945136 
682.500000	311.715901 
683.000000	313.543401 
683.500000	313.437401 
684.000000	309.517916 
684.500000	307.419795 
685.000000	307.614681 
685.500000	309.115492 
686.000000	307.242772 
686.500000	304.393916 
687.000000	302.043893 
687.500000	300.141469 
688.000000	297.838037 
688.500000	294.937856 
689.000000	291.134613 
689.500000	286.698810 
690.000000	282.552386 
690.500000	281.349666 
691.000000	279.461022 
691.500000	276.155742 
692.000000	269.312803 
692.500000	264.272348 
693.000000	261.269340 
693.500000	259.318469 
694.000000	255.548007 
694.500000	251.218454 
695.000000	246.564189 
695.500000	240.472712 
696.000000	235.143598 
696.500000	231.081901 
697.000000	228.584098 
697.500000	224.853840 
698.000000	219.019492 
698.500000	212.816992 
699.000000	207.167886 
699.500000	202.422977 
700.000000	197.583227 
700.500000	192.634545 
701.000000	186.568901 
701.500000	181.572227 
702.000000	176.903393 
702.500000	173.739575 
703.000000	169.226416 
703.500000	163.330083 
704.000000	156.196219 
704.500000	151.948704 
705.000000	149.204946 
705.500000	146.322530 
706.000000	141.233439 
706.500000	136.554340 
707.000000	133.342712 
707.500000	131.162303 
708.000000	128.094545 
708.500000	124.053181 
709.000000	119.902212 
709.500000	116.694083 
710.000000	113.816280 
710.500000	111.317492 
711.000000	108.128780 
711.500000	105.055439 
712.000000	101.820045 
712.500000	98.621742  
713.000000	94.789030  
713.500000	91.451310  
714.000000	89.315636  
714.500000	87.819045  
715.000000	85.722545  
715.500000	82.425916  
716.000000	79.769462  
716.500000	76.904265  
717.000000	74.470174  
717.500000	72.135613  
718.000000	71.081045  
718.500000	69.420871  
719.000000	67.410196  
719.500000	64.942242  
720.000000	63.259310  
720.500000	61.404560  
721.000000	59.470462  
721.500000	57.165992  
722.000000	55.088393  
722.500000	52.919583  
723.000000	51.478840  
723.500000	50.104522  
724.000000	48.873371  
724.500000	47.284886  
725.000000	45.695719  
725.500000	44.177507  
726.000000	42.616015  
726.500000	41.280454  
727.000000	40.231878  
727.500000	39.500939  
728.000000	38.559356  
728.500000	37.081613  
729.000000	35.670530  
729.500000	34.609840  
730.000000	34.255356  
730.500000	33.402704  
731.000000	32.235545  
731.500000	30.932310  
732.000000	30.385469  
732.500000	29.824757  
733.000000	28.833537  
733.500000	27.658204  
734.000000	26.782500  
734.500000	26.275462  
735.000000	25.625909  
735.500000	25.005560  
736.000000	24.326416  
736.500000	23.804946  
737.000000	23.204545  
737.500000	22.639477  
738.000000	22.030265  
738.500000	21.639098  
739.000000	21.269045  
739.500000	20.883295  
740.000000	20.189621  
740.500000	19.286181  
741.000000	18.460522  
741.500000	17.919568  
742.000000	17.513901  
742.500000	17.160507  
743.000000	16.639431  
743.500000	16.128378  
744.000000	15.633356  
744.500000	15.241871  
745.000000	14.746803  
745.500000	14.312356  
746.000000	13.794696  
746.500000	13.604022  
747.000000	13.429590  
747.500000	13.383954  
748.000000	13.090946  
748.500000	13.067446  
749.000000	12.828560  
749.500000	12.628356  
750.000000	12.112621  
750.500000	11.924560  
751.000000	11.762878  
751.500000	11.521045  
752.000000	10.945159  
752.500000	10.561386  
753.000000	10.365916  
753.500000	10.212340  
754.000000	9.926553   
754.500000	9.662189   
755.000000	9.487742   
755.500000	9.517257   
756.000000	9.656568   
756.500000	9.670962   
757.000000	9.317068   
757.500000	8.706848   
758.000000	8.023166   
758.500000	7.587848   
759.000000	7.436272   
759.500000	7.570522   
760.000000	7.693022   
760.500000	7.711393   
761.000000	7.638977   
761.500000	7.525386   
762.000000	7.314878   
762.500000	7.008583   
763.000000	6.832439   
763.500000	6.722780   
764.000000	6.847621   
764.500000	6.932666   
765.000000	6.905583   
765.500000	6.636318   
766.000000	6.417378   
766.500000	6.135742   
767.000000	5.977727   
767.500000	5.688734   
768.000000	5.685136   
768.500000	5.594787   
769.000000	5.516454   
769.500000	5.253287   
770.000000	5.426727   
770.500000	5.303166   
771.000000	5.060727   
771.500000	4.603583   
772.000000	4.820560   
772.500000	5.251212   
773.000000	5.529659   
773.500000	5.216106   
774.000000	4.719303   
774.500000	4.451522   
775.000000	4.533999   
775.500000	4.738674   
776.000000	4.511560   
776.500000	4.153780   
777.000000	3.854310   
777.500000	3.885734   
778.000000	3.897674   
778.500000	3.954750   
779.000000	3.967318   
779.500000	3.923840   
780.000000	3.781833   
780.500000	3.569409   
781.000000	3.439613   
781.500000	3.484030   
782.000000	3.815977   
782.500000	3.937606   
783.000000	3.895356   
783.500000	3.685340   
784.000000	3.653371   
784.500000	3.587553   
785.000000	3.590651   
785.500000	3.440704   
786.000000	3.264916   
786.500000	3.047159   
787.000000	3.191962   
787.500000	3.506909   
788.000000	3.619810   
788.500000	3.303492   
789.000000	3.014242   
789.500000	2.949340   
790.000000	3.097272   
790.500000	3.103325   
791.000000	3.048606   
791.500000	2.980075   
792.000000	3.081333   
792.500000	3.120371   
793.000000	3.111143   
793.500000	2.989128   
794.000000	3.000159   
794.500000	2.991886   
795.000000	2.988704   
795.500000	2.898507   
796.000000	2.795545   
796.500000	2.643280   
797.000000	2.574765   
797.500000	2.630946   
798.000000	2.745068   
798.500000	2.750916   
799.000000	2.720492   
799.500000	2.653795   
800.000000	2.621454   
800.500000	2.411651   
801.000000	2.250825   
801.500000	2.123022   
802.000000	2.264325   
802.500000	2.400643   
803.000000	2.485015   
803.500000	2.351469   
804.000000	2.287916   
804.500000	2.225787   
805.000000	2.311500   
805.500000	2.280727   
806.000000	2.228606   
806.500000	2.152750   
807.000000	2.267598   
807.500000	2.259151   
808.000000	2.189424   
808.500000	2.132674   
809.000000	2.223196   
809.500000	2.353795   
810.000000	2.308750   
810.500000	2.241272   
811.000000	2.055007   
811.500000	1.994568   
812.000000	2.031954   
812.500000	2.258424   
813.000000	2.228590   
813.500000	2.054704   
814.000000	1.936333   
814.500000	1.929553   
815.000000	1.929681   
815.500000	1.860340   
816.000000	1.727439   
816.500000	1.635159   
817.000000	1.704765   
817.500000	1.913181   
818.000000	2.002386   
818.500000	1.960803   
819.000000	1.895689   
819.500000	2.064106   
820.000000	2.252272   
820.500000	2.256833   
821.000000	2.196022   
821.500000	2.249287   
822.000000	2.357159   
822.500000	2.383272   
823.000000	2.270424   
823.500000	2.273037   
824.000000	2.418098   
824.500000	2.739575   
825.000000	2.842734   
825.500000	2.866560   
826.000000	2.621818   
826.500000	2.541477   
827.000000	2.503500   
827.500000	2.474007   
828.000000	2.238060   
828.500000	2.037143   
829.000000	1.926401   
829.500000	1.870750   
830.000000	1.705878   
830.500000	1.418159   
831.000000	1.231295   
831.500000	1.211553   
832.000000	1.292295   
832.500000	1.331954   
833.000000	1.236628   
833.500000	1.151386   
834.000000	1.120424   
834.500000	1.119712   
835.000000	1.054007   
835.500000	1.015053   
836.000000	1.057272   
836.500000	1.104969   
837.000000	1.097348   
837.500000	1.040901   
838.000000	0.980022   
838.500000	0.918696   
839.000000	0.705462   
839.500000	0.513272   
840.000000	0.382303   
840.500000	0.492863   
841.000000	0.633742   
841.500000	0.807537   
842.000000	0.746363   
842.500000	0.732954   
843.000000	0.725007   
843.500000	0.769856   
844.000000	0.696409   
844.500000	0.593810   
845.000000	0.493924   
845.500000	0.575750   
846.000000	0.659750   
846.500000	0.628916   
847.000000	0.399128   
847.500000	0.148560   
848.000000	0.144462   
848.500000	0.308257   
849.000000	0.428325   
849.500000	0.279295   
850.000000	0.054348   
850.500000	-0.049712  
851.000000	0.135833   
851.500000	0.315969   
852.000000	0.395909   
852.500000	0.319030   
853.000000	0.263015   
853.500000	0.288212   
854.000000	0.323977   
854.500000	0.297575   
855.000000	0.147454   
855.500000	-0.002886  
856.000000	-0.045560  
856.500000	0.042136   
857.000000	0.020719   
857.500000	0.049053   
858.000000	0.153204   
858.500000	0.294719   
859.000000	0.244954   
859.500000	0.099507   
860.000000	-0.043553  
860.500000	-0.022492  
861.000000	-0.008507  
861.500000	-0.021462  
862.000000	-0.085598  
862.500000	-0.091590  
863.000000	-0.057780  
863.500000	-0.006189  
864.000000	-0.049348  
864.500000	0.085128   
865.000000	0.283219   
865.500000	0.439446   
866.000000	0.302575   
866.500000	0.222462   
867.000000	0.181931   
867.500000	0.228189   
868.000000	0.161704   
868.500000	0.144280   
869.000000	0.124734   
869.500000	0.011098   
870.000000	-0.082931  
870.500000	-0.068666  
871.000000	0.026204   
871.500000	0.013431   
872.000000	0.008356   
872.500000	0.044325   
873.000000	0.136537   
873.500000	0.125628   
874.000000	0.083106   
874.500000	0.008719   
875.000000	-0.059287  
875.500000	-0.126734  
876.000000	-0.148303  
876.500000	-0.082537  
877.000000	0.008280   
877.500000	0.072189   
878.000000	0.087606   
878.500000	0.088560   
879.000000	0.072810   
879.500000	0.072515   
880.000000	0.035598   
880.500000	-0.014477  
881.000000	-0.053386  
881.500000	-0.054901  
882.000000	-0.025083  
882.500000	0.008348   
883.000000	0.003522   
883.500000	0.014515   
884.000000	0.026303   
884.500000	0.042287   
885.000000	0.010128   
885.500000	-0.098386  
886.000000	-0.173803  
886.500000	-0.191431  
887.000000	-0.144909  
887.500000	-0.149075  
888.000000	-0.166681  
888.500000	-0.174590  
889.000000	-0.016909  
889.500000	0.152712   
890.000000	0.228318   
890.500000	0.146500   
891.000000	0.093621   
891.500000	0.109128   
892.000000	0.145181   
892.500000	0.118378   
893.000000	0.092310   
893.500000	0.058636   
894.000000	-0.041893  
894.500000	-0.091310  
895.000000	-0.013863  
895.500000	0.142598   
896.000000	0.216469   
896.500000	0.127000   
897.000000	-0.050901  
897.500000	-0.182462  
898.000000	-0.162166  
898.500000	-0.141022  
899.000000	-0.128590  
899.500000	-0.152416  
900.000000	-0.004696  
900.500000	0.300000   

