PE FL                   SPECTRUM    ASCII       PEDS        1.60        
  -1
S12#25.SP
24/04/15
15:30:29.00
24/04/15
15:31:55.00
Jan

900.500000
1









LS55
405.00
5.00
5.00
SCAN
1
20
100
100
0
400
0
1
0
1
5
ON
900 405 
1 0 0
#HDR
-1
-1
#GR
NM

0.00002384185791015625
0.0
450.000000
0.500000
902
8
223.198234
-0.606310
#DATA
450.000000	-0.033000  
450.500000	-0.032590  
451.000000	-0.138318  
451.500000	-0.249189  
452.000000	-0.274712  
452.500000	-0.314416  
453.000000	-0.269416  
453.500000	-0.145477  
454.000000	-0.023098  
454.500000	-0.013772  
455.000000	0.035272   
455.500000	0.119992   
456.000000	0.174659   
456.500000	0.075734   
457.000000	0.077196   
457.500000	0.040598   
458.000000	0.079439   
458.500000	-0.071075  
459.000000	-0.110666  
459.500000	-0.108371  
460.000000	0.052181   
460.500000	0.057250   
461.000000	-0.034477  
461.500000	-0.111666  
462.000000	-0.071393  
462.500000	0.002022   
463.000000	0.010189   
463.500000	0.075280   
464.000000	0.134666   
464.500000	0.212416   
465.000000	0.198439   
465.500000	0.094969   
466.000000	-0.071174  
466.500000	-0.157666  
467.000000	-0.129492  
467.500000	-0.075045  
468.000000	-0.100674  
468.500000	-0.185878  
469.000000	-0.278409  
469.500000	-0.308992  
470.000000	-0.144272  
470.500000	0.241204   
471.000000	0.594174   
471.500000	0.654787   
472.000000	0.372212   
472.500000	0.087606   
473.000000	-0.028007  
473.500000	0.037636   
474.000000	0.182378   
474.500000	0.294098   
475.000000	0.307674   
475.500000	0.222818   
476.000000	0.197893   
476.500000	0.152189   
477.000000	0.000204   
477.500000	-0.371393  
478.000000	-0.606310  
478.500000	-0.436613  
479.000000	-0.079106  
479.500000	0.130393   
480.000000	0.131303   
480.500000	0.065143   
481.000000	-0.047106  
481.500000	-0.182500  
482.000000	-0.130409  
482.500000	0.022053   
483.000000	0.088613   
483.500000	-0.011030  
484.000000	-0.011022  
484.500000	0.080401   
485.000000	0.117727   
485.500000	0.041174   
486.000000	-0.016022  
486.500000	0.011515   
487.000000	0.062954   
487.500000	-0.003848  
488.000000	-0.187871  
488.500000	-0.310098  
489.000000	-0.107803  
489.500000	0.144727   
490.000000	0.268787   
490.500000	0.119939   
491.000000	0.005636   
491.500000	0.010856   
492.000000	0.193469   
492.500000	0.361840   
493.000000	0.368931   
493.500000	0.212310   
494.000000	0.076287   
494.500000	0.125363   
495.000000	0.105462   
495.500000	0.054545   
496.000000	-0.025492  
496.500000	0.150954   
497.000000	0.377196   
497.500000	0.614454   
498.000000	0.701681   
498.500000	0.635530   
499.000000	0.475325   
499.500000	0.442636   
500.000000	0.596734   
500.500000	0.762477   
501.000000	0.819590   
501.500000	0.817772   
502.000000	0.834643   
502.500000	0.894083   
503.000000	0.988659   
503.500000	1.147409   
504.000000	1.129719   
504.500000	1.118250   
505.000000	1.275189   
505.500000	1.569909   
506.000000	1.680507   
506.500000	1.607083   
507.000000	1.521848   
507.500000	1.618606   
508.000000	1.838492   
508.500000	2.194303   
509.000000	2.463189   
509.500000	2.643628   
510.000000	2.713295   
510.500000	2.912901   
511.000000	2.969666   
511.500000	2.851537   
512.000000	2.673500   
512.500000	2.661242   
513.000000	2.679696   
513.500000	2.626893   
514.000000	2.743507   
514.500000	3.005318   
515.000000	3.237537   
515.500000	3.185856   
516.000000	3.034984   
516.500000	3.004484   
517.000000	3.081484   
517.500000	3.220901   
518.000000	3.389901   
518.500000	3.465946   
519.000000	3.434840   
519.500000	3.444840   
520.000000	3.439227   
520.500000	3.452530   
521.000000	3.457628   
521.500000	3.546439   
522.000000	3.674015   
522.500000	3.669189   
523.000000	3.449750   
523.500000	3.168196   
524.000000	3.162704   
524.500000	3.352022   
525.000000	3.618424   
525.500000	3.641303   
526.000000	3.844825   
526.500000	4.018765   
527.000000	4.243151   
527.500000	4.250015   
528.000000	4.405083   
528.500000	4.627803   
529.000000	5.021166   
529.500000	5.180568   
530.000000	5.333416   
530.500000	5.377113   
531.000000	5.803363   
531.500000	6.389446   
532.000000	6.894666   
532.500000	6.932909   
533.000000	6.886090   
533.500000	6.844909   
534.000000	7.336484   
534.500000	8.267613   
535.000000	9.146401   
535.500000	9.499833   
536.000000	9.295689   
536.500000	9.337590   
537.000000	9.758401   
537.500000	10.539492  
538.000000	11.158757  
538.500000	12.015181  
539.000000	12.690234  
539.500000	13.271424  
540.000000	13.659204  
540.500000	13.816621  
541.000000	13.854265  
541.500000	13.662128  
542.000000	13.830257  
542.500000	13.881121  
543.000000	13.909462  
543.500000	13.517053  
544.000000	13.141719  
544.500000	12.521712  
545.000000	11.634636  
545.500000	10.634734  
546.000000	10.073227  
546.500000	9.976265   
547.000000	9.895325   
547.500000	9.333492   
548.000000	8.490265   
548.500000	7.745636   
549.000000	7.296719   
549.500000	6.722113   
550.000000	6.014083   
550.500000	5.501901   
551.000000	5.220015   
551.500000	5.007689   
552.000000	4.668878   
552.500000	4.443000   
553.000000	4.379280   
553.500000	4.358053   
554.000000	4.128121   
554.500000	3.679712   
555.000000	3.430931   
555.500000	3.449803   
556.000000	3.735257   
556.500000	3.779219   
557.000000	3.613977   
557.500000	3.445250   
558.000000	3.505621   
558.500000	3.493803   
559.000000	3.301628   
559.500000	3.043651   
560.000000	2.954696   
560.500000	3.038083   
561.000000	3.072924   
561.500000	3.126606   
562.000000	3.278439   
562.500000	3.331916   
563.000000	3.244704   
563.500000	3.114068   
564.000000	3.261636   
564.500000	3.331787   
565.000000	3.435962   
565.500000	3.321484   
566.000000	3.353431   
566.500000	3.141424   
567.000000	2.983613   
567.500000	2.867356   
568.000000	2.944174   
568.500000	3.028651   
569.000000	3.048878   
569.500000	3.156098   
570.000000	3.324704   
570.500000	3.649053   
571.000000	3.725659   
571.500000	3.593446   
572.000000	3.221401   
572.500000	3.079189   
573.000000	3.093840   
573.500000	3.167939   
574.000000	3.233348   
574.500000	3.375121   
575.000000	3.643257   
575.500000	3.765795   
576.000000	3.756856   
576.500000	3.609871   
577.000000	3.633083   
577.500000	3.527651   
578.000000	3.542325   
578.500000	3.606462   
579.000000	3.805719   
579.500000	3.685537   
580.000000	3.289280   
580.500000	3.133742   
581.000000	3.467954   
581.500000	3.859371   
582.000000	3.701659   
582.500000	3.397416   
583.000000	3.237666   
583.500000	3.338621   
584.000000	3.287136   
584.500000	3.161310   
585.000000	3.143166   
585.500000	3.300643   
586.000000	3.529454   
586.500000	3.621424   
587.000000	3.618507   
587.500000	3.481393   
588.000000	3.518371   
588.500000	3.628439   
589.000000	3.786704   
589.500000	3.814454   
590.000000	3.779818   
590.500000	3.806196   
591.000000	3.842689   
591.500000	3.807878   
592.000000	3.734053   
592.500000	3.726333   
593.000000	3.911098   
593.500000	4.206348   
594.000000	4.477659   
594.500000	4.440560   
595.000000	4.380340   
595.500000	4.276833   
596.000000	4.468833   
596.500000	4.710530   
597.000000	4.902613   
597.500000	4.799196   
598.000000	4.534492   
598.500000	4.560015   
599.000000	4.910568   
599.500000	5.337189   
600.000000	5.317113   
600.500000	5.189848   
601.000000	5.086621   
601.500000	5.167492   
602.000000	5.292954   
602.500000	5.500515   
603.000000	5.668750   
603.500000	5.696659   
604.000000	5.899181   
604.500000	6.224492   
605.000000	6.443787   
605.500000	6.380659   
606.000000	6.474628   
606.500000	6.758469   
607.000000	7.164181   
607.500000	7.354477   
608.000000	7.448681   
608.500000	7.527780   
609.000000	7.756780   
609.500000	7.865901   
610.000000	7.889719   
610.500000	7.950416   
611.000000	8.447484   
611.500000	9.078340   
612.000000	9.385295   
612.500000	9.488484   
613.000000	9.734007   
613.500000	10.136295  
614.000000	10.271681  
614.500000	10.355015  
615.000000	10.489704  
615.500000	10.892810  
616.000000	11.360962  
616.500000	11.956068  
617.000000	12.641810  
617.500000	13.112454  
618.000000	13.352242  
618.500000	13.510803  
619.000000	14.170121  
619.500000	14.896734  
620.000000	15.308492  
620.500000	15.255568  
621.000000	15.439462  
621.500000	16.145030  
622.000000	16.898856  
622.500000	17.812477  
623.000000	18.582393  
623.500000	19.221886  
624.000000	18.973068  
624.500000	18.894053  
625.000000	19.211484  
625.500000	20.275250  
626.000000	21.004666  
626.500000	22.105575  
627.000000	23.564909  
627.500000	25.207454  
628.000000	26.471863  
628.500000	26.986348  
629.000000	27.298742  
629.500000	27.518780  
630.000000	28.641060  
630.500000	29.953462  
631.000000	31.663249  
631.500000	32.799522  
632.000000	34.321840  
632.500000	35.722007  
633.000000	37.268704  
633.500000	38.341787  
634.000000	39.477090  
634.500000	40.664242  
635.000000	42.264106  
635.500000	43.987416  
636.000000	45.499060  
636.500000	46.955984  
637.000000	48.329537  
637.500000	49.941818  
638.000000	51.739613  
638.500000	53.698037  
639.000000	55.446560  
639.500000	56.787590  
640.000000	57.841787  
640.500000	59.125318  
641.000000	61.032909  
641.500000	63.329613  
642.000000	65.940909  
642.500000	68.810431  
643.000000	70.973727  
643.500000	72.684795  
644.000000	74.280106  
644.500000	76.760575  
645.000000	79.404681  
645.500000	81.640553  
646.000000	83.221772  
646.500000	85.266378  
647.000000	87.742537  
647.500000	90.945196  
648.000000	93.955795  
648.500000	96.677424  
649.000000	98.693007  
649.500000	101.203015 
650.000000	103.977083 
650.500000	106.931507 
651.000000	109.416621 
651.500000	111.452962 
652.000000	113.086848 
652.500000	114.877712 
653.000000	117.382128 
653.500000	120.822674 
654.000000	124.322469 
654.500000	127.026090 
655.000000	129.563090 
655.500000	132.359560 
656.000000	135.869492 
656.500000	138.502583 
657.000000	141.053181 
657.500000	143.320143 
658.000000	146.569022 
658.500000	149.175492 
659.000000	151.792234 
659.500000	154.577704 
660.000000	158.241651 
660.500000	161.161704 
661.000000	163.240924 
661.500000	165.417136 
662.000000	169.629606 
662.500000	174.249310 
663.000000	177.600643 
663.500000	179.114454 
664.000000	181.010492 
664.500000	183.992386 
665.000000	187.185295 
665.500000	189.729295 
666.000000	190.356272 
666.500000	190.683409 
667.000000	191.593257 
667.500000	194.651916 
668.000000	196.947628 
668.500000	198.541696 
669.000000	199.804098 
669.500000	202.203128 
670.000000	203.796356 
670.500000	204.820840 
671.000000	205.745060 
671.500000	207.573984 
672.000000	209.888000 
672.500000	212.052310 
673.000000	213.714666 
673.500000	214.389651 
674.000000	215.042507 
674.500000	215.526189 
675.000000	216.623333 
675.500000	217.803272 
676.000000	219.929765 
676.500000	220.648916 
677.000000	220.084939 
677.500000	218.762848 
678.000000	220.062128 
678.500000	221.636810 
679.000000	222.609431 
679.500000	222.557750 
680.000000	222.752333 
680.500000	223.112969 
681.000000	223.198234 
681.500000	222.317545 
682.000000	219.891106 
682.500000	218.587530 
683.000000	217.925128 
683.500000	218.621969 
684.000000	217.070500 
684.500000	215.089090 
685.000000	212.897113 
685.500000	211.010212 
686.000000	207.659659 
686.500000	205.717136 
687.000000	205.040681 
687.500000	205.491757 
688.000000	203.777431 
688.500000	199.978871 
689.000000	195.095924 
689.500000	192.848659 
690.000000	191.864469 
690.500000	190.690439 
691.000000	186.452446 
691.500000	181.508053 
692.000000	177.313969 
692.500000	174.644606 
693.000000	172.110212 
693.500000	168.436333 
694.000000	164.541689 
694.500000	161.897590 
695.000000	160.421121 
695.500000	158.029984 
696.000000	153.833651 
696.500000	148.000500 
697.000000	142.572446 
697.500000	138.553257 
698.000000	136.046181 
698.500000	133.885068 
699.000000	130.734083 
699.500000	126.556954 
700.000000	122.725507 
700.500000	119.966469 
701.000000	117.112666 
701.500000	113.866265 
702.000000	109.579356 
702.500000	106.148219 
703.000000	103.130840 
703.500000	100.972113 
704.000000	98.785765  
704.500000	96.236810  
705.000000	92.668696  
705.500000	89.513409  
706.000000	87.738977  
706.500000	86.359174  
707.000000	84.238159  
707.500000	81.563825  
708.000000	79.523037  
708.500000	77.039022  
709.000000	73.990909  
709.500000	71.178409  
710.000000	69.350515  
710.500000	68.066780  
711.000000	66.880818  
711.500000	65.579257  
712.000000	63.608030  
712.500000	61.249916  
713.000000	58.263484  
713.500000	56.146136  
714.000000	54.174871  
714.500000	53.022287  
715.000000	52.016659  
715.500000	51.203893  
716.000000	49.819060  
716.500000	47.999507  
717.000000	46.340007  
717.500000	45.099780  
718.000000	43.922696  
718.500000	42.119583  
719.000000	40.483295  
719.500000	39.081303  
720.000000	38.074295  
720.500000	37.348053  
721.000000	36.895749  
721.500000	36.407431  
722.000000	35.453568  
722.500000	34.050545  
723.000000	32.520909  
723.500000	31.039590  
724.000000	29.798174  
724.500000	29.187143  
725.000000	28.875121  
725.500000	28.847098  
726.000000	28.399568  
726.500000	27.547939  
727.000000	26.028431  
727.500000	24.816212  
728.000000	23.972598  
728.500000	23.838136  
729.000000	23.466204  
729.500000	22.899234  
730.000000	21.939924  
730.500000	21.389696  
731.000000	20.946674  
731.500000	20.423537  
732.000000	19.367962  
732.500000	18.686227  
733.000000	18.199696  
733.500000	17.791560  
734.000000	17.038227  
734.500000	16.740060  
735.000000	16.897492  
735.500000	16.893810  
736.000000	16.342727  
736.500000	15.678757  
737.000000	15.166348  
737.500000	14.459265  
738.000000	13.880439  
738.500000	13.503583  
739.000000	13.452007  
739.500000	13.127075  
740.000000	12.845166  
740.500000	12.631606  
741.000000	12.473318  
741.500000	12.075931  
742.000000	11.714053  
742.500000	11.528568  
743.000000	11.388242  
743.500000	11.227484  
744.000000	10.843742  
744.500000	10.565992  
745.000000	10.111356  
745.500000	9.950651   
746.000000	9.592196   
746.500000	9.480651   
747.000000	9.290181   
747.500000	9.248295   
748.000000	8.897265   
748.500000	8.602037   
749.000000	8.306303   
749.500000	8.085560   
750.000000	8.106984   
750.500000	8.146856   
751.000000	8.176515   
751.500000	7.857651   
752.000000	7.457780   
752.500000	7.003946   
753.000000	6.785446   
753.500000	6.715037   
754.000000	6.834939   
754.500000	6.837000   
755.000000	6.730219   
755.500000	6.723159   
756.000000	6.733848   
756.500000	6.584772   
757.000000	6.475537   
757.500000	6.582954   
758.000000	6.737946   
758.500000	6.665492   
759.000000	6.282772   
759.500000	5.967803   
760.000000	5.882568   
760.500000	5.868090   
761.000000	5.899234   
761.500000	5.788863   
762.000000	5.651242   
762.500000	5.320575   
763.000000	5.115568   
763.500000	4.946833   
764.000000	5.180689   
764.500000	5.372431   
765.000000	5.603878   
765.500000	5.467340   
766.000000	5.093287   
766.500000	4.877196   
767.000000	4.792515   
767.500000	4.856787   
768.000000	4.542280   
768.500000	4.596984   
769.000000	4.578121   
769.500000	4.649969   
770.000000	4.243098   
770.500000	4.119477   
771.000000	4.008742   
771.500000	3.924878   
772.000000	3.629045   
772.500000	3.538204   
773.000000	3.677560   
773.500000	3.829446   
774.000000	3.791553   
774.500000	3.663613   
775.000000	3.594878   
775.500000	3.609704   
776.000000	3.601515   
776.500000	3.563499   
777.000000	3.557750   
777.500000	3.479575   
778.000000	3.245924   
778.500000	2.991098   
779.000000	2.911469   
779.500000	3.058106   
780.000000	3.216848   
780.500000	3.377787   
781.000000	3.378000   
781.500000	3.455454   
782.000000	3.503681   
782.500000	3.538378   
783.000000	3.410507   
783.500000	3.240901   
784.000000	3.200636   
784.500000	3.217053   
785.000000	3.210712   
785.500000	3.045393   
786.000000	2.949659   
786.500000	2.880136   
787.000000	2.921924   
787.500000	2.910060   
788.000000	2.778356   
788.500000	2.710719   
789.000000	2.669492   
789.500000	2.765651   
790.000000	2.791446   
790.500000	2.855734   
791.000000	2.868780   
791.500000	2.887090   
792.000000	2.741583   
792.500000	2.660318   
793.000000	2.733250   
793.500000	2.895833   
794.000000	2.974674   
794.500000	2.857477   
795.000000	2.701113   
795.500000	2.652674   
796.000000	2.672939   
796.500000	2.649871   
797.000000	2.516090   
797.500000	2.352310   
798.000000	2.298598   
798.500000	2.476272   
799.000000	2.651462   
799.500000	2.817386   
800.000000	2.693750   
800.500000	2.516030   
801.000000	2.350393   
801.500000	2.389780   
802.000000	2.421045   
802.500000	2.501666   
803.000000	2.346696   
803.500000	2.177810   
804.000000	1.977325   
804.500000	1.963674   
805.000000	2.020681   
805.500000	2.225000   
806.000000	2.401075   
806.500000	2.458348   
807.000000	2.144909   
807.500000	1.624704   
808.000000	1.348719   
808.500000	1.302939   
809.000000	1.412772   
809.500000	1.563681   
810.000000	1.806810   
810.500000	2.001810   
811.000000	1.987840   
811.500000	1.831462   
812.000000	1.676765   
812.500000	1.660833   
813.000000	1.595689   
813.500000	1.542227   
814.000000	1.494386   
814.500000	1.688030   
815.000000	1.777954   
815.500000	1.677462   
816.000000	1.340742   
816.500000	1.418795   
817.000000	1.616439   
817.500000	1.728477   
818.000000	1.409909   
818.500000	1.184189   
819.000000	1.292522   
819.500000	1.701181   
820.000000	2.127386   
820.500000	2.164590   
821.000000	2.041083   
821.500000	1.901007   
822.000000	2.071666   
822.500000	2.252856   
823.000000	2.513393   
823.500000	2.680810   
824.000000	2.721500   
824.500000	2.583833   
825.000000	2.539310   
825.500000	2.709500   
826.000000	2.629356   
826.500000	2.356181   
827.000000	2.009462   
827.500000	1.917878   
828.000000	1.825371   
828.500000	1.739234   
829.000000	1.636780   
829.500000	1.604401   
830.000000	1.484000   
830.500000	1.327318   
831.000000	1.224818   
831.500000	1.158651   
832.000000	1.176712   
832.500000	1.103939   
833.000000	0.996340   
833.500000	1.005992   
834.000000	1.175393   
834.500000	1.304446   
835.000000	1.212045   
835.500000	0.953378   
836.000000	0.823931   
836.500000	0.808151   
837.000000	0.869204   
837.500000	0.934439   
838.000000	1.016098   
838.500000	0.950280   
839.000000	0.813984   
839.500000	0.662318   
840.000000	0.682962   
840.500000	0.819265   
841.000000	0.974310   
841.500000	1.033750   
842.000000	0.976606   
842.500000	0.814424   
843.000000	0.699060   
843.500000	0.620219   
844.000000	0.614818   
844.500000	0.699909   
845.000000	0.796219   
845.500000	0.750037   
846.000000	0.608568   
846.500000	0.428310   
847.000000	0.326598   
847.500000	0.228931   
848.000000	0.162757   
848.500000	0.159151   
849.000000	0.292871   
849.500000	0.325931   
850.000000	0.359356   
850.500000	0.324598   
851.000000	0.284439   
851.500000	0.136303   
852.000000	0.041787   
852.500000	0.133727   
853.000000	0.269212   
853.500000	0.273318   
854.000000	0.083863   
854.500000	-0.041939  
855.000000	-0.039333  
855.500000	0.103477   
856.000000	0.220674   
856.500000	0.202643   
857.000000	0.076045   
857.500000	-0.026234  
858.000000	-0.026318  
858.500000	0.005318   
859.000000	0.070340   
859.500000	0.086704   
860.000000	0.041250   
860.500000	0.006962   
861.000000	0.006333   
861.500000	0.037037   
862.000000	0.137765   
862.500000	0.228128   
863.000000	0.276348   
863.500000	0.217878   
864.000000	0.139098   
864.500000	0.050113   
865.000000	-0.008666  
865.500000	-0.064136  
866.000000	-0.041015  
866.500000	-0.067939  
867.000000	-0.109416  
867.500000	-0.113340  
868.000000	-0.041371  
868.500000	-0.086060  
869.000000	-0.263939  
869.500000	-0.425318  
870.000000	-0.325416  
870.500000	-0.119734  
871.000000	0.030090   
871.500000	0.005931   
872.000000	-0.057651  
872.500000	-0.131295  
873.000000	-0.156325  
873.500000	-0.160825  
874.000000	-0.112787  
874.500000	-0.055234  
875.000000	-0.014939  
875.500000	0.012659   
876.000000	0.084219   
876.500000	0.079151   
877.000000	-0.009818  
877.500000	-0.145977  
878.000000	-0.107219  
878.500000	0.025712   
879.000000	0.177681   
879.500000	0.180181   
880.000000	0.063143   
880.500000	-0.005143  
881.000000	-0.009143  
881.500000	0.049530   
882.000000	-0.044666  
882.500000	-0.052356  
883.000000	0.033939   
883.500000	0.160181   
884.000000	0.092121   
884.500000	-0.049371  
885.000000	-0.167568  
885.500000	-0.183143  
886.000000	-0.119401  
886.500000	-0.044136  
887.000000	-0.009030  
887.500000	-0.011712  
888.000000	0.013522   
888.500000	-0.017522  
889.000000	-0.061477  
889.500000	-0.160356  
890.000000	-0.158454  
890.500000	-0.138893  
891.000000	-0.055568  
891.500000	-0.066545  
892.000000	-0.131833  
892.500000	-0.170734  
893.000000	-0.127068  
893.500000	-0.036704  
894.000000	-0.037219  
894.500000	-0.088386  
895.000000	-0.164946  
895.500000	-0.216371  
896.000000	-0.237886  
896.500000	-0.216363  
897.000000	-0.123833  
897.500000	-0.063651  
898.000000	-0.052136  
898.500000	-0.105265  
899.000000	-0.107598  
899.500000	-0.060712  
900.000000	-0.034287  
900.500000	-0.064999  

