PE FL                   SPECTRUM    ASCII       PEDS        1.60        
  -1
S12R#29.SP
24/04/15
16:19:36.00
24/04/15
16:21:02.00
Jan

900.500000
1









LS55
405.00
5.00
5.00
SCAN
1
20
100
100
0
400
0
1
0
1
5
ON
900 405 
1 0 0
#HDR
-1
-1
#GR
NM

0.00002384185791015625
0.0
450.000000
0.500000
902
8
175.403598
-0.600999
#DATA
450.000000	-0.600999  
450.500000	-0.111583  
451.000000	0.193750   
451.500000	0.263840   
452.000000	0.250219   
452.500000	0.062818   
453.000000	-0.037780  
453.500000	-0.064750  
454.000000	-0.008643  
454.500000	0.018090   
455.000000	0.106295   
455.500000	0.211053   
456.000000	0.182492   
456.500000	0.081515   
457.000000	-0.025757  
457.500000	-0.090083  
458.000000	-0.147181  
458.500000	-0.092765  
459.000000	0.141840   
459.500000	0.266348   
460.000000	0.234303   
460.500000	0.084340   
461.000000	0.068219   
461.500000	0.034303   
462.000000	0.068401   
462.500000	-0.018886  
463.000000	-0.110924  
463.500000	-0.317840  
464.000000	-0.314386  
464.500000	-0.099431  
465.000000	0.126583   
465.500000	0.010280   
466.000000	-0.200772  
466.500000	-0.158712  
467.000000	0.026909   
467.500000	0.115250   
468.000000	-0.088568  
468.500000	-0.213318  
469.000000	-0.237371  
469.500000	-0.226204  
470.000000	-0.256257  
470.500000	-0.183303  
471.000000	-0.044651  
471.500000	0.082424   
472.000000	0.098356   
472.500000	0.118954   
473.000000	0.086977   
473.500000	0.052984   
474.000000	0.032621   
474.500000	0.121212   
475.000000	0.035719   
475.500000	-0.186371  
476.000000	-0.405575  
476.500000	-0.334886  
477.000000	-0.079204  
477.500000	0.039734   
478.000000	-0.037553  
478.500000	-0.125060  
479.000000	-0.090136  
479.500000	0.038992   
480.000000	0.106568   
480.500000	0.131083   
481.000000	0.159310   
481.500000	0.212856   
482.000000	0.149606   
482.500000	-0.057424  
483.000000	-0.266356  
483.500000	-0.227848  
484.000000	0.095234   
484.500000	0.241636   
485.000000	0.152939   
485.500000	-0.082257  
486.000000	-0.120098  
486.500000	0.016409   
487.000000	0.099022   
487.500000	0.041196   
488.000000	-0.074954  
488.500000	-0.086568  
489.000000	-0.142734  
489.500000	-0.106446  
490.000000	-0.113234  
490.500000	0.095689   
491.000000	0.131136   
491.500000	0.053242   
492.000000	-0.135719  
492.500000	-0.043371  
493.000000	0.087818   
493.500000	0.228151   
494.000000	0.194818   
494.500000	0.215113   
495.000000	0.143128   
495.500000	0.062106   
496.000000	0.045757   
496.500000	0.189575   
497.000000	0.291333   
497.500000	0.422250   
498.000000	0.471257   
498.500000	0.546757   
499.000000	0.507757   
499.500000	0.593287   
500.000000	0.716863   
500.500000	0.837424   
501.000000	0.824106   
501.500000	0.878507   
502.000000	0.919000   
502.500000	0.929454   
503.000000	0.890356   
503.500000	0.871007   
504.000000	0.860886   
504.500000	0.826916   
505.000000	0.880303   
505.500000	1.087363   
506.000000	1.371189   
506.500000	1.547666   
507.000000	1.760075   
507.500000	1.989825   
508.000000	2.264856   
508.500000	2.236068   
509.000000	2.196439   
509.500000	2.190007   
510.000000	2.355621   
510.500000	2.402409   
511.000000	2.426083   
511.500000	2.488833   
512.000000	2.595750   
512.500000	2.712598   
513.000000	2.667469   
513.500000	2.732386   
514.000000	2.800727   
514.500000	2.901363   
515.000000	2.813515   
515.500000	2.752530   
516.000000	2.860507   
516.500000	3.105454   
517.000000	3.344219   
517.500000	3.440280   
518.000000	3.562212   
518.500000	3.569992   
519.000000	3.579431   
519.500000	3.500265   
520.000000	3.451893   
520.500000	3.225568   
521.000000	2.919037   
521.500000	2.739727   
522.000000	2.911772   
522.500000	3.095159   
523.000000	3.208007   
523.500000	3.190810   
524.000000	3.527340   
524.500000	3.768613   
525.000000	3.921689   
525.500000	3.733500   
526.000000	3.759393   
526.500000	3.822757   
527.000000	4.123931   
527.500000	4.403196   
528.000000	4.744636   
528.500000	5.046734   
529.000000	5.211007   
529.500000	5.264477   
530.000000	5.361053   
530.500000	5.600318   
531.000000	5.896742   
531.500000	6.043742   
532.000000	6.104007   
532.500000	6.194098   
533.000000	6.363045   
533.500000	6.556212   
534.000000	6.890916   
534.500000	7.406954   
535.000000	7.798628   
535.500000	7.868393   
536.000000	7.870136   
536.500000	8.296181   
537.000000	9.128030   
537.500000	9.901749   
538.000000	10.439848  
538.500000	10.884613  
539.000000	11.269272  
539.500000	11.715219  
540.000000	12.489674  
540.500000	13.400484  
541.000000	13.980431  
541.500000	14.024537  
542.000000	13.992909  
542.500000	13.772507  
543.000000	13.217257  
543.500000	12.496734  
544.000000	12.368681  
544.500000	12.500151  
545.000000	12.221431  
545.500000	11.199931  
546.000000	10.074787  
546.500000	9.660234   
547.000000	9.727462   
547.500000	9.661287   
548.000000	8.955719   
548.500000	7.806727   
549.000000	6.598242   
549.500000	5.796795   
550.000000	5.562530   
550.500000	5.623787   
551.000000	5.421166   
551.500000	4.808515   
552.000000	4.282022   
552.500000	3.963439   
553.000000	3.711621   
553.500000	3.431393   
554.000000	3.314166   
554.500000	3.263613   
555.000000	3.246363   
555.500000	3.137068   
556.000000	3.295363   
556.500000	3.506651   
557.000000	3.632280   
557.500000	3.461719   
558.000000	3.237568   
558.500000	3.195878   
559.000000	3.310659   
559.500000	3.379750   
560.000000	3.324515   
560.500000	3.268159   
561.000000	3.259265   
561.500000	3.321810   
562.000000	3.363795   
562.500000	3.330030   
563.000000	3.327174   
563.500000	3.243553   
564.000000	3.278484   
564.500000	3.281719   
565.000000	3.333954   
565.500000	3.228583   
566.000000	3.158469   
566.500000	2.993242   
567.000000	3.144416   
567.500000	3.303757   
568.000000	3.563674   
568.500000	3.524083   
569.000000	3.388719   
569.500000	3.242174   
570.000000	3.290492   
570.500000	3.455045   
571.000000	3.514174   
571.500000	3.511280   
572.000000	3.384818   
572.500000	3.416242   
573.000000	3.309977   
573.500000	3.326946   
574.000000	3.308757   
574.500000	3.453689   
575.000000	3.522681   
575.500000	3.507500   
576.000000	3.362060   
576.500000	3.252787   
577.000000	3.317719   
577.500000	3.464992   
578.000000	3.600757   
578.500000	3.501856   
579.000000	3.423265   
579.500000	3.313250   
580.000000	3.279007   
580.500000	3.104030   
581.000000	3.012151   
581.500000	3.004492   
582.000000	3.203984   
582.500000	3.268689   
583.000000	3.208674   
583.500000	3.204060   
584.000000	3.439318   
584.500000	3.588007   
585.000000	3.458522   
585.500000	3.276666   
586.000000	3.395568   
586.500000	3.755537   
587.000000	3.901719   
587.500000	3.804113   
588.000000	3.654000   
588.500000	3.770340   
589.000000	3.862954   
589.500000	3.833757   
590.000000	3.687772   
590.500000	3.787863   
591.000000	3.843522   
591.500000	3.821143   
592.000000	3.554545   
592.500000	3.339939   
593.000000	3.372901   
593.500000	3.758174   
594.000000	4.131780   
594.500000	4.370204   
595.000000	4.456469   
595.500000	4.710681   
596.000000	5.103666   
596.500000	5.440606   
597.000000	5.532128   
597.500000	5.570893   
598.000000	5.412946   
598.500000	5.161803   
599.000000	4.842303   
599.500000	4.749787   
600.000000	4.924696   
600.500000	5.220106   
601.000000	5.372795   
601.500000	5.539848   
602.000000	5.945037   
602.500000	6.377121   
603.000000	6.659810   
603.500000	6.643621   
604.000000	6.713651   
604.500000	7.026977   
605.000000	7.187484   
605.500000	6.995666   
606.000000	6.659522   
606.500000	6.880681   
607.000000	7.398295   
607.500000	7.994484   
608.000000	8.203045   
608.500000	8.361909   
609.000000	8.659439   
609.500000	8.979348   
610.000000	9.334946   
610.500000	9.477825   
611.000000	9.671409   
611.500000	9.611537   
612.000000	9.981053   
612.500000	10.346893  
613.000000	10.993371  
613.500000	11.418909  
614.000000	11.905606  
614.500000	12.403522  
615.000000	12.949886  
615.500000	13.264166  
616.000000	13.235750  
616.500000	13.177393  
617.000000	13.408234  
617.500000	14.086492  
618.000000	14.600106  
618.500000	15.041734  
619.000000	15.797037  
619.500000	16.775136  
620.000000	17.381181  
620.500000	17.600780  
621.000000	18.084583  
621.500000	18.989159  
622.000000	20.235053  
622.500000	21.290530  
623.000000	21.917431  
623.500000	22.053325  
624.000000	22.014174  
624.500000	22.447810  
625.000000	23.709234  
625.500000	25.189689  
626.000000	26.071234  
626.500000	26.428946  
627.000000	27.132113  
627.500000	28.464378  
628.000000	30.029280  
628.500000	31.649007  
629.000000	33.181924  
629.500000	34.256613  
630.000000	34.764931  
630.500000	35.860310  
631.000000	37.225143  
631.500000	38.440356  
632.000000	39.215946  
632.500000	40.773696  
633.000000	42.678189  
633.500000	44.222825  
634.000000	44.992636  
634.500000	45.831083  
635.000000	46.918931  
635.500000	48.529159  
636.000000	50.550128  
636.500000	52.626840  
637.000000	53.556946  
637.500000	54.300363  
638.000000	55.898159  
638.500000	58.882954  
639.000000	61.991181  
639.500000	64.673174  
640.000000	66.448810  
640.500000	68.677128  
641.000000	70.896424  
641.500000	72.809704  
642.000000	73.756401  
642.500000	74.786477  
643.000000	76.135984  
643.500000	78.331356  
644.000000	80.981787  
644.500000	83.915749  
645.000000	86.226318  
645.500000	87.557348  
646.000000	88.833681  
646.500000	90.080924  
647.000000	91.483568  
647.500000	93.998712  
648.000000	97.567378  
648.500000	100.593962 
649.000000	101.946401 
649.500000	103.294462 
650.000000	105.219037 
650.500000	108.620727 
651.000000	111.449636 
651.500000	113.962628 
652.000000	114.598863 
652.500000	115.556787 
653.000000	116.916659 
653.500000	120.137378 
654.000000	122.901446 
654.500000	125.400878 
655.000000	126.287159 
655.500000	127.852613 
656.000000	131.068174 
656.500000	135.937984 
657.000000	139.168446 
657.500000	139.908712 
658.000000	139.477515 
658.500000	140.535325 
659.000000	143.271053 
659.500000	146.127181 
660.000000	146.958393 
660.500000	147.370537 
661.000000	147.876803 
661.500000	150.705083 
662.000000	153.695431 
662.500000	155.875810 
663.000000	156.060719 
663.500000	156.136000 
664.000000	157.075946 
664.500000	158.374856 
665.000000	159.739515 
665.500000	161.435757 
666.000000	164.621022 
666.500000	166.332174 
667.000000	166.042795 
667.500000	165.619068 
668.000000	167.713007 
668.500000	169.496128 
669.000000	169.814689 
669.500000	168.908469 
670.000000	170.180143 
670.500000	172.115181 
671.000000	174.092651 
671.500000	174.228333 
672.000000	174.645553 
672.500000	174.407053 
673.000000	174.983280 
673.500000	175.121348 
674.000000	175.403598 
674.500000	174.805734 
675.000000	174.591189 
675.500000	174.345742 
676.000000	175.022121 
676.500000	174.457515 
677.000000	173.150916 
677.500000	171.606598 
678.000000	170.573386 
678.500000	169.103234 
679.000000	166.791992 
679.500000	164.719378 
680.000000	163.727007 
680.500000	163.392439 
681.000000	162.224522 
681.500000	160.424257 
682.000000	158.388962 
682.500000	157.128537 
683.000000	156.061431 
683.500000	154.458325 
684.000000	151.863962 
684.500000	149.921939 
685.000000	147.867689 
685.500000	144.987378 
686.000000	140.798340 
686.500000	137.420348 
687.000000	135.519128 
687.500000	134.558977 
688.000000	132.296598 
688.500000	129.496507 
689.000000	126.189666 
689.500000	123.796681 
690.000000	120.866848 
690.500000	117.957113 
691.000000	114.395439 
691.500000	112.025242 
692.000000	109.319143 
692.500000	106.824196 
693.000000	103.480886 
693.500000	100.108946 
694.000000	97.615893  
694.500000	96.196196  
695.000000	95.163015  
695.500000	92.921378  
696.000000	89.869416  
696.500000	86.586477  
697.000000	83.695318  
697.500000	81.084765  
698.000000	79.207628  
698.500000	77.894530  
699.000000	76.504704  
699.500000	74.544818  
700.000000	71.951568  
700.500000	68.603537  
701.000000	65.798136  
701.500000	64.062992  
702.000000	63.158272  
702.500000	61.312378  
703.000000	59.155401  
703.500000	57.087909  
704.000000	55.944992  
704.500000	54.180189  
705.000000	52.214537  
705.500000	50.052393  
706.000000	48.956106  
706.500000	47.937121  
707.000000	47.068439  
707.500000	45.238060  
708.000000	43.535681  
708.500000	42.111439  
709.000000	41.359878  
709.500000	40.459583  
710.000000	39.330765  
710.500000	38.084242  
711.000000	36.773090  
711.500000	35.378068  
712.000000	34.196113  
712.500000	33.369719  
713.000000	32.766530  
713.500000	32.027833  
714.000000	31.347484  
714.500000	30.121681  
715.000000	28.959378  
715.500000	27.970393  
716.000000	27.912242  
716.500000	27.291250  
717.000000	26.179628  
717.500000	24.591356  
718.000000	23.737590  
718.500000	23.319500  
719.000000	22.841825  
719.500000	22.055871  
720.000000	21.366068  
720.500000	20.888113  
721.000000	20.428545  
721.500000	20.013772  
722.000000	19.434242  
722.500000	18.983856  
723.000000	18.359742  
723.500000	17.808159  
724.000000	17.262287  
724.500000	17.135250  
725.000000	16.812424  
725.500000	16.599750  
726.000000	15.921674  
726.500000	15.668227  
727.000000	15.408530  
727.500000	15.247848  
728.000000	14.523310  
728.500000	14.019772  
729.000000	13.679477  
729.500000	13.635651  
730.000000	13.447840  
730.500000	13.072681  
731.000000	12.515825  
731.500000	11.935454  
732.000000	11.690962  
732.500000	11.590022  
733.000000	11.579075  
733.500000	11.316750  
734.000000	11.232227  
734.500000	11.157174  
735.000000	10.838522  
735.500000	10.230015  
736.000000	9.493128   
736.500000	9.119037   
737.000000	9.036060   
737.500000	9.080613   
738.000000	8.723871   
738.500000	8.454196   
739.000000	8.258060   
739.500000	8.398469   
740.000000	8.204598   
740.500000	8.067924   
741.000000	8.039015   
741.500000	8.147749   
742.000000	7.998303   
742.500000	7.641886   
743.000000	7.490916   
743.500000	7.609196   
744.000000	7.809469   
744.500000	7.594924   
745.000000	7.249909   
745.500000	6.867575   
746.000000	6.797939   
746.500000	6.654545   
747.000000	6.547954   
747.500000	6.430151   
748.000000	6.297848   
748.500000	6.134696   
749.000000	6.143227   
749.500000	6.226825   
750.000000	5.986992   
750.500000	5.497689   
751.000000	5.114318   
751.500000	5.189537   
752.000000	5.248363   
752.500000	5.261371   
753.000000	5.187765   
753.500000	5.238681   
754.000000	5.340242   
754.500000	5.509621   
755.000000	5.479553   
755.500000	5.202363   
756.000000	4.861348   
756.500000	4.572954   
757.000000	4.358909   
757.500000	4.303462   
758.000000	4.718181   
758.500000	4.974568   
759.000000	4.930469   
759.500000	4.608386   
760.000000	4.561780   
760.500000	4.347303   
761.000000	4.077363   
761.500000	3.996598   
762.000000	4.205954   
762.500000	4.326318   
763.000000	4.327651   
763.500000	4.430916   
764.000000	4.459151   
764.500000	4.187537   
765.000000	3.917159   
765.500000	3.807651   
766.000000	3.983969   
766.500000	4.003878   
767.000000	4.102757   
767.500000	3.955962   
768.000000	3.888780   
768.500000	3.629143   
769.000000	3.522606   
769.500000	3.410363   
770.000000	3.472075   
770.500000	3.360636   
771.000000	3.239409   
771.500000	3.131818   
772.000000	3.190689   
772.500000	3.371106   
773.000000	3.547833   
773.500000	3.580424   
774.000000	3.418621   
774.500000	3.203696   
775.000000	3.104439   
775.500000	3.205037   
776.000000	3.262121   
776.500000	3.244272   
777.000000	3.167030   
777.500000	3.102219   
778.000000	3.163454   
778.500000	3.278696   
779.000000	3.324356   
779.500000	3.205318   
780.000000	3.052454   
780.500000	2.937053   
781.000000	2.928522   
781.500000	2.904075   
782.000000	2.995696   
782.500000	2.932946   
783.000000	2.821462   
783.500000	2.690143   
784.000000	2.787931   
784.500000	2.918083   
785.000000	2.998053   
785.500000	2.934878   
786.000000	2.949992   
786.500000	2.973462   
787.000000	2.829909   
787.500000	2.551174   
788.000000	2.396128   
788.500000	2.501196   
789.000000	2.754174   
789.500000	2.848500   
790.000000	2.931969   
790.500000	2.974825   
791.000000	2.838068   
791.500000	2.526015   
792.000000	2.472500   
792.500000	2.645196   
793.000000	2.767939   
793.500000	2.676560   
794.000000	2.597840   
794.500000	2.552636   
795.000000	2.396969   
795.500000	2.049227   
796.000000	1.968386   
796.500000	2.259106   
797.000000	2.569696   
797.500000	2.582833   
798.000000	2.350250   
798.500000	2.290522   
799.000000	2.277484   
799.500000	2.184522   
800.000000	2.033946   
800.500000	2.173583   
801.000000	2.431719   
801.500000	2.566924   
802.000000	2.366075   
802.500000	2.232151   
803.000000	2.179462   
803.500000	2.113848   
804.000000	1.900734   
804.500000	1.770719   
805.000000	1.693962   
805.500000	1.750219   
806.000000	1.648045   
806.500000	1.533522   
807.000000	1.454106   
807.500000	1.455537   
808.000000	1.537545   
808.500000	1.571469   
809.000000	1.553060   
809.500000	1.566363   
810.000000	1.655583   
810.500000	1.675007   
811.000000	1.782462   
811.500000	1.855765   
812.000000	1.967553   
812.500000	1.917848   
813.000000	1.762159   
813.500000	1.530969   
814.000000	1.343113   
814.500000	1.278825   
815.000000	1.349719   
815.500000	1.623750   
816.000000	1.847265   
816.500000	1.940924   
817.000000	1.690924   
817.500000	1.549310   
818.000000	1.526954   
818.500000	1.824045   
819.000000	1.923522   
819.500000	1.912893   
820.000000	1.709977   
820.500000	1.749151   
821.000000	1.906840   
821.500000	2.115848   
822.000000	2.198265   
822.500000	2.242742   
823.000000	2.319643   
823.500000	2.187507   
824.000000	2.172810   
824.500000	2.248113   
825.000000	2.489628   
825.500000	2.419469   
826.000000	2.314310   
826.500000	2.166212   
827.000000	2.216886   
827.500000	2.246878   
828.000000	2.194310   
828.500000	1.993575   
829.000000	1.654128   
829.500000	1.440257   
830.000000	1.362742   
830.500000	1.440227   
831.000000	1.384545   
831.500000	1.315818   
832.000000	1.190424   
832.500000	1.241575   
833.000000	1.265856   
833.500000	1.237378   
834.000000	1.046113   
834.500000	0.956636   
835.000000	0.964204   
835.500000	0.974696   
836.000000	0.898204   
836.500000	0.879090   
837.000000	0.979204   
837.500000	1.110772   
838.000000	1.123159   
838.500000	0.911712   
839.000000	0.707287   
839.500000	0.627992   
840.000000	0.720075   
840.500000	0.818689   
841.000000	0.855924   
841.500000	0.811787   
842.000000	0.817681   
842.500000	0.897878   
843.000000	0.947863   
843.500000	0.937583   
844.000000	0.809568   
844.500000	0.788810   
845.000000	0.847439   
845.500000	0.837825   
846.000000	0.606568   
846.500000	0.377712   
847.000000	0.161469   
847.500000	0.060810   
848.000000	-0.017469  
848.500000	0.078356   
849.000000	0.275848   
849.500000	0.486598   
850.000000	0.446537   
850.500000	0.417416   
851.000000	0.301060   
851.500000	0.128886   
852.000000	-0.170856  
852.500000	-0.247287  
853.000000	-0.112446  
853.500000	0.148113   
854.000000	0.126787   
854.500000	-0.003636  
855.000000	-0.130515  
855.500000	-0.107060  
856.000000	-0.112015  
856.500000	-0.128234  
857.000000	-0.116159  
857.500000	0.030454   
858.000000	0.251575   
858.500000	0.349560   
859.000000	0.242250   
859.500000	0.016325   
860.000000	-0.157590  
860.500000	-0.142606  
861.000000	-0.010378  
861.500000	0.062689   
862.000000	0.039727   
862.500000	0.013772   
863.000000	0.018969   
863.500000	0.021272   
864.000000	0.018863   
864.500000	-0.006424  
865.000000	0.015401   
865.500000	-0.006575  
866.000000	-0.037992  
866.500000	-0.022977  
867.000000	-0.021234  
867.500000	-0.055037  
868.000000	-0.104575  
868.500000	-0.105833  
869.000000	-0.077787  
869.500000	-0.074416  
870.000000	-0.026727  
870.500000	0.011469   
871.000000	-0.008916  
871.500000	-0.135090  
872.000000	-0.016371  
872.500000	0.187196   
873.000000	0.357924   
873.500000	0.274136   
874.000000	0.181219   
874.500000	0.062492   
875.000000	-0.028674  
875.500000	-0.110863  
876.000000	-0.135643  
876.500000	-0.113424  
877.000000	-0.086666  
877.500000	-0.013356  
878.000000	0.045628   
878.500000	0.088954   
879.000000	0.112212   
879.500000	0.121439   
880.000000	0.013257   
880.500000	-0.049189  
881.000000	0.023522   
881.500000	0.134689   
882.000000	0.064469   
882.500000	-0.079075  
883.000000	-0.154954  
883.500000	-0.053727  
884.000000	0.025871   
884.500000	0.084886   
885.000000	0.107121   
885.500000	0.125265   
886.000000	0.044636   
886.500000	-0.036704  
887.000000	-0.122886  
887.500000	-0.102310  
888.000000	-0.091295  
888.500000	-0.059992  
889.000000	-0.074856  
889.500000	-0.071818  
890.000000	-0.069712  
890.500000	-0.102318  
891.000000	-0.129734  
891.500000	-0.138719  
892.000000	-0.076689  
892.500000	-0.038780  
893.000000	-0.028742  
893.500000	-0.021575  
894.000000	0.071287   
894.500000	0.122643   
895.000000	0.011439   
895.500000	-0.191803  
896.000000	-0.309136  
896.500000	-0.203424  
897.000000	-0.047787  
897.500000	0.035969   
898.000000	-0.017515  
898.500000	-0.059068  
899.000000	-0.078924  
899.500000	-0.028681  
900.000000	-0.010530  
900.500000	-0.000000  

