PE FL                   SPECTRUM    ASCII       PEDS        1.60        
  -1
S12R#13.SP
24/04/15
15:56:47.00
24/04/15
15:58:13.00
Jan

900.500000
1









LS55
405.00
5.00
5.00
SCAN
1
20
100
100
0
400
0
1
0
1
5
ON
900 405 
1 0 0
#HDR
-1
-1
#GR
NM

0.00002384185791015625
0.0
450.000000
0.500000
902
8
185.016287
-0.944999
#DATA
450.000000	-0.944999  
450.500000	-0.400287  
451.000000	-0.076954  
451.500000	-0.044613  
452.000000	-0.093325  
452.500000	-0.220583  
453.000000	-0.347348  
453.500000	-0.332681  
454.000000	-0.152818  
454.500000	-0.009969  
455.000000	-0.016151  
455.500000	-0.086083  
456.000000	-0.099772  
456.500000	-0.037492  
457.000000	-0.082992  
457.500000	-0.180886  
458.000000	-0.345704  
458.500000	-0.359977  
459.000000	-0.248106  
459.500000	0.015901   
460.000000	0.220598   
460.500000	0.307803   
461.000000	0.213666   
461.500000	0.144136   
462.000000	0.156606   
462.500000	0.265075   
463.000000	0.243090   
463.500000	0.066257   
464.000000	-0.081196  
464.500000	-0.076196  
465.000000	0.020174   
465.500000	0.021431   
466.000000	-0.078689  
466.500000	-0.251856  
467.000000	-0.324492  
467.500000	-0.274780  
468.000000	-0.046984  
468.500000	-0.005651  
469.000000	-0.067606  
469.500000	-0.185121  
470.000000	-0.039136  
470.500000	0.074856   
471.000000	0.087954   
471.500000	-0.066212  
472.000000	-0.089606  
472.500000	-0.063121  
473.000000	-0.028393  
473.500000	-0.091378  
474.000000	-0.142939  
474.500000	-0.041825  
475.000000	0.131666   
475.500000	0.110734   
476.000000	-0.017257  
476.500000	-0.136424  
477.000000	-0.100946  
477.500000	-0.181484  
478.000000	-0.299015  
478.500000	-0.340886  
479.000000	-0.158719  
479.500000	-0.013015  
480.000000	0.007303   
480.500000	-0.039053  
481.000000	-0.124333  
481.500000	-0.087621  
482.000000	-0.042121  
482.500000	0.131416   
483.000000	0.213196   
483.500000	0.248939   
484.000000	0.167007   
484.500000	0.137280   
485.000000	0.017901   
485.500000	-0.093037  
486.000000	-0.122901  
486.500000	0.007749   
487.000000	0.081022   
487.500000	-0.011318  
488.000000	-0.200924  
488.500000	-0.200174  
489.000000	-0.109553  
489.500000	0.030560   
490.000000	-0.046386  
490.500000	-0.169946  
491.000000	-0.298234  
491.500000	-0.205045  
492.000000	-0.045272  
492.500000	0.236606   
493.000000	0.303121   
493.500000	0.280628   
494.000000	0.143901   
494.500000	0.135250   
495.000000	0.220348   
495.500000	0.402143   
496.000000	0.527992   
496.500000	0.625272   
497.000000	0.653734   
497.500000	0.620742   
498.000000	0.622030   
498.500000	0.632265   
499.000000	0.713219   
499.500000	0.841772   
500.000000	0.890992   
500.500000	0.857439   
501.000000	0.770030   
501.500000	0.718310   
502.000000	0.749386   
502.500000	0.770727   
503.000000	0.772234   
503.500000	0.795083   
504.000000	0.991204   
504.500000	1.276386   
505.000000	1.482204   
505.500000	1.368333   
506.000000	1.217946   
506.500000	1.148651   
507.000000	1.269265   
507.500000	1.466280   
508.000000	1.735143   
508.500000	1.939492   
509.000000	1.999666   
509.500000	1.941166   
510.000000	2.004772   
510.500000	2.306810   
511.000000	2.624886   
511.500000	2.818742   
512.000000	2.728704   
512.500000	2.719909   
513.000000	2.883909   
513.500000	3.158553   
514.000000	3.226681   
514.500000	3.169666   
515.000000	3.046856   
515.500000	2.949242   
516.000000	2.928318   
516.500000	3.089962   
517.000000	3.307356   
517.500000	3.299363   
518.000000	3.092098   
518.500000	3.060469   
519.000000	3.191000   
519.500000	3.309795   
520.000000	3.183939   
520.500000	3.114416   
521.000000	3.130712   
521.500000	3.304143   
522.000000	3.316098   
522.500000	3.400553   
523.000000	3.467507   
523.500000	3.561189   
524.000000	3.447037   
524.500000	3.566939   
525.000000	3.846333   
525.500000	4.063075   
526.000000	3.869833   
526.500000	3.871962   
527.000000	4.245840   
527.500000	4.724863   
528.000000	4.782598   
528.500000	4.772750   
529.000000	4.933340   
529.500000	5.188840   
530.000000	5.291977   
530.500000	5.238416   
531.000000	5.220659   
531.500000	5.384553   
532.000000	5.944409   
532.500000	6.716984   
533.000000	7.314795   
533.500000	7.411363   
534.000000	6.993424   
534.500000	7.029348   
535.000000	7.511901   
535.500000	8.365303   
536.000000	8.769113   
536.500000	9.209643   
537.000000	9.637856   
537.500000	10.065416  
538.000000	10.068333  
538.500000	10.191553  
539.000000	10.797083  
539.500000	12.077878  
540.000000	13.288840  
540.500000	14.018151  
541.000000	14.158598  
541.500000	14.231575  
542.000000	14.203689  
542.500000	13.927636  
543.000000	13.429181  
543.500000	12.883840  
544.000000	12.537075  
544.500000	11.990174  
545.000000	11.408628  
545.500000	10.590848  
546.000000	10.201674  
546.500000	10.179780  
547.000000	10.159151  
547.500000	9.549424   
548.000000	8.671060   
548.500000	7.962659   
549.000000	7.482795   
549.500000	6.933053   
550.000000	6.377666   
550.500000	6.024174   
551.000000	5.606378   
551.500000	4.959681   
552.000000	4.329492   
552.500000	3.868196   
553.000000	3.652522   
553.500000	3.496310   
554.000000	3.530212   
554.500000	3.531780   
555.000000	3.463651   
555.500000	3.280537   
556.000000	3.369166   
556.500000	3.527492   
557.000000	3.570530   
557.500000	3.490090   
558.000000	3.451787   
558.500000	3.471757   
559.000000	3.467954   
559.500000	3.472234   
560.000000	3.425719   
560.500000	3.323166   
561.000000	3.200712   
561.500000	3.189469   
562.000000	3.189643   
562.500000	3.014265   
563.000000	2.806068   
563.500000	2.795340   
564.000000	3.022825   
564.500000	3.146651   
565.000000	3.150984   
565.500000	3.175128   
566.000000	3.257780   
566.500000	3.336333   
567.000000	3.276424   
567.500000	3.319280   
568.000000	3.393613   
568.500000	3.424606   
569.000000	3.262833   
569.500000	3.109409   
570.000000	3.103310   
570.500000	3.228219   
571.000000	3.276416   
571.500000	3.169659   
572.000000	3.128515   
572.500000	3.202265   
573.000000	3.206318   
573.500000	3.081325   
574.000000	3.029371   
574.500000	3.181992   
575.000000	3.380068   
575.500000	3.363999   
576.000000	3.235454   
576.500000	3.161196   
577.000000	3.197606   
577.500000	3.252568   
578.000000	3.297234   
578.500000	3.282037   
579.000000	3.160636   
579.500000	3.000568   
580.000000	2.870530   
580.500000	2.886234   
581.000000	3.025772   
581.500000	3.223810   
582.000000	3.361530   
582.500000	3.432477   
583.000000	3.474272   
583.500000	3.639454   
584.000000	3.711992   
584.500000	3.729174   
585.000000	3.640803   
585.500000	3.511803   
586.000000	3.387878   
586.500000	3.488015   
587.000000	3.768265   
587.500000	4.033151   
588.000000	3.998810   
588.500000	3.666522   
589.000000	3.373454   
589.500000	3.335848   
590.000000	3.557378   
590.500000	3.708886   
591.000000	3.705651   
591.500000	3.630424   
592.000000	3.769409   
592.500000	3.902810   
593.000000	4.009962   
593.500000	3.981878   
594.000000	3.898159   
594.500000	3.865303   
595.000000	4.034590   
595.500000	4.378431   
596.000000	4.598962   
596.500000	4.604856   
597.000000	4.489000   
597.500000	4.518106   
598.000000	4.656204   
598.500000	4.891628   
599.000000	4.997219   
599.500000	5.030083   
600.000000	4.982893   
600.500000	5.084166   
601.000000	5.361946   
601.500000	5.863848   
602.000000	6.225568   
602.500000	6.287916   
603.000000	6.038984   
603.500000	5.962492   
604.000000	6.229878   
604.500000	6.556219   
605.000000	6.536333   
605.500000	6.480234   
606.000000	6.565439   
606.500000	6.936007   
607.000000	7.253924   
607.500000	7.302234   
608.000000	7.223659   
608.500000	7.065265   
609.000000	7.194181   
609.500000	7.589651   
610.000000	8.328666   
610.500000	9.000590   
611.000000	9.436719   
611.500000	9.539636   
612.000000	9.485280   
612.500000	9.754431   
613.000000	10.160840  
613.500000	10.586984  
614.000000	10.748477  
614.500000	10.925075  
615.000000	10.937568  
615.500000	10.908863  
616.000000	10.938439  
616.500000	11.382863  
617.000000	12.100780  
617.500000	12.900075  
618.000000	13.565037  
618.500000	14.055030  
619.000000	14.210643  
619.500000	14.819946  
620.000000	15.886598  
620.500000	17.028984  
621.000000	17.527000  
621.500000	17.809166  
622.000000	18.020333  
622.500000	18.460560  
623.000000	18.672378  
623.500000	19.054250  
624.000000	19.699613  
624.500000	20.672643  
625.000000	21.513424  
625.500000	22.239522  
626.000000	22.779068  
626.500000	23.228643  
627.000000	23.835674  
627.500000	24.825386  
628.000000	26.363401  
628.500000	27.678818  
629.000000	28.613083  
629.500000	29.378015  
630.000000	30.660075  
630.500000	31.439696  
631.000000	32.048659  
631.500000	32.787484  
632.000000	34.356287  
632.500000	36.422022  
633.000000	38.012106  
633.500000	39.303053  
634.000000	40.499674  
634.500000	42.290499  
635.000000	43.430378  
635.500000	44.637787  
636.000000	45.682757  
636.500000	47.656598  
637.000000	49.229196  
637.500000	50.894659  
638.000000	52.665901  
638.500000	54.417901  
639.000000	56.000674  
639.500000	57.640848  
640.000000	59.677901  
640.500000	61.375424  
641.000000	62.944628  
641.500000	64.552356  
642.000000	66.971310  
642.500000	69.021303  
643.000000	71.022295  
643.500000	73.211704  
644.000000	75.803537  
644.500000	78.068659  
645.000000	79.711590  
645.500000	81.093560  
646.000000	82.924303  
646.500000	85.196386  
647.000000	86.371348  
647.500000	87.450007  
648.000000	88.969462  
648.500000	92.345143  
649.000000	95.607886  
649.500000	98.418143  
650.000000	100.674750 
650.500000	102.948318 
651.000000	104.617878 
651.500000	105.848325 
652.000000	108.512924 
652.500000	111.808856 
653.000000	115.303083 
653.500000	117.022492 
654.000000	118.072477 
654.500000	119.515250 
655.000000	122.837212 
655.500000	126.549560 
656.000000	128.228303 
656.500000	129.688174 
657.000000	132.958772 
657.500000	137.159863 
658.000000	138.800371 
658.500000	139.550318 
659.000000	142.042909 
659.500000	145.910871 
660.000000	147.957598 
660.500000	148.741659 
661.000000	150.085757 
661.500000	151.912886 
662.000000	153.597348 
662.500000	154.976280 
663.000000	156.391621 
663.500000	157.834196 
664.000000	159.592545 
664.500000	161.569416 
665.000000	163.601507 
665.500000	164.805121 
666.000000	165.522431 
666.500000	167.546151 
667.000000	170.298166 
667.500000	173.039454 
668.000000	173.729416 
668.500000	174.151833 
669.000000	174.928606 
669.500000	175.910992 
670.000000	175.538371 
670.500000	176.376106 
671.000000	178.302962 
671.500000	179.979204 
672.000000	179.437340 
672.500000	179.079090 
673.000000	180.125045 
673.500000	182.206757 
674.000000	183.147810 
674.500000	183.390386 
675.000000	182.510060 
675.500000	181.734446 
676.000000	182.717568 
676.500000	184.488613 
677.000000	185.016287 
677.500000	183.530886 
678.000000	181.451022 
678.500000	180.056840 
679.000000	179.535681 
679.500000	180.437477 
680.000000	181.419674 
680.500000	181.610250 
681.000000	179.927393 
681.500000	178.430068 
682.000000	176.185977 
682.500000	173.598939 
683.000000	170.780931 
683.500000	169.666871 
684.000000	169.478083 
684.500000	169.122507 
685.000000	166.436621 
685.500000	162.314962 
686.000000	159.591590 
686.500000	157.763484 
687.000000	156.239803 
687.500000	154.031954 
688.000000	152.235462 
688.500000	148.528015 
689.000000	144.636901 
689.500000	140.869515 
690.000000	140.273250 
690.500000	139.358954 
691.000000	137.061106 
691.500000	132.959643 
692.000000	130.211272 
692.500000	127.544090 
693.000000	125.081750 
693.500000	121.614250 
694.000000	118.883787 
694.500000	116.665227 
695.000000	114.643878 
695.500000	111.484537 
696.000000	108.206136 
696.500000	104.941969 
697.000000	102.431106 
697.500000	100.086053 
698.000000	97.726575  
698.500000	94.273363  
699.000000	90.860863  
699.500000	87.842878  
700.000000	85.774734  
700.500000	83.911674  
701.000000	81.965666  
701.500000	79.338666  
702.000000	76.367878  
702.500000	74.026537  
703.000000	72.246590  
703.500000	70.417606  
704.000000	68.293181  
704.500000	66.461666  
705.000000	65.317863  
705.500000	63.789712  
706.000000	61.416719  
706.500000	58.668045  
707.000000	56.233136  
707.500000	53.857848  
708.000000	52.493378  
708.500000	51.646621  
709.000000	51.260098  
709.500000	49.698590  
710.000000	48.017159  
710.500000	46.652719  
711.000000	46.077515  
711.500000	44.670295  
712.000000	42.813045  
712.500000	40.980765  
713.000000	39.599068  
713.500000	38.415530  
714.000000	37.227196  
714.500000	36.495439  
715.000000	36.085992  
715.500000	35.764416  
716.000000	34.893174  
716.500000	33.474856  
717.000000	31.875628  
717.500000	30.826257  
718.000000	30.292659  
718.500000	29.723939  
719.000000	28.844659  
719.500000	27.826045  
720.000000	27.192371  
720.500000	26.604765  
721.000000	25.858136  
721.500000	25.107462  
722.000000	24.390719  
722.500000	23.440757  
723.000000	22.087310  
723.500000	21.075371  
724.000000	20.642212  
724.500000	20.471992  
725.000000	19.994136  
725.500000	19.379848  
726.000000	19.093446  
726.500000	18.751765  
727.000000	18.182492  
727.500000	17.254537  
728.000000	16.628772  
728.500000	16.541530  
729.000000	16.682037  
729.500000	16.660242  
730.000000	16.311075  
730.500000	16.167484  
731.000000	15.702507  
731.500000	15.079015  
732.000000	14.118454  
732.500000	13.670030  
733.000000	13.407113  
733.500000	13.152159  
734.000000	12.396507  
734.500000	11.919484  
735.000000	11.717037  
735.500000	11.665916  
736.000000	11.318916  
736.500000	10.999712  
737.000000	10.941924  
737.500000	11.122651  
738.000000	11.049772  
738.500000	10.319053  
739.000000	9.613030   
739.500000	9.283310   
740.000000	9.755931   
740.500000	9.934999   
741.000000	9.677568   
741.500000	8.815098   
742.000000	8.391090   
742.500000	8.358181   
743.000000	8.607659   
743.500000	8.518712   
744.000000	8.267772   
744.500000	7.997106   
745.000000	7.837984   
745.500000	7.649143   
746.000000	7.573946   
746.500000	7.553053   
747.000000	7.276696   
747.500000	6.702204   
748.000000	6.251795   
748.500000	6.312401   
749.000000	6.560522   
749.500000	6.676310   
750.000000	6.567151   
750.500000	6.468522   
751.000000	6.081257   
751.500000	5.834727   
752.000000	5.870000   
752.500000	6.093848   
753.000000	5.870477   
753.500000	5.680734   
754.000000	5.795795   
754.500000	5.929984   
755.000000	5.595674   
755.500000	5.243295   
756.000000	5.406651   
756.500000	5.660068   
757.000000	5.579689   
757.500000	5.227325   
758.000000	4.957477   
758.500000	4.905598   
759.000000	4.987386   
759.500000	5.116454   
760.000000	5.089651   
760.500000	4.892280   
761.000000	4.654628   
761.500000	4.539765   
762.000000	4.729060   
762.500000	4.882378   
763.000000	4.840742   
763.500000	4.451060   
764.000000	4.199992   
764.500000	4.074196   
765.000000	4.165515   
765.500000	4.070924   
766.000000	4.003424   
766.500000	3.758780   
767.000000	3.719893   
767.500000	3.776000   
768.000000	4.184681   
768.500000	4.208151   
769.000000	3.955446   
769.500000	3.510484   
770.000000	3.661878   
770.500000	3.821196   
771.000000	3.698287   
771.500000	3.277174   
772.000000	3.265113   
772.500000	3.432583   
773.000000	3.510310   
773.500000	3.290621   
774.000000	3.092651   
774.500000	3.091053   
775.000000	3.193977   
775.500000	3.277613   
776.000000	3.228136   
776.500000	3.150454   
777.000000	3.110196   
777.500000	3.206999   
778.000000	3.260272   
778.500000	3.245575   
779.000000	3.172939   
779.500000	3.183825   
780.000000	3.190174   
780.500000	3.184871   
781.000000	3.181189   
781.500000	3.225553   
782.000000	3.246022   
782.500000	3.084992   
783.000000	2.896772   
783.500000	2.787666   
784.000000	2.782265   
784.500000	2.911765   
785.000000	3.036810   
785.500000	3.031750   
786.000000	2.816166   
786.500000	2.785113   
787.000000	2.824015   
787.500000	2.880992   
788.000000	2.684393   
788.500000	2.634734   
789.000000	2.707075   
789.500000	2.799765   
790.000000	2.697030   
790.500000	2.677825   
791.000000	2.704795   
791.500000	2.764159   
792.000000	2.722242   
792.500000	2.676545   
793.000000	2.660083   
793.500000	2.740007   
794.000000	2.697712   
794.500000	2.551204   
795.000000	2.297666   
795.500000	2.199378   
796.000000	2.250765   
796.500000	2.283401   
797.000000	2.205893   
797.500000	2.158628   
798.000000	2.227598   
798.500000	2.350863   
799.000000	2.485030   
799.500000	2.445424   
800.000000	2.406734   
800.500000	2.364795   
801.000000	2.369196   
801.500000	2.176613   
802.000000	1.922704   
802.500000	1.984219   
803.000000	2.325977   
803.500000	2.540295   
804.000000	2.454583   
804.500000	2.261833   
805.000000	2.104083   
805.500000	1.965416   
806.000000	1.730568   
806.500000	1.563553   
807.000000	1.638984   
807.500000	1.833462   
808.000000	2.055856   
808.500000	2.029030   
809.000000	1.824765   
809.500000	1.588075   
810.000000	1.442424   
810.500000	1.334954   
811.000000	1.251628   
811.500000	1.266022   
812.000000	1.355075   
812.500000	1.612295   
813.000000	1.692696   
813.500000	1.634522   
814.000000	1.433696   
814.500000	1.357954   
815.000000	1.475378   
815.500000	1.664250   
816.000000	1.614643   
816.500000	1.479446   
817.000000	1.428628   
817.500000	1.571333   
818.000000	1.569340   
818.500000	1.459810   
819.000000	1.353393   
819.500000	1.542750   
820.000000	1.700772   
820.500000	1.799545   
821.000000	1.866825   
821.500000	2.100075   
822.000000	2.431833   
822.500000	2.698280   
823.000000	2.773727   
823.500000	2.738628   
824.000000	2.644575   
824.500000	2.580765   
825.000000	2.535159   
825.500000	2.458242   
826.000000	2.283712   
826.500000	2.181234   
827.000000	2.189348   
827.500000	2.213416   
828.000000	2.049590   
828.500000	1.754371   
829.000000	1.548689   
829.500000	1.474560   
830.000000	1.339098   
830.500000	1.159696   
831.000000	1.035901   
831.500000	1.043386   
832.000000	1.114666   
832.500000	1.088863   
833.000000	0.986378   
833.500000	0.898325   
834.000000	0.936340   
834.500000	1.072431   
835.000000	1.202446   
835.500000	1.181174   
836.000000	1.113348   
836.500000	0.979477   
837.000000	0.915954   
837.500000	0.923477   
838.000000	0.988280   
838.500000	1.046856   
839.000000	0.991431   
839.500000	0.885249   
840.000000	0.868340   
840.500000	0.872022   
841.000000	0.811931   
841.500000	0.669234   
842.000000	0.616856   
842.500000	0.610962   
843.000000	0.663484   
843.500000	0.605022   
844.000000	0.511871   
844.500000	0.376333   
845.000000	0.341143   
845.500000	0.361909   
846.000000	0.286401   
846.500000	0.176401   
847.000000	0.148886   
847.500000	0.190424   
848.000000	0.288325   
848.500000	0.347045   
849.000000	0.373818   
849.500000	0.262613   
850.000000	0.198530   
850.500000	0.156234   
851.000000	0.112522   
851.500000	-0.000969  
852.000000	0.032810   
852.500000	0.131121   
853.000000	0.151780   
853.500000	0.072174   
854.000000	0.026719   
854.500000	0.055583   
855.000000	0.089833   
855.500000	0.129598   
856.000000	0.191901   
856.500000	0.252651   
857.000000	0.209439   
857.500000	0.097128   
858.000000	-0.035439  
858.500000	-0.151924  
859.000000	-0.232893  
859.500000	-0.240378  
860.000000	-0.172015  
860.500000	0.006386   
861.000000	0.168386   
861.500000	0.252962   
862.000000	0.197795   
862.500000	0.114522   
863.000000	0.048863   
863.500000	0.051265   
864.000000	0.041553   
864.500000	0.049378   
865.000000	0.020371   
865.500000	-0.043325  
866.000000	-0.058674  
866.500000	-0.036340  
867.000000	-0.053363  
867.500000	-0.085916  
868.000000	-0.157280  
868.500000	-0.190386  
869.000000	-0.185371  
869.500000	-0.110810  
870.000000	-0.047068  
870.500000	-0.018151  
871.000000	-0.068121  
871.500000	-0.024174  
872.000000	0.004234   
872.500000	0.015318   
873.000000	-0.012674  
873.500000	0.028401   
874.000000	0.103712   
874.500000	0.076553   
875.000000	-0.156136  
875.500000	-0.380333  
876.000000	-0.286553  
876.500000	-0.020356  
877.000000	0.193204   
877.500000	0.136446   
878.000000	0.013106   
878.500000	-0.128265  
879.000000	-0.204484  
879.500000	-0.271530  
880.000000	-0.238583  
880.500000	-0.175484  
881.000000	-0.093643  
881.500000	-0.007022  
882.000000	0.057712   
882.500000	0.117242   
883.000000	0.125310   
883.500000	0.114613   
884.000000	0.048583   
884.500000	0.018356   
885.000000	0.000530   
885.500000	-0.001083  
886.000000	-0.015409  
886.500000	-0.022303  
887.000000	-0.005507  
887.500000	-0.003030  
888.000000	-0.017909  
888.500000	0.000053   
889.000000	0.056393   
889.500000	-0.010772  
890.000000	-0.229401  
890.500000	-0.398727  
891.000000	-0.324977  
891.500000	-0.060727  
892.000000	0.072098   
892.500000	0.039151   
893.000000	0.006530   
893.500000	0.074833   
894.000000	0.095696   
894.500000	0.030333   
895.000000	-0.045583  
895.500000	-0.027795  
896.000000	0.032568   
896.500000	0.005136   
897.000000	-0.099068  
897.500000	-0.183492  
898.000000	-0.184848  
898.500000	-0.058295  
899.000000	0.075719   
899.500000	0.141151   
900.000000	0.035007   
900.500000	-0.202000  

