PE FL                   SPECTRUM    ASCII       PEDS        1.60        
  -1
S12R#53.SP
24/04/15
16:53:50.00
24/04/15
16:55:15.00
Jan

900.500000
1









LS55
405.00
5.00
5.00
SCAN
1
20
100
100
0
400
0
1
0
1
5
ON
900 405 
1 0 0
#HDR
-1
-1
#GR
NM

0.00002384185791015625
0.0
450.000000
0.500000
902
8
145.813651
-0.550416
#DATA
450.000000	0.428999   
450.500000	0.093325   
451.000000	-0.020598  
451.500000	-0.042537  
452.000000	-0.112833  
452.500000	-0.112803  
453.000000	0.009765   
453.500000	0.020492   
454.000000	-0.097446  
454.500000	-0.195893  
455.000000	-0.060568  
455.500000	0.059219   
456.000000	0.147856   
456.500000	0.038749   
457.000000	-0.056719  
457.500000	-0.162303  
458.000000	-0.236583  
458.500000	-0.314916  
459.000000	-0.327681  
459.500000	-0.157204  
460.000000	0.065962   
460.500000	0.215734   
461.000000	0.118356   
461.500000	0.076295   
462.000000	0.057431   
462.500000	0.097901   
463.000000	0.033068   
463.500000	-0.001810  
464.000000	0.035704   
464.500000	0.043606   
465.000000	-0.094446  
465.500000	-0.286121  
466.000000	-0.273303  
466.500000	-0.083106  
467.000000	0.092818   
467.500000	0.055333   
468.000000	-0.044696  
468.500000	-0.034659  
469.000000	0.068863   
469.500000	0.095977   
470.000000	-0.080606  
470.500000	-0.380401  
471.000000	-0.550416  
471.500000	-0.449227  
472.000000	-0.237401  
472.500000	-0.113545  
473.000000	-0.105265  
473.500000	-0.077022  
474.000000	-0.087992  
474.500000	-0.110689  
475.000000	-0.147939  
475.500000	-0.047045  
476.000000	0.053310   
476.500000	0.144136   
477.000000	0.033833   
477.500000	-0.076992  
478.000000	-0.084825  
478.500000	0.134098   
479.000000	0.227159   
479.500000	0.117333   
480.000000	-0.117159  
480.500000	-0.138712  
481.000000	-0.043931  
481.500000	0.081606   
482.000000	0.060848   
482.500000	0.078818   
483.000000	0.042909   
483.500000	-0.025583  
484.000000	-0.119606  
484.500000	-0.085037  
485.000000	-0.023416  
485.500000	-0.017446  
486.000000	-0.072015  
486.500000	-0.037681  
487.000000	-0.029242  
487.500000	-0.143037  
488.000000	-0.251280  
488.500000	-0.048439  
489.000000	0.240257   
489.500000	0.333098   
490.000000	0.148909   
490.500000	0.002954   
491.000000	0.036060   
491.500000	0.040234   
492.000000	-0.003098  
492.500000	-0.136712  
493.000000	-0.137772  
493.500000	-0.087537  
494.000000	0.100053   
494.500000	0.048340   
495.000000	-0.100992  
495.500000	-0.176189  
496.000000	0.082606   
496.500000	0.392068   
497.000000	0.471106   
497.500000	0.384712   
498.000000	0.336893   
498.500000	0.395537   
499.000000	0.517393   
499.500000	0.718234   
500.000000	0.823310   
500.500000	0.831742   
501.000000	0.766393   
501.500000	0.737348   
502.000000	0.790893   
502.500000	0.790121   
503.000000	0.759606   
503.500000	0.741143   
504.000000	0.805333   
504.500000	1.015962   
505.000000	1.206712   
505.500000	1.297189   
506.000000	1.228522   
506.500000	1.327166   
507.000000	1.528727   
507.500000	1.747174   
508.000000	1.820750   
508.500000	1.885325   
509.000000	2.089803   
509.500000	2.240416   
510.000000	2.410613   
510.500000	2.431856   
511.000000	2.626704   
511.500000	2.735507   
512.000000	2.909984   
512.500000	2.990984   
513.000000	3.052878   
513.500000	3.012848   
514.000000	2.982780   
514.500000	2.933083   
515.000000	2.991462   
515.500000	3.094924   
516.000000	3.112598   
516.500000	3.086643   
517.000000	3.061121   
517.500000	3.157848   
518.000000	3.353378   
518.500000	3.360818   
519.000000	3.186348   
519.500000	3.011007   
520.000000	3.046765   
520.500000	3.312098   
521.000000	3.529325   
521.500000	3.426310   
522.000000	3.244212   
522.500000	3.108651   
523.000000	3.078500   
523.500000	3.090143   
524.000000	3.233742   
524.500000	3.463196   
525.000000	3.889863   
525.500000	4.182742   
526.000000	4.283416   
526.500000	4.079015   
527.000000	4.217598   
527.500000	4.519242   
528.000000	4.828166   
528.500000	4.924204   
529.000000	5.112143   
529.500000	5.349651   
530.000000	5.399257   
530.500000	5.456113   
531.000000	5.767719   
531.500000	6.112022   
532.000000	6.182083   
532.500000	6.217106   
533.000000	6.434840   
533.500000	6.728189   
534.000000	7.084431   
534.500000	7.400113   
535.000000	7.897363   
535.500000	8.317568   
536.000000	8.669984   
536.500000	9.077856   
537.000000	9.459181   
537.500000	9.789856   
538.000000	10.085590  
538.500000	10.596553  
539.000000	11.144787  
539.500000	11.619803  
540.000000	12.091598  
540.500000	12.512378  
541.000000	12.679719  
541.500000	12.807962  
542.000000	13.348719  
542.500000	13.866530  
543.000000	13.867712  
543.500000	13.334628  
544.000000	13.006492  
544.500000	12.495136  
545.000000	11.707977  
545.500000	10.512287  
546.000000	10.039803  
546.500000	9.816848   
547.000000	9.888628   
547.500000	9.425401   
548.000000	8.862999   
548.500000	8.089621   
549.000000	7.482734   
549.500000	6.815280   
550.000000	6.119227   
550.500000	5.531310   
551.000000	5.041007   
551.500000	4.590060   
552.000000	4.232037   
552.500000	3.896590   
553.000000	3.753833   
553.500000	3.588318   
554.000000	3.533212   
554.500000	3.315545   
555.000000	3.132090   
555.500000	2.943242   
556.000000	3.046522   
556.500000	3.106446   
557.000000	3.087045   
557.500000	3.045280   
558.000000	3.029962   
558.500000	2.963401   
559.000000	2.957045   
559.500000	3.048204   
560.000000	3.214787   
560.500000	3.193568   
561.000000	3.157734   
561.500000	3.270651   
562.000000	3.594136   
562.500000	3.627363   
563.000000	3.363924   
563.500000	3.030719   
564.000000	3.112204   
564.500000	3.416537   
565.000000	3.597363   
565.500000	3.433810   
566.000000	3.167780   
566.500000	3.085886   
567.000000	3.207651   
567.500000	3.303151   
568.000000	3.202530   
568.500000	2.972477   
569.000000	2.784212   
569.500000	2.614166   
570.000000	2.626553   
570.500000	2.801378   
571.000000	3.150242   
571.500000	3.382772   
572.000000	3.456318   
572.500000	3.506772   
573.000000	3.619227   
573.500000	3.764545   
574.000000	3.688931   
574.500000	3.535257   
575.000000	3.313083   
575.500000	3.280803   
576.000000	3.264666   
576.500000	3.220469   
577.000000	3.208628   
577.500000	3.413704   
578.000000	3.591643   
578.500000	3.747310   
579.000000	3.831416   
579.500000	3.960787   
580.000000	3.810924   
580.500000	3.451325   
581.000000	3.156166   
581.500000	3.174613   
582.000000	3.334477   
582.500000	3.547348   
583.000000	3.769204   
583.500000	3.745727   
584.000000	3.588856   
584.500000	3.489772   
585.000000	3.540469   
585.500000	3.486219   
586.000000	3.166196   
586.500000	3.226772   
587.000000	3.629325   
587.500000	4.115378   
588.000000	4.165242   
588.500000	3.988333   
589.000000	3.813780   
589.500000	3.928454   
590.000000	3.963174   
590.500000	3.960886   
591.000000	3.869984   
591.500000	3.910939   
592.000000	4.201719   
592.500000	4.533999   
593.000000	4.764378   
593.500000	4.882287   
594.000000	5.027053   
594.500000	4.937924   
595.000000	4.810136   
595.500000	4.616159   
596.000000	4.897325   
596.500000	5.289568   
597.000000	5.533287   
597.500000	5.410318   
598.000000	5.256787   
598.500000	5.306659   
599.000000	5.588613   
599.500000	5.839462   
600.000000	5.918856   
600.500000	6.109545   
601.000000	6.326272   
601.500000	6.517143   
602.000000	6.509090   
602.500000	6.674143   
603.000000	7.023636   
603.500000	7.452530   
604.000000	7.658537   
604.500000	7.662325   
605.000000	7.947151   
605.500000	8.542916   
606.000000	9.277909   
606.500000	9.635848   
607.000000	9.672757   
607.500000	9.465522   
608.000000	9.274772   
608.500000	9.095522   
609.000000	9.319772   
609.500000	10.103537  
610.000000	10.918204  
610.500000	11.346424  
611.000000	11.423045  
611.500000	11.517378  
612.000000	11.654181  
612.500000	12.147446  
613.000000	12.702333  
613.500000	13.329409  
614.000000	13.365257  
614.500000	13.490734  
615.000000	14.037272  
615.500000	15.086325  
616.000000	15.817704  
616.500000	16.346212  
617.000000	16.497469  
617.500000	16.603886  
618.000000	16.775106  
618.500000	17.446303  
619.000000	18.362560  
619.500000	19.380643  
620.000000	19.883462  
620.500000	20.383181  
621.000000	21.020136  
621.500000	22.179863  
622.000000	23.268765  
622.500000	24.186613  
623.000000	24.892500  
623.500000	25.763598  
624.000000	26.647681  
624.500000	27.354227  
625.000000	27.915151  
625.500000	28.344234  
626.000000	28.889295  
626.500000	29.950704  
627.000000	31.648151  
627.500000	33.384234  
628.000000	34.908833  
628.500000	36.065750  
629.000000	37.223553  
629.500000	38.106522  
630.000000	38.971469  
630.500000	40.244507  
631.000000	42.398431  
631.500000	44.313636  
632.000000	45.673393  
632.500000	46.294272  
633.000000	47.141068  
633.500000	48.390265  
634.000000	49.628446  
634.500000	51.269280  
635.000000	53.032674  
635.500000	54.931204  
636.000000	56.284469  
636.500000	58.152613  
637.000000	60.518007  
637.500000	63.286113  
638.000000	64.697333  
638.500000	65.311196  
639.000000	65.618166  
639.500000	66.988446  
640.000000	69.525393  
640.500000	72.881477  
641.000000	74.702015  
641.500000	75.485598  
642.000000	75.724659  
642.500000	78.181128  
643.000000	81.376401  
643.500000	84.726712  
644.000000	86.130371  
644.500000	88.011666  
645.000000	90.146484  
645.500000	92.864348  
646.000000	93.510393  
646.500000	93.311750  
647.000000	93.391666  
647.500000	95.326098  
648.000000	97.576189  
648.500000	99.487234  
649.000000	100.608356 
649.500000	102.577333 
650.000000	105.769477 
650.500000	109.523575 
651.000000	111.913363 
651.500000	113.799045 
652.000000	115.296318 
652.500000	116.428803 
653.000000	116.103924 
653.500000	115.887666 
654.000000	117.053106 
654.500000	119.569939 
655.000000	122.202469 
655.500000	124.601113 
656.000000	126.417234 
656.500000	127.349636 
657.000000	128.154143 
657.500000	129.169689 
658.000000	130.703113 
658.500000	132.082780 
659.000000	133.382242 
659.500000	134.773719 
660.000000	136.900219 
660.500000	138.255780 
661.000000	138.482924 
661.500000	138.007189 
662.000000	138.947795 
662.500000	140.464810 
663.000000	141.658901 
663.500000	142.050053 
664.000000	143.437507 
664.500000	144.786621 
665.000000	145.279181 
665.500000	144.673409 
666.000000	144.532106 
666.500000	144.554651 
667.000000	145.254492 
667.500000	145.813651 
668.000000	145.623242 
668.500000	144.569363 
669.000000	143.035446 
669.500000	142.608234 
670.000000	143.045242 
670.500000	144.380371 
671.000000	145.134416 
671.500000	145.302969 
672.000000	144.377151 
672.500000	144.295045 
673.000000	144.118848 
673.500000	143.070674 
674.000000	140.567590 
674.500000	137.912446 
675.000000	136.191363 
675.500000	135.998659 
676.000000	135.964083 
676.500000	135.235757 
677.000000	133.748689 
677.500000	132.483310 
678.000000	131.401159 
678.500000	129.985878 
679.000000	127.790196 
679.500000	125.495159 
680.000000	123.536689 
680.500000	121.850719 
681.000000	120.183651 
681.500000	117.658143 
682.000000	115.301560 
682.500000	113.766053 
683.000000	113.323825 
683.500000	111.653015 
684.000000	109.277757 
684.500000	106.803083 
685.000000	104.764227 
685.500000	101.813772 
686.000000	97.770401  
686.500000	95.210719  
687.000000	94.510249  
687.500000	94.506810  
688.000000	92.347454  
688.500000	89.190583  
689.000000	85.287212  
689.500000	82.418507  
690.000000	81.025060  
690.500000	80.549386  
691.000000	79.092393  
691.500000	75.151977  
692.000000	71.596818  
692.500000	69.452537  
693.000000	69.099113  
693.500000	68.428265  
694.000000	67.302106  
694.500000	64.520681  
695.000000	61.323015  
695.500000	58.609340  
696.000000	57.117075  
696.500000	56.262984  
697.000000	54.937446  
697.500000	52.756477  
698.000000	50.195143  
698.500000	48.087212  
699.000000	47.169310  
699.500000	46.659795  
700.000000	45.763037  
700.500000	44.226666  
701.000000	42.583037  
701.500000	41.123401  
702.000000	40.125962  
702.500000	38.990037  
703.000000	37.693780  
703.500000	36.704628  
704.000000	35.922325  
704.500000	35.088946  
705.000000	33.908090  
705.500000	32.976030  
706.000000	32.068969  
706.500000	31.114969  
707.000000	29.729007  
707.500000	28.470560  
708.000000	27.526666  
708.500000	26.900810  
709.000000	25.901916  
709.500000	24.918833  
710.000000	24.079901  
710.500000	23.869166  
711.000000	23.829106  
711.500000	23.884787  
712.000000	23.349840  
712.500000	22.737909  
713.000000	21.967303  
713.500000	21.496196  
714.000000	20.908696  
714.500000	20.398893  
715.000000	19.569825  
715.500000	18.599590  
716.000000	17.625901  
716.500000	17.037750  
717.000000	16.726174  
717.500000	16.264356  
718.000000	15.979787  
718.500000	15.704863  
719.000000	15.640439  
719.500000	15.151363  
720.000000	14.807621  
720.500000	14.377424  
721.000000	14.344477  
721.500000	14.193242  
722.000000	14.003212  
722.500000	13.585818  
723.000000	13.214787  
723.500000	12.826818  
724.000000	12.354439  
724.500000	11.775977  
725.000000	11.388909  
725.500000	11.525583  
726.000000	11.989151  
726.500000	12.013893  
727.000000	11.308136  
727.500000	10.397712  
728.000000	9.817181   
728.500000	9.495106   
729.000000	9.338060   
729.500000	9.297310   
730.000000	9.368143   
730.500000	9.284901   
731.000000	9.019727   
731.500000	8.564242   
732.000000	8.221636   
732.500000	7.846007   
733.000000	7.762803   
733.500000	7.775901   
734.000000	8.033393   
734.500000	7.968469   
735.000000	7.712007   
735.500000	7.290416   
736.000000	6.977515   
736.500000	6.711037   
737.000000	6.688553   
737.500000	6.864204   
738.000000	6.990121   
738.500000	6.666090   
739.000000	6.340886   
739.500000	6.273363   
740.000000	6.560393   
740.500000	6.617431   
741.000000	6.567810   
741.500000	6.456893   
742.000000	6.469651   
742.500000	6.144477   
743.000000	5.610257   
743.500000	5.379401   
744.000000	5.582128   
744.500000	5.870810   
745.000000	5.710446   
745.500000	5.584151   
746.000000	5.572871   
746.500000	5.668568   
747.000000	5.422939   
747.500000	5.162030   
748.000000	4.802636   
748.500000	4.657681   
749.000000	4.632022   
749.500000	4.841909   
750.000000	4.848030   
750.500000	4.641818   
751.000000	4.355272   
751.500000	4.373007   
752.000000	4.348401   
752.500000	4.203689   
753.000000	3.991575   
753.500000	4.038727   
754.000000	4.090037   
754.500000	4.007628   
755.000000	3.776242   
755.500000	3.741568   
756.000000	3.908909   
756.500000	3.976742   
757.000000	3.765636   
757.500000	3.675272   
758.000000	3.958606   
758.500000	4.309704   
759.000000	4.310439   
759.500000	3.908227   
760.000000	3.554924   
760.500000	3.389727   
761.000000	3.505545   
761.500000	3.738568   
762.000000	3.856060   
762.500000	3.701128   
763.000000	3.480037   
763.500000	3.389803   
764.000000	3.456280   
764.500000	3.608946   
765.000000	3.654621   
765.500000	3.562992   
766.000000	3.473431   
766.500000	3.524234   
767.000000	3.600787   
767.500000	3.535310   
768.000000	3.343000   
768.500000	3.280333   
769.000000	3.241689   
769.500000	3.213393   
770.000000	3.151787   
770.500000	3.198689   
771.000000	3.154863   
771.500000	3.142007   
772.000000	3.134674   
772.500000	3.079196   
773.000000	2.896787   
773.500000	2.706386   
774.000000	2.795015   
774.500000	3.072810   
775.000000	3.223272   
775.500000	3.134666   
776.000000	3.024818   
776.500000	3.113484   
777.000000	3.228053   
777.500000	3.253348   
778.000000	3.125696   
778.500000	3.007500   
779.000000	2.968704   
779.500000	2.899053   
780.000000	2.779863   
780.500000	2.701969   
781.000000	2.820568   
781.500000	2.928348   
782.000000	2.950734   
782.500000	2.913500   
783.000000	2.957681   
783.500000	3.070151   
784.000000	3.069689   
784.500000	2.967189   
785.000000	2.832833   
785.500000	2.822386   
786.000000	2.912636   
786.500000	2.910219   
787.000000	2.750946   
787.500000	2.562174   
788.000000	2.541204   
788.500000	2.601962   
789.000000	2.697924   
789.500000	2.722015   
790.000000	2.674045   
790.500000	2.297416   
791.000000	1.905469   
791.500000	1.733257   
792.000000	2.006772   
792.500000	2.416022   
793.000000	2.689704   
793.500000	2.604553   
794.000000	2.423954   
794.500000	2.443075   
795.000000	2.602833   
795.500000	2.660242   
796.000000	2.420386   
796.500000	2.138704   
797.000000	2.066939   
797.500000	2.121560   
798.000000	2.177659   
798.500000	2.274916   
799.000000	2.495916   
799.500000	2.566378   
800.000000	2.490734   
800.500000	2.281083   
801.000000	2.233734   
801.500000	2.188022   
802.000000	2.096477   
802.500000	2.124583   
803.000000	2.190174   
803.500000	2.194113   
804.000000	1.896530   
804.500000	1.731386   
805.000000	1.695446   
805.500000	1.809992   
806.000000	1.771189   
806.500000	1.707416   
807.000000	1.718636   
807.500000	1.675401   
808.000000	1.740878   
808.500000	1.707583   
809.000000	1.870022   
809.500000	1.794780   
810.000000	1.642340   
810.500000	1.428757   
811.000000	1.443628   
811.500000	1.608992   
812.000000	1.762696   
812.500000	1.644787   
813.000000	1.395295   
813.500000	1.228795   
814.000000	1.097431   
814.500000	1.136037   
815.000000	1.322984   
815.500000	1.631575   
816.000000	1.685560   
816.500000	1.504363   
817.000000	1.186712   
817.500000	1.102500   
818.000000	1.147780   
818.500000	1.237840   
819.000000	1.311227   
819.500000	1.419469   
820.000000	1.559386   
820.500000	1.819037   
821.000000	1.979954   
821.500000	2.019893   
822.000000	1.906825   
822.500000	2.054204   
823.000000	2.251136   
823.500000	2.525666   
824.000000	2.438704   
824.500000	2.398227   
825.000000	2.331257   
825.500000	2.225666   
826.000000	2.013318   
826.500000	1.908901   
827.000000	1.927174   
827.500000	2.062840   
828.000000	2.229386   
828.500000	2.197757   
829.000000	1.882583   
829.500000	1.472439   
830.000000	1.280242   
830.500000	1.317393   
831.000000	1.294522   
831.500000	1.160030   
832.000000	1.037090   
832.500000	0.970757   
833.000000	0.963303   
833.500000	0.943439   
834.000000	0.983371   
834.500000	0.975386   
835.000000	0.989310   
835.500000	0.986431   
836.000000	1.039507   
836.500000	0.903477   
837.000000	0.721325   
837.500000	0.605742   
838.000000	0.653810   
838.500000	0.595234   
839.000000	0.499469   
839.500000	0.514545   
840.000000	0.743143   
840.500000	0.786409   
841.000000	0.630734   
841.500000	0.503272   
842.000000	0.500696   
842.500000	0.562840   
843.000000	0.594939   
843.500000	0.606977   
844.000000	0.566613   
844.500000	0.521492   
845.000000	0.512939   
845.500000	0.534136   
846.000000	0.426166   
846.500000	0.244863   
847.000000	0.193257   
847.500000	0.294053   
848.000000	0.363416   
848.500000	0.274613   
849.000000	0.111825   
849.500000	0.053363   
850.000000	0.112962   
850.500000	0.267712   
851.000000	0.375431   
851.500000	0.341356   
852.000000	0.176128   
852.500000	0.133696   
853.000000	0.147030   
853.500000	0.127537   
854.000000	-0.016590  
854.500000	0.080765   
855.000000	0.260545   
855.500000	0.324007   
856.000000	0.050818   
856.500000	-0.112151  
857.000000	-0.118303  
857.500000	0.004386   
858.000000	0.042166   
858.500000	0.095598   
859.000000	0.105954   
859.500000	0.049681   
860.000000	-0.036795  
860.500000	-0.043310  
861.000000	-0.002772  
861.500000	-0.047234  
862.000000	-0.171507  
862.500000	-0.113507  
863.000000	0.058356   
863.500000	0.256750   
864.000000	0.249371   
864.500000	0.105083   
865.000000	-0.117545  
865.500000	-0.271272  
866.000000	-0.337356  
866.500000	-0.248666  
867.000000	-0.117500  
867.500000	-0.053174  
868.000000	-0.066409  
868.500000	-0.119318  
869.000000	-0.181181  
869.500000	-0.126522  
870.000000	-0.087765  
870.500000	0.032234   
871.000000	0.065795   
871.500000	0.055371   
872.000000	0.014492   
872.500000	0.097212   
873.000000	0.175946   
873.500000	0.194492   
874.000000	0.126765   
874.500000	0.126537   
875.000000	0.154704   
875.500000	0.170469   
876.000000	0.000537   
876.500000	-0.150984  
877.000000	-0.204393  
877.500000	-0.012856  
878.000000	0.133500   
878.500000	0.144030   
879.000000	0.018568   
879.500000	-0.050287  
880.000000	-0.031121  
880.500000	0.028666   
881.000000	0.026969   
881.500000	-0.061621  
882.000000	-0.129507  
882.500000	-0.030075  
883.000000	0.101954   
883.500000	0.139310   
884.000000	0.046477   
884.500000	-0.024545  
885.000000	-0.107992  
885.500000	-0.145462  
886.000000	-0.164621  
886.500000	-0.213863  
887.000000	-0.304295  
887.500000	-0.324757  
888.000000	-0.212439  
888.500000	-0.088356  
889.000000	-0.063015  
889.500000	-0.123386  
890.000000	-0.143742  
890.500000	-0.122863  
891.000000	-0.061636  
891.500000	-0.099871  
892.000000	-0.146643  
892.500000	-0.163674  
893.000000	-0.007901  
893.500000	0.101227   
894.000000	0.086598   
894.500000	-0.033840  
895.000000	-0.064628  
895.500000	-0.088454  
896.000000	-0.107628  
896.500000	-0.105333  
897.000000	-0.055022  
897.500000	-0.005946  
898.000000	-0.139386  
898.500000	-0.295681  
899.000000	-0.349530  
899.500000	-0.213643  
900.000000	-0.068659  
900.500000	-0.000000  

