PE FL                   SPECTRUM    ASCII       PEDS        1.60        
  -1
S12R#42.SP
24/04/15
16:38:09.00
24/04/15
16:39:34.00
Jan

900.500000
1









LS55
405.00
5.00
5.00
SCAN
1
20
100
100
0
400
0
1
0
1
5
ON
900 405 
1 0 0
#HDR
-1
-1
#GR
NM

0.00002384185791015625
0.0
450.000000
0.500000
902
8
158.749098
-0.418522
#DATA
450.000000	-0.066999  
450.500000	-0.086583  
451.000000	0.007340   
451.500000	0.097424   
452.000000	0.019825   
452.500000	0.001840   
453.000000	-0.008196  
453.500000	-0.030416  
454.000000	-0.160166  
454.500000	-0.150606  
455.000000	-0.065500  
455.500000	0.051984   
456.000000	0.088977   
456.500000	0.103984   
457.000000	0.044113   
457.500000	0.026560   
458.000000	0.041704   
458.500000	0.195651   
459.000000	0.183454   
459.500000	0.021272   
460.000000	-0.157621  
460.500000	-0.008568  
461.000000	0.227530   
461.500000	0.318621   
462.000000	0.237189   
462.500000	0.213984   
463.000000	0.165719   
463.500000	-0.008106  
464.000000	-0.075856  
464.500000	0.155090   
465.000000	0.374643   
465.500000	0.214181   
466.000000	-0.209712  
466.500000	-0.229515  
467.000000	0.002507   
467.500000	0.121295   
468.000000	-0.053037  
468.500000	-0.111818  
469.000000	0.013977   
469.500000	0.066287   
470.000000	-0.002583  
470.500000	-0.107121  
471.000000	-0.070568  
471.500000	-0.027363  
472.000000	0.076545   
472.500000	-0.014083  
473.000000	-0.240340  
473.500000	-0.403636  
474.000000	-0.307681  
474.500000	-0.098409  
475.000000	0.030734   
475.500000	0.037098   
476.000000	-0.033659  
476.500000	-0.027742  
477.000000	0.007166   
477.500000	-0.023545  
478.000000	-0.095295  
478.500000	-0.083325  
479.000000	0.105939   
479.500000	0.204886   
480.000000	0.125621   
480.500000	-0.123765  
481.000000	-0.185803  
481.500000	-0.124712  
482.000000	0.059469   
482.500000	-0.014318  
483.000000	-0.196068  
483.500000	-0.375121  
484.000000	-0.298825  
484.500000	-0.169856  
485.000000	-0.042378  
485.500000	-0.068553  
486.000000	-0.089484  
486.500000	-0.070651  
487.000000	0.055098   
487.500000	0.068484   
488.000000	0.046787   
488.500000	-0.080469  
489.000000	-0.121037  
489.500000	-0.198196  
490.000000	-0.100590  
490.500000	0.054886   
491.000000	0.229143   
491.500000	0.242287   
492.000000	0.180000   
492.500000	0.130553   
493.000000	0.051924   
493.500000	0.009234   
494.000000	-0.027643  
494.500000	-0.026500  
495.000000	-0.118227  
495.500000	-0.214977  
496.000000	-0.184356  
496.500000	-0.063212  
497.000000	0.084424   
497.500000	0.231856   
498.000000	0.423015   
498.500000	0.564257   
499.000000	0.537189   
499.500000	0.542106   
500.000000	0.654356   
500.500000	0.834871   
501.000000	0.836128   
501.500000	0.806401   
502.000000	0.767409   
502.500000	0.880136   
503.000000	0.947515   
503.500000	0.915431   
504.000000	0.791037   
504.500000	0.779969   
505.000000	0.886530   
505.500000	1.109136   
506.000000	1.258128   
506.500000	1.446113   
507.000000	1.554121   
507.500000	1.720992   
508.000000	1.790340   
508.500000	1.871568   
509.000000	1.808946   
509.500000	1.831068   
510.000000	1.963931   
510.500000	2.302772   
511.000000	2.601643   
511.500000	2.706969   
512.000000	2.685015   
512.500000	2.722030   
513.000000	2.666401   
513.500000	2.543136   
514.000000	2.435765   
514.500000	2.554250   
515.000000	2.785696   
515.500000	3.083712   
516.000000	3.274393   
516.500000	3.235068   
517.000000	3.003174   
517.500000	2.762136   
518.000000	2.756530   
518.500000	2.889856   
519.000000	3.111893   
519.500000	3.309166   
520.000000	3.294030   
520.500000	3.404507   
521.000000	3.677227   
521.500000	3.996037   
522.000000	3.872212   
522.500000	3.675083   
523.000000	3.446265   
523.500000	3.430318   
524.000000	3.389378   
524.500000	3.582522   
525.000000	3.794780   
525.500000	3.973340   
526.000000	3.962196   
526.500000	4.178553   
527.000000	4.415340   
527.500000	4.584106   
528.000000	4.488878   
528.500000	4.676863   
529.000000	4.950121   
529.500000	5.200787   
530.000000	5.395969   
530.500000	5.777962   
531.000000	6.036484   
531.500000	5.853621   
532.000000	5.498780   
532.500000	5.677060   
533.000000	6.188704   
533.500000	6.662674   
534.000000	6.852954   
534.500000	7.188333   
535.000000	7.527121   
535.500000	8.192007   
536.000000	8.641303   
536.500000	9.213249   
537.000000	9.581863   
537.500000	10.186545  
538.000000	10.724765  
538.500000	11.304022  
539.000000	11.591871  
539.500000	11.825522  
540.000000	12.153121  
540.500000	12.797068  
541.000000	13.506507  
541.500000	13.951371  
542.000000	13.899803  
542.500000	13.850946  
543.000000	13.870537  
543.500000	13.814121  
544.000000	12.889909  
544.500000	11.891613  
545.000000	11.362606  
545.500000	11.726128  
546.000000	11.599742  
546.500000	10.838310  
547.000000	9.615416   
547.500000	8.859212   
548.000000	8.348492   
548.500000	7.982568   
549.000000	7.334000   
549.500000	6.650128   
550.000000	5.799060   
550.500000	5.344424   
551.000000	4.952575   
551.500000	4.662931   
552.000000	4.205992   
552.500000	4.014462   
553.000000	3.975121   
553.500000	3.911068   
554.000000	3.540795   
554.500000	3.099946   
555.000000	2.982250   
555.500000	2.978106   
556.000000	3.023333   
556.500000	2.976037   
557.000000	3.019318   
557.500000	3.105431   
558.000000	3.204962   
558.500000	3.216780   
559.000000	3.174765   
559.500000	3.084825   
560.000000	3.123568   
560.500000	3.077787   
561.000000	2.991992   
561.500000	2.921106   
562.000000	3.185984   
562.500000	3.384227   
563.000000	3.311651   
563.500000	3.016469   
564.000000	3.040098   
564.500000	3.266363   
565.000000	3.352537   
565.500000	3.209181   
566.000000	2.960825   
566.500000	2.849106   
567.000000	2.860962   
567.500000	3.167939   
568.000000	3.458356   
568.500000	3.635424   
569.000000	3.497734   
569.500000	3.340181   
570.000000	3.173992   
570.500000	3.027212   
571.000000	2.912628   
571.500000	2.880151   
572.000000	3.083454   
572.500000	3.306030   
573.000000	3.478295   
573.500000	3.355128   
574.000000	3.223280   
574.500000	3.167545   
575.000000	3.393159   
575.500000	3.524204   
576.000000	3.491303   
576.500000	3.267772   
577.000000	3.201409   
577.500000	3.188757   
578.000000	3.285333   
578.500000	3.249166   
579.000000	3.368477   
579.500000	3.443643   
580.000000	3.427568   
580.500000	3.148742   
581.000000	2.958098   
581.500000	2.959348   
582.000000	3.149537   
582.500000	3.380068   
583.000000	3.561674   
583.500000	3.684136   
584.000000	3.594219   
584.500000	3.378946   
585.000000	3.160159   
585.500000	3.128000   
586.000000	3.214931   
586.500000	3.376598   
587.000000	3.484143   
587.500000	3.555401   
588.000000	3.770560   
588.500000	3.993477   
589.000000	4.039825   
589.500000	3.938272   
590.000000	4.058689   
590.500000	4.113818   
591.000000	4.134946   
591.500000	4.119242   
592.000000	4.434053   
592.500000	4.678000   
593.000000	4.786446   
593.500000	4.795280   
594.000000	4.655583   
594.500000	4.498348   
595.000000	4.576666   
595.500000	5.171537   
596.000000	5.513537   
596.500000	5.294242   
597.000000	4.768659   
597.500000	4.756196   
598.000000	5.197689   
598.500000	5.410515   
599.000000	5.233219   
599.500000	4.988757   
600.000000	5.243416   
600.500000	5.723628   
601.000000	6.113946   
601.500000	6.209204   
602.000000	6.305575   
602.500000	6.113507   
603.000000	5.884136   
603.500000	5.890469   
604.000000	6.440848   
604.500000	6.913863   
605.000000	7.161022   
605.500000	7.221537   
606.000000	7.677325   
606.500000	8.045060   
607.000000	8.200068   
607.500000	8.229075   
608.000000	8.600121   
608.500000	9.093030   
609.000000	9.541825   
609.500000	9.747333   
610.000000	9.934530   
610.500000	10.099878  
611.000000	10.228128  
611.500000	10.274075  
612.000000	10.362765  
612.500000	10.621750  
613.000000	11.099174  
613.500000	11.742575  
614.000000	12.499325  
614.500000	13.054659  
615.000000	13.545462  
615.500000	13.831750  
616.000000	14.334166  
616.500000	14.736484  
617.000000	15.433712  
617.500000	15.932007  
618.000000	16.406969  
618.500000	16.571560  
619.000000	16.975492  
619.500000	17.452484  
620.000000	18.397553  
620.500000	19.372992  
621.000000	20.324553  
621.500000	20.951727  
622.000000	21.535272  
622.500000	22.146196  
623.000000	22.813977  
623.500000	23.262984  
624.000000	23.928992  
624.500000	24.869454  
625.000000	25.822765  
625.500000	26.561613  
626.000000	27.462939  
626.500000	28.865772  
627.000000	30.425234  
627.500000	31.526916  
628.000000	32.326628  
628.500000	33.115787  
629.000000	34.070212  
629.500000	35.414666  
630.000000	37.180613  
630.500000	39.541689  
631.000000	41.319113  
631.500000	42.551106  
632.000000	43.161787  
632.500000	43.702280  
633.000000	44.263022  
633.500000	45.720977  
634.000000	47.798909  
634.500000	49.662212  
635.000000	51.018083  
635.500000	51.888492  
636.000000	52.803219  
636.500000	53.936742  
637.000000	55.808651  
637.500000	58.456833  
638.000000	61.070242  
638.500000	63.034818  
639.000000	64.139318  
639.500000	65.243265  
640.000000	66.992356  
640.500000	69.714401  
641.000000	72.377696  
641.500000	74.340606  
642.000000	75.913734  
642.500000	77.704939  
643.000000	79.531401  
643.500000	81.260007  
644.000000	83.298075  
644.500000	85.166106  
645.000000	86.899780  
645.500000	88.827568  
646.000000	91.327613  
646.500000	94.038818  
647.000000	96.245068  
647.500000	97.882590  
648.000000	99.871181  
648.500000	102.611166 
649.000000	105.358045 
649.500000	107.087939 
650.000000	107.456310 
650.500000	107.590303 
651.000000	109.788909 
651.500000	112.575621 
652.000000	114.968348 
652.500000	115.226303 
653.000000	115.840613 
653.500000	117.937280 
654.000000	121.950416 
654.500000	124.745992 
655.000000	126.599590 
655.500000	127.631492 
656.000000	129.431196 
656.500000	130.950371 
657.000000	131.770909 
657.500000	132.097356 
658.000000	132.996037 
658.500000	134.888962 
659.000000	137.055166 
659.500000	139.314878 
660.000000	141.157689 
660.500000	143.645818 
661.000000	145.652560 
661.500000	147.304681 
662.000000	147.716719 
662.500000	147.662356 
663.000000	147.501068 
663.500000	148.084818 
664.000000	149.564386 
664.500000	150.716833 
665.000000	151.639628 
665.500000	152.861750 
666.000000	154.756242 
666.500000	155.924666 
667.000000	156.153628 
667.500000	155.634568 
668.000000	155.398924 
668.500000	156.300643 
669.000000	157.473750 
669.500000	158.133143 
670.000000	156.982628 
670.500000	155.992734 
671.000000	155.905916 
671.500000	157.559856 
672.000000	158.332401 
672.500000	158.749098 
673.000000	157.798810 
673.500000	157.029719 
674.000000	155.641795 
674.500000	155.120416 
675.000000	154.348378 
675.500000	153.965954 
676.000000	152.367401 
676.500000	151.124757 
677.000000	150.579916 
677.500000	150.731128 
678.000000	149.565681 
678.500000	148.290939 
679.000000	146.575522 
679.500000	144.608060 
680.000000	141.534613 
680.500000	138.658060 
681.000000	137.165553 
681.500000	136.056121 
682.000000	134.255098 
682.500000	131.588734 
683.000000	129.118174 
683.500000	126.391681 
684.000000	124.493757 
684.500000	121.855575 
685.000000	118.717106 
685.500000	115.721219 
686.000000	114.391424 
686.500000	113.671409 
687.000000	112.299325 
687.500000	109.847492 
688.000000	107.088333 
688.500000	104.934530 
689.000000	102.900992 
689.500000	100.542780 
690.000000	97.380818  
690.500000	94.761545  
691.000000	92.656840  
691.500000	90.760333  
692.000000	88.124590  
692.500000	85.545545  
693.000000	83.104924  
693.500000	80.645712  
694.000000	78.626946  
694.500000	76.762719  
695.000000	74.646128  
695.500000	72.146045  
696.000000	69.859613  
696.500000	67.916530  
697.000000	66.034477  
697.500000	64.154636  
698.000000	62.320530  
698.500000	60.554484  
699.000000	58.566749  
699.500000	57.087196  
700.000000	55.484462  
700.500000	54.312053  
701.000000	52.597780  
701.500000	51.054946  
702.000000	49.162340  
702.500000	47.978068  
703.000000	46.363310  
703.500000	45.176681  
704.000000	43.670356  
704.500000	42.516727  
705.000000	41.500446  
705.500000	41.031946  
706.000000	40.332196  
706.500000	39.217606  
707.000000	37.511522  
707.500000	35.941310  
708.000000	34.430636  
708.500000	33.620931  
709.000000	32.937606  
709.500000	32.075325  
710.000000	30.477757  
710.500000	29.025643  
711.000000	28.360022  
711.500000	28.125886  
712.000000	27.761916  
712.500000	27.198886  
713.000000	26.838401  
713.500000	26.324280  
714.000000	25.568992  
714.500000	24.720886  
715.000000	23.739696  
715.500000	23.093439  
716.000000	22.473689  
716.500000	21.947916  
717.000000	21.033719  
717.500000	20.316015  
718.000000	19.705848  
718.500000	19.203151  
719.000000	18.414462  
719.500000	17.768878  
720.000000	17.523386  
720.500000	17.319416  
721.000000	16.666068  
721.500000	15.920242  
722.000000	15.712045  
722.500000	15.586553  
723.000000	15.147090  
723.500000	14.359280  
724.000000	13.965136  
724.500000	13.904128  
725.000000	13.830462  
725.500000	13.202772  
726.000000	12.662628  
726.500000	12.186704  
727.000000	12.014689  
727.500000	11.850287  
728.000000	11.866030  
728.500000	11.676007  
729.000000	11.413333  
729.500000	10.992000  
730.000000	10.725598  
730.500000	10.401068  
731.000000	10.052689  
731.500000	10.048545  
732.000000	10.095204  
732.500000	10.063083  
733.000000	9.851545   
733.500000	9.750212   
734.000000	9.539143   
734.500000	9.036090   
735.000000	8.618643   
735.500000	8.548022   
736.000000	8.967090   
736.500000	9.404007   
737.000000	9.499219   
737.500000	8.835833   
738.000000	7.990303   
738.500000	7.378143   
739.000000	7.270068   
739.500000	7.338954   
740.000000	7.453772   
740.500000	7.316181   
741.000000	7.009689   
741.500000	6.614272   
742.000000	6.673068   
742.500000	6.845681   
743.000000	6.836727   
743.500000	6.555757   
744.000000	6.285393   
744.500000	6.112575   
745.000000	5.961060   
745.500000	5.877742   
746.000000	5.833484   
746.500000	5.808015   
747.000000	5.901750   
747.500000	6.068606   
748.000000	6.205196   
748.500000	6.197106   
749.000000	6.038318   
749.500000	5.724409   
750.000000	5.206454   
750.500000	4.780742   
751.000000	4.459946   
751.500000	4.511560   
752.000000	4.698280   
752.500000	5.124750   
753.000000	5.255992   
753.500000	5.100363   
754.000000	4.786734   
754.500000	4.637166   
755.000000	4.640636   
755.500000	4.565795   
756.000000	4.461515   
756.500000	4.419757   
757.000000	4.473621   
757.500000	4.553295   
758.000000	4.510333   
758.500000	4.471446   
759.000000	4.476204   
759.500000	4.657166   
760.000000	4.541295   
760.500000	4.352181   
761.000000	4.001871   
761.500000	3.937969   
762.000000	3.894136   
762.500000	3.962007   
763.000000	3.894696   
763.500000	3.858575   
764.000000	3.757749   
764.500000	3.968477   
765.000000	4.227439   
765.500000	4.386522   
766.000000	4.163098   
766.500000	3.985295   
767.000000	3.768015   
767.500000	3.626393   
768.000000	3.355045   
768.500000	3.217651   
769.000000	3.158568   
769.500000	3.304340   
770.000000	3.456621   
770.500000	3.522606   
771.000000	3.412378   
771.500000	3.228409   
772.000000	3.153189   
772.500000	3.120416   
773.000000	3.139356   
773.500000	3.093803   
774.000000	3.032462   
774.500000	3.001030   
775.000000	3.136272   
775.500000	3.256901   
776.000000	3.202151   
776.500000	3.068022   
777.000000	2.959143   
777.500000	3.036113   
778.000000	3.051530   
778.500000	3.091068   
779.000000	3.036825   
779.500000	3.018606   
780.000000	2.972992   
780.500000	3.020310   
781.000000	3.056765   
781.500000	3.053848   
782.000000	2.999272   
782.500000	3.003106   
783.000000	3.042893   
783.500000	3.062053   
784.000000	2.876636   
784.500000	2.618765   
785.000000	2.420386   
785.500000	2.550840   
786.000000	2.807772   
786.500000	3.014734   
787.000000	2.938113   
787.500000	2.827015   
788.000000	2.807068   
788.500000	2.898666   
789.000000	2.959901   
789.500000	2.950750   
790.000000	2.847083   
790.500000	2.750931   
791.000000	2.737575   
791.500000	2.819962   
792.000000	2.902053   
792.500000	2.741234   
793.000000	2.495803   
793.500000	2.314280   
794.000000	2.314477   
794.500000	2.447931   
795.000000	2.579386   
795.500000	2.527939   
796.000000	2.390409   
796.500000	2.201439   
797.000000	2.101196   
797.500000	2.088075   
798.000000	2.195704   
798.500000	2.230492   
799.000000	2.110765   
799.500000	1.766242   
800.000000	1.592696   
800.500000	1.821257   
801.000000	2.146765   
801.500000	2.324424   
802.000000	2.155371   
802.500000	1.928575   
803.000000	1.693409   
803.500000	1.616106   
804.000000	1.659424   
804.500000	1.784689   
805.000000	1.770772   
805.500000	1.605590   
806.000000	1.594924   
806.500000	1.632643   
807.000000	1.713484   
807.500000	1.653621   
808.000000	1.679340   
808.500000	1.617674   
809.000000	1.544795   
809.500000	1.335500   
810.000000	1.415356   
810.500000	1.412924   
811.000000	1.527810   
811.500000	1.560333   
812.000000	1.650053   
812.500000	1.566893   
813.000000	1.516015   
813.500000	1.525363   
814.000000	1.579227   
814.500000	1.452053   
815.000000	1.276954   
815.500000	1.329878   
816.000000	1.419121   
816.500000	1.446568   
817.000000	1.371681   
817.500000	1.363575   
818.000000	1.405772   
818.500000	1.429840   
819.000000	1.388416   
819.500000	1.474303   
820.000000	1.571143   
820.500000	1.616181   
821.000000	1.674409   
821.500000	1.875310   
822.000000	2.054409   
822.500000	2.171075   
823.000000	2.261431   
823.500000	2.421439   
824.000000	2.459712   
824.500000	2.356560   
825.000000	2.309045   
825.500000	2.379507   
826.000000	2.445113   
826.500000	2.396250   
827.000000	2.367325   
827.500000	2.151780   
828.000000	2.048757   
828.500000	1.982742   
829.000000	2.018500   
829.500000	1.792530   
830.000000	1.487037   
830.500000	1.289712   
831.000000	1.315098   
831.500000	1.305090   
832.000000	1.156666   
832.500000	1.083575   
833.000000	1.093977   
833.500000	1.146303   
834.000000	1.094992   
834.500000	1.039962   
835.000000	1.022522   
835.500000	1.045992   
836.000000	1.087840   
836.500000	1.074037   
837.000000	1.011060   
837.500000	0.946219   
838.000000	0.934848   
838.500000	0.954696   
839.000000	0.999825   
839.500000	0.933250   
840.000000	0.775053   
840.500000	0.617022   
841.000000	0.635757   
841.500000	0.695848   
842.000000	0.679772   
842.500000	0.561757   
843.000000	0.576954   
843.500000	0.557931   
844.000000	0.527719   
844.500000	0.438075   
845.000000	0.403765   
845.500000	0.319666   
846.000000	0.305590   
846.500000	0.236924   
847.000000	0.181257   
847.500000	0.156666   
848.000000	0.216931   
848.500000	0.308310   
849.000000	0.362287   
849.500000	0.344825   
850.000000	0.242977   
850.500000	0.064969   
851.000000	-0.044446  
851.500000	0.013477   
852.000000	0.164068   
852.500000	0.216136   
853.000000	0.200386   
853.500000	0.099128   
854.000000	-0.004424  
854.500000	0.001212   
855.000000	0.035181   
855.500000	0.042272   
856.000000	-0.037969  
856.500000	-0.039545  
857.000000	-0.013348  
857.500000	0.045909   
858.000000	0.066484   
858.500000	0.035143   
859.000000	-0.156492  
859.500000	-0.395416  
860.000000	-0.418522  
860.500000	-0.156651  
861.000000	0.089643   
861.500000	0.162469   
862.000000	0.075886   
862.500000	-0.023363  
863.000000	-0.116909  
863.500000	-0.107537  
864.000000	-0.011750  
864.500000	0.054742   
865.000000	0.076401   
865.500000	0.041424   
866.000000	0.077651   
866.500000	0.082893   
867.000000	0.096181   
867.500000	0.009575   
868.000000	-0.102833  
868.500000	-0.202840  
869.000000	-0.164886  
869.500000	-0.041977  
870.000000	0.033727   
870.500000	0.095174   
871.000000	0.076765   
871.500000	0.068378   
872.000000	-0.005810  
872.500000	-0.004469  
873.000000	-0.011901  
873.500000	-0.031878  
874.000000	-0.051734  
874.500000	-0.044530  
875.000000	0.026106   
875.500000	0.028295   
876.000000	0.061530   
876.500000	-0.044939  
877.000000	-0.086606  
877.500000	-0.145984  
878.000000	-0.023530  
878.500000	-0.005916  
879.000000	-0.057113  
879.500000	-0.155787  
880.000000	-0.057780  
880.500000	0.023098   
881.000000	0.045484   
881.500000	-0.044424  
882.000000	-0.073969  
882.500000	-0.013075  
883.000000	0.080045   
883.500000	0.094424   
884.000000	0.034363   
884.500000	-0.059257  
885.000000	-0.148553  
885.500000	-0.169128  
886.000000	-0.177295  
886.500000	-0.098265  
887.000000	-0.048765  
887.500000	-0.129363  
888.000000	-0.272409  
888.500000	-0.271583  
889.000000	-0.140696  
889.500000	-0.047075  
890.000000	-0.104500  
890.500000	-0.171219  
891.000000	-0.162984  
891.500000	-0.084386  
892.000000	-0.014431  
892.500000	0.047946   
893.000000	0.012878   
893.500000	-0.040613  
894.000000	-0.080371  
894.500000	-0.021143  
895.000000	-0.047106  
895.500000	-0.192992  
896.000000	-0.328098  
896.500000	-0.319962  
897.000000	-0.211606  
897.500000	-0.114143  
898.000000	-0.014143  
898.500000	-0.044992  
899.000000	-0.163151  
899.500000	-0.283507  
900.000000	-0.057674  
900.500000	0.499999   

