PE FL                   SPECTRUM    ASCII       PEDS        1.60        
  -1
S12R#55.SP
24/04/15
16:56:41.00
24/04/15
16:58:06.00
Jan

900.500000
1









LS55
405.00
5.00
5.00
SCAN
1
20
100
100
0
400
0
1
0
1
5
ON
900 405 
1 0 0
#HDR
-1
-1
#GR
NM

0.00002384185791015625
0.0
450.000000
0.500000
902
8
147.412022
-0.867000
#DATA
450.000000	-0.032999  
450.500000	-0.125303  
451.000000	-0.052712  
451.500000	0.145924   
452.000000	0.225772   
452.500000	0.071931   
453.000000	-0.160871  
453.500000	-0.327727  
454.000000	-0.397439  
454.500000	-0.406128  
455.000000	-0.368469  
455.500000	-0.257272  
456.000000	-0.273848  
456.500000	-0.439500  
457.000000	-0.517477  
457.500000	-0.425954  
458.000000	-0.247325  
458.500000	-0.163734  
459.000000	-0.054507  
459.500000	0.075007   
460.000000	0.152212   
460.500000	-0.016780  
461.000000	-0.239295  
461.500000	-0.375416  
462.000000	-0.341386  
462.500000	-0.332015  
463.000000	-0.367371  
463.500000	-0.294166  
464.000000	-0.086696  
464.500000	0.031848   
465.000000	-0.031901  
465.500000	-0.009727  
466.000000	0.096954   
466.500000	0.096833   
467.000000	-0.022151  
467.500000	-0.086924  
468.000000	-0.098901  
468.500000	-0.194659  
469.000000	-0.273886  
469.500000	-0.122575  
470.000000	0.027931   
470.500000	0.054234   
471.000000	-0.019712  
471.500000	-0.018401  
472.000000	-0.052469  
472.500000	-0.148128  
473.000000	-0.247916  
473.500000	-0.251386  
474.000000	-0.172803  
474.500000	-0.085568  
475.000000	-0.034696  
475.500000	-0.005560  
476.000000	0.030560   
476.500000	0.056803   
477.000000	0.057356   
477.500000	0.063750   
478.000000	0.094712   
478.500000	0.100325   
479.000000	0.066393   
479.500000	-0.107666  
480.000000	-0.329757  
480.500000	-0.445136  
481.000000	-0.289424  
481.500000	-0.035242  
482.000000	0.062803   
482.500000	-0.148583  
483.000000	-0.312560  
483.500000	-0.301462  
484.000000	-0.075553  
484.500000	0.057015   
485.000000	0.117181   
485.500000	0.021712   
486.000000	0.012825   
486.500000	-0.094598  
487.000000	-0.076204  
487.500000	0.009545   
488.000000	0.162159   
488.500000	0.244666   
489.000000	0.305530   
489.500000	0.242015   
490.000000	0.024712   
490.500000	-0.092863  
491.000000	-0.000007  
491.500000	0.277272   
492.000000	0.298893   
492.500000	0.179856   
493.000000	0.063810   
493.500000	0.176045   
494.000000	0.327007   
494.500000	0.387053   
495.000000	0.338590   
495.500000	0.326674   
496.000000	0.509674   
496.500000	0.554454   
497.000000	0.438916   
497.500000	0.268356   
498.000000	0.352659   
498.500000	0.486287   
499.000000	0.615704   
499.500000	0.709984   
500.000000	0.811234   
500.500000	0.883825   
501.000000	0.881871   
501.500000	0.868348   
502.000000	0.845166   
502.500000	0.885348   
503.000000	0.979886   
503.500000	0.988749   
504.000000	0.830757   
504.500000	0.688348   
505.000000	0.739712   
505.500000	0.909954   
506.000000	1.088431   
506.500000	1.345045   
507.000000	1.605159   
507.500000	1.847522   
508.000000	1.838378   
508.500000	1.951689   
509.000000	2.157825   
509.500000	2.447712   
510.000000	2.399219   
510.500000	2.316583   
511.000000	2.350469   
511.500000	2.617583   
512.000000	2.819083   
512.500000	2.927719   
513.000000	3.043227   
513.500000	3.103916   
514.000000	3.066659   
514.500000	2.968106   
515.000000	2.997030   
515.500000	3.202416   
516.000000	3.362734   
516.500000	3.445280   
517.000000	3.386916   
517.500000	3.384893   
518.000000	3.315742   
518.500000	3.194250   
519.000000	2.987545   
519.500000	2.926666   
520.000000	3.010204   
520.500000	3.138757   
521.000000	3.265015   
521.500000	3.330083   
522.000000	3.362250   
522.500000	3.310378   
523.000000	3.237053   
523.500000	3.228992   
524.000000	3.297840   
524.500000	3.319462   
525.000000	3.461522   
525.500000	3.791803   
526.000000	4.155916   
526.500000	4.477553   
527.000000	4.834181   
527.500000	5.263840   
528.000000	5.406227   
528.500000	5.184606   
529.000000	4.871022   
529.500000	4.902909   
530.000000	4.942113   
530.500000	4.957098   
531.000000	5.001553   
531.500000	5.325795   
532.000000	5.777909   
532.500000	6.252575   
533.000000	6.615409   
533.500000	6.978083   
534.000000	7.213007   
534.500000	7.573787   
535.000000	8.123053   
535.500000	8.851166   
536.000000	9.199750   
536.500000	9.261553   
537.000000	9.263363   
537.500000	9.638325   
538.000000	9.991265   
538.500000	10.380371  
539.000000	10.765666  
539.500000	11.436113  
540.000000	12.107007  
540.500000	12.934159  
541.000000	13.652704  
541.500000	13.991386  
542.000000	13.600378  
542.500000	12.931212  
543.000000	12.574356  
543.500000	12.481303  
544.000000	12.159159  
544.500000	11.708053  
545.000000	11.322712  
545.500000	10.992189  
546.000000	10.459333  
546.500000	9.949780   
547.000000	9.589878   
547.500000	9.254734   
548.000000	8.609999   
548.500000	7.849969   
549.000000	7.006613   
549.500000	6.192075   
550.000000	5.451909   
550.500000	5.076545   
551.000000	4.773909   
551.500000	4.571522   
552.000000	4.203772   
552.500000	3.860765   
553.000000	3.530757   
553.500000	3.372015   
554.000000	3.361242   
554.500000	3.299507   
555.000000	3.252939   
555.500000	3.238393   
556.000000	3.287409   
556.500000	3.240560   
557.000000	3.168030   
557.500000	3.320265   
558.000000	3.582477   
558.500000	3.574250   
559.000000	3.335022   
559.500000	3.140128   
560.000000	3.215810   
560.500000	3.239257   
561.000000	3.220083   
561.500000	3.161969   
562.000000	3.291734   
562.500000	3.279636   
563.000000	3.122628   
563.500000	2.983787   
564.000000	2.927083   
564.500000	2.965446   
565.000000	2.994060   
565.500000	2.995522   
566.000000	2.980212   
566.500000	2.987553   
567.000000	3.042515   
567.500000	3.159446   
568.000000	3.311674   
568.500000	3.313651   
569.000000	3.202681   
569.500000	3.109477   
570.000000	3.199060   
570.500000	3.353075   
571.000000	3.365651   
571.500000	3.276446   
572.000000	3.211151   
572.500000	3.187106   
573.000000	3.247893   
573.500000	3.348030   
574.000000	3.404590   
574.500000	3.315750   
575.000000	3.258037   
575.500000	3.219212   
576.000000	3.317386   
576.500000	3.413757   
577.000000	3.521181   
577.500000	3.471651   
578.000000	3.332371   
578.500000	3.411439   
579.000000	3.688477   
579.500000	3.781212   
580.000000	3.493840   
580.500000	3.158515   
581.000000	2.984325   
581.500000	3.100340   
582.000000	3.270659   
582.500000	3.455333   
583.000000	3.702295   
583.500000	3.987007   
584.000000	4.122295   
584.500000	3.947553   
585.000000	3.597954   
585.500000	3.401469   
586.000000	3.405901   
586.500000	3.445856   
587.000000	3.443333   
587.500000	3.656863   
588.000000	4.013113   
588.500000	4.284977   
589.000000	4.345257   
589.500000	4.168090   
590.000000	4.013727   
590.500000	3.821886   
591.000000	4.033704   
591.500000	4.323818   
592.000000	4.786098   
592.500000	4.881931   
593.000000	5.053287   
593.500000	5.035439   
594.000000	5.014780   
594.500000	4.871712   
595.000000	5.015484   
595.500000	5.261075   
596.000000	5.251424   
596.500000	5.040666   
597.000000	4.950598   
597.500000	5.180219   
598.000000	5.417371   
598.500000	5.639303   
599.000000	5.801666   
599.500000	5.938212   
600.000000	5.961136   
600.500000	5.856196   
601.000000	5.945454   
601.500000	6.038712   
602.000000	6.324454   
602.500000	6.786946   
603.000000	7.253083   
603.500000	7.377863   
604.000000	7.184143   
604.500000	7.414992   
605.000000	7.799249   
605.500000	8.136333   
606.000000	8.045348   
606.500000	8.108424   
607.000000	8.205053   
607.500000	8.457424   
608.000000	8.779393   
608.500000	9.305545   
609.000000	9.723795   
609.500000	9.899340   
610.000000	10.052333  
610.500000	10.540909  
611.000000	11.144969  
611.500000	11.800378  
612.000000	12.248901  
612.500000	12.514568  
613.000000	12.807765  
613.500000	13.167984  
614.000000	13.483053  
614.500000	13.785469  
615.000000	14.305219  
615.500000	14.955106  
616.000000	15.719659  
616.500000	16.418401  
617.000000	17.078886  
617.500000	17.628015  
618.000000	18.242787  
618.500000	18.387007  
619.000000	18.481409  
619.500000	18.702333  
620.000000	19.793121  
620.500000	20.965083  
621.000000	21.935810  
621.500000	22.456136  
622.000000	23.555537  
622.500000	24.714484  
623.000000	25.599689  
623.500000	26.076333  
624.000000	26.812560  
624.500000	27.149909  
625.000000	27.450022  
625.500000	27.438893  
626.000000	28.337409  
626.500000	30.262098  
627.000000	32.741280  
627.500000	34.478386  
628.000000	35.291181  
628.500000	36.218757  
629.000000	37.621386  
629.500000	39.406704  
630.000000	40.485893  
630.500000	41.289553  
631.000000	42.184469  
631.500000	43.687636  
632.000000	45.787553  
632.500000	48.145795  
633.000000	49.616174  
633.500000	50.251825  
634.000000	50.441500  
634.500000	51.877825  
635.000000	54.274212  
635.500000	57.098325  
636.000000	58.758840  
636.500000	59.836484  
637.000000	60.320446  
637.500000	60.887007  
638.000000	61.727651  
638.500000	63.581242  
639.000000	66.302522  
639.500000	69.260363  
640.000000	71.525325  
640.500000	72.839522  
641.000000	73.439386  
641.500000	74.718219  
642.000000	77.388886  
642.500000	80.544272  
643.000000	82.828757  
643.500000	84.262992  
644.000000	86.019393  
644.500000	88.103174  
645.000000	90.599939  
645.500000	92.541848  
646.000000	94.012651  
646.500000	94.796969  
647.000000	95.742727  
647.500000	97.118954  
648.000000	99.097871  
648.500000	101.127393 
649.000000	102.984242 
649.500000	104.735787 
650.000000	105.914500 
650.500000	107.432265 
651.000000	109.567530 
651.500000	112.329416 
652.000000	114.518613 
652.500000	116.147651 
653.000000	117.367053 
653.500000	118.320924 
654.000000	118.394545 
654.500000	119.157969 
655.000000	122.300742 
655.500000	126.512484 
656.000000	128.522681 
656.500000	127.988659 
657.000000	127.893537 
657.500000	130.195068 
658.000000	133.077871 
658.500000	133.422227 
659.000000	132.596583 
659.500000	132.958893 
660.000000	135.484893 
660.500000	137.924871 
661.000000	139.638045 
661.500000	140.427348 
662.000000	140.714219 
662.500000	140.191098 
663.000000	140.418492 
663.500000	141.917878 
664.000000	142.990719 
664.500000	143.472530 
665.000000	143.937348 
665.500000	144.524325 
666.000000	144.772727 
666.500000	144.930984 
667.000000	146.257015 
667.500000	147.378348 
668.000000	147.412022 
668.500000	146.027613 
669.000000	145.593856 
669.500000	145.808893 
670.000000	146.681643 
670.500000	146.303386 
671.000000	143.985189 
671.500000	141.411757 
672.000000	139.742212 
672.500000	140.043386 
673.000000	139.978772 
673.500000	139.570227 
674.000000	138.781068 
674.500000	138.098674 
675.000000	135.790265 
675.500000	132.942946 
676.000000	131.763621 
676.500000	132.127909 
677.000000	131.916704 
677.500000	129.976045 
678.000000	128.533537 
678.500000	127.113060 
679.000000	124.894977 
679.500000	121.833015 
680.000000	120.379992 
680.500000	119.242462 
681.000000	117.300340 
681.500000	114.209757 
682.000000	112.665310 
682.500000	111.677431 
683.000000	110.211545 
683.500000	107.152924 
684.000000	104.521325 
684.500000	102.965742 
685.000000	101.753469 
685.500000	99.478719  
686.000000	96.124545  
686.500000	92.972015  
687.000000	90.965060  
687.500000	89.925787  
688.000000	88.195098  
688.500000	85.855227  
689.000000	83.154628  
689.500000	80.915439  
690.000000	78.357818  
690.500000	75.859651  
691.000000	73.554196  
691.500000	72.258992  
692.000000	71.258560  
692.500000	70.423840  
693.000000	68.805522  
693.500000	66.284628  
694.000000	63.724128  
694.500000	62.104318  
695.000000	60.617696  
695.500000	58.161454  
696.000000	54.989401  
696.500000	52.398234  
697.000000	51.224204  
697.500000	50.787015  
698.000000	50.172659  
698.500000	48.813037  
699.000000	47.085651  
699.500000	45.364909  
700.000000	44.285416  
700.500000	43.275143  
701.000000	42.293280  
701.500000	40.743007  
702.000000	38.909287  
702.500000	37.309931  
703.000000	36.543386  
703.500000	36.133227  
704.000000	35.499227  
704.500000	34.262348  
705.000000	32.811727  
705.500000	31.539765  
706.000000	30.267696  
706.500000	29.233613  
707.000000	28.496848  
707.500000	28.131560  
708.000000	27.811310  
708.500000	27.237734  
709.000000	26.512037  
709.500000	25.800280  
710.000000	24.928712  
710.500000	23.632090  
711.000000	22.580954  
711.500000	21.903318  
712.000000	21.861787  
712.500000	21.560363  
713.000000	21.112053  
713.500000	20.577166  
714.000000	20.388227  
714.500000	19.886477  
715.000000	18.969143  
715.500000	17.862787  
716.000000	17.218613  
716.500000	17.328840  
717.000000	17.455060  
717.500000	17.357348  
718.000000	16.847765  
718.500000	16.259462  
719.000000	15.350977  
719.500000	14.466295  
720.000000	13.625984  
720.500000	13.524878  
721.000000	13.747568  
721.500000	13.743053  
722.000000	13.254356  
722.500000	12.757174  
723.000000	12.515234  
723.500000	12.356984  
724.000000	12.088962  
724.500000	11.659250  
725.000000	11.388401  
725.500000	10.956356  
726.000000	10.568886  
726.500000	10.358083  
727.000000	10.250803  
727.500000	10.087333  
728.000000	9.425439   
728.500000	9.140378   
729.000000	9.017075   
729.500000	9.154280   
730.000000	8.845098   
730.500000	8.862000   
731.000000	8.928840   
731.500000	8.883719   
732.000000	8.587030   
732.500000	8.239265   
733.000000	8.033598   
733.500000	7.701583   
734.000000	7.642939   
734.500000	7.612628   
735.000000	7.611530   
735.500000	7.322727   
736.000000	7.154128   
736.500000	7.064977   
737.000000	7.170227   
737.500000	7.263249   
738.000000	7.279666   
738.500000	7.106969   
739.000000	6.902666   
739.500000	6.833681   
740.000000	6.838378   
740.500000	6.826174   
741.000000	6.469037   
741.500000	6.184560   
742.000000	5.823757   
742.500000	5.738878   
743.000000	5.579689   
743.500000	5.814856   
744.000000	6.045553   
744.500000	6.221446   
745.000000	5.969636   
745.500000	5.676560   
746.000000	5.225499   
746.500000	4.824356   
747.000000	4.548356   
747.500000	4.757356   
748.000000	5.095151   
748.500000	5.319469   
749.000000	5.238734   
749.500000	5.035575   
750.000000	4.684219   
750.500000	4.505227   
751.000000	4.371000   
751.500000	4.343848   
752.000000	4.294386   
752.500000	4.313159   
753.000000	4.328628   
753.500000	4.234681   
754.000000	3.984446   
754.500000	3.749181   
755.000000	3.652734   
755.500000	3.765030   
756.000000	3.988075   
756.500000	3.941196   
757.000000	3.564446   
757.500000	3.290068   
758.000000	3.489757   
758.500000	3.838606   
759.000000	3.936590   
759.500000	3.690606   
760.000000	3.543318   
760.500000	3.538280   
761.000000	3.665696   
761.500000	3.636719   
762.000000	3.602507   
762.500000	3.551780   
763.000000	3.541757   
763.500000	3.464916   
764.000000	3.389984   
764.500000	3.364121   
765.000000	3.489856   
765.500000	3.563303   
766.000000	3.576068   
766.500000	3.511310   
767.000000	3.568371   
767.500000	3.603962   
768.000000	3.524606   
768.500000	3.179969   
769.000000	2.986628   
769.500000	3.130053   
770.000000	3.390712   
770.500000	3.413037   
771.000000	3.222659   
771.500000	3.102537   
772.000000	3.129931   
772.500000	3.221522   
773.000000	3.177121   
773.500000	3.067272   
774.000000	2.885500   
774.500000	2.825037   
775.000000	2.859704   
775.500000	2.981053   
776.000000	3.043348   
776.500000	3.116643   
777.000000	3.007287   
777.500000	2.850492   
778.000000	2.705401   
778.500000	2.815621   
779.000000	2.904015   
779.500000	2.917386   
780.000000	2.812643   
780.500000	2.842037   
781.000000	2.922719   
781.500000	2.859719   
782.000000	2.635015   
782.500000	2.498265   
783.000000	2.548984   
783.500000	2.712939   
784.000000	2.833318   
784.500000	2.948848   
785.000000	2.987181   
785.500000	2.999810   
786.000000	2.900106   
786.500000	2.817121   
787.000000	2.729280   
787.500000	2.709212   
788.000000	2.597734   
788.500000	2.552030   
789.000000	2.478522   
789.500000	2.480469   
790.000000	2.454590   
790.500000	2.600712   
791.000000	2.694893   
791.500000	2.800924   
792.000000	2.734310   
792.500000	2.627977   
793.000000	2.459166   
793.500000	2.344545   
794.000000	2.389765   
794.500000	2.530719   
795.000000	2.601787   
795.500000	2.500151   
796.000000	2.400719   
796.500000	2.260242   
797.000000	2.219439   
797.500000	2.232909   
798.000000	2.347090   
798.500000	2.275378   
799.000000	2.041606   
799.500000	1.765795   
800.000000	1.756053   
800.500000	1.959500   
801.000000	2.148272   
801.500000	2.205939   
802.000000	2.133500   
802.500000	2.166075   
803.000000	2.210689   
803.500000	2.235856   
804.000000	2.042492   
804.500000	1.759856   
805.000000	1.719045   
805.500000	1.869931   
806.000000	1.956310   
806.500000	1.743931   
807.000000	1.609204   
807.500000	1.547946   
808.000000	1.634772   
808.500000	1.488272   
809.000000	1.433515   
809.500000	1.459878   
810.000000	1.647431   
810.500000	1.689969   
811.000000	1.747090   
811.500000	1.649545   
812.000000	1.513159   
812.500000	1.271189   
813.000000	1.229106   
813.500000	1.469795   
814.000000	1.722886   
814.500000	1.657151   
815.000000	1.379734   
815.500000	1.360621   
816.000000	1.578022   
816.500000	1.711848   
817.000000	1.538068   
817.500000	1.364212   
818.000000	1.528719   
818.500000	1.687924   
819.000000	1.686083   
819.500000	1.453674   
820.000000	1.544212   
820.500000	1.764454   
821.000000	1.980446   
821.500000	1.990265   
822.000000	2.164712   
822.500000	2.493931   
823.000000	2.699568   
823.500000	2.593795   
824.000000	2.295916   
824.500000	2.264780   
825.000000	2.485863   
825.500000	2.707636   
826.000000	2.475659   
826.500000	2.091037   
827.000000	1.919946   
827.500000	2.130469   
828.000000	2.184651   
828.500000	1.835681   
829.000000	1.467348   
829.500000	1.444590   
830.000000	1.588977   
830.500000	1.486893   
831.000000	1.314946   
831.500000	1.187681   
832.000000	1.186196   
832.500000	1.086053   
833.000000	1.008530   
833.500000	1.042159   
834.000000	1.107166   
834.500000	1.175265   
835.000000	1.185265   
835.500000	1.109416   
836.000000	0.873303   
836.500000	0.779848   
837.000000	0.891030   
837.500000	1.128030   
838.000000	1.133121   
838.500000	1.025515   
839.000000	0.844962   
839.500000	0.797916   
840.000000	0.719553   
840.500000	0.676916   
841.000000	0.539560   
841.500000	0.439909   
842.000000	0.455068   
842.500000	0.523636   
843.000000	0.498424   
843.500000	0.382719   
844.000000	0.269772   
844.500000	0.226962   
845.000000	0.276212   
845.500000	0.428204   
846.000000	0.557174   
846.500000	0.528325   
847.000000	0.441681   
847.500000	0.502265   
848.000000	0.561568   
848.500000	0.405946   
849.000000	0.266469   
849.500000	0.277765   
850.000000	0.403196   
850.500000	0.318659   
851.000000	0.134030   
851.500000	0.027310   
852.000000	0.042598   
852.500000	0.017621   
853.000000	-0.027386  
853.500000	-0.098886  
854.000000	-0.165204  
854.500000	-0.045803  
855.000000	0.163484   
855.500000	0.343507   
856.000000	0.251666   
856.500000	0.054606   
857.000000	-0.145280  
857.500000	-0.067522  
858.000000	0.104636   
858.500000	0.285242   
859.000000	0.210939   
859.500000	0.060189   
860.000000	-0.006916  
860.500000	0.048265   
861.000000	0.079439   
861.500000	0.041469   
862.000000	0.031901   
862.500000	0.065545   
863.000000	0.092553   
863.500000	0.001174   
864.000000	-0.102560  
864.500000	-0.174340  
865.000000	-0.176856  
865.500000	-0.186719  
866.000000	-0.143545  
866.500000	-0.065636  
867.000000	0.005075   
867.500000	-0.032992  
868.000000	-0.052666  
868.500000	-0.067439  
869.000000	-0.054022  
869.500000	-0.104378  
870.000000	-0.027818  
870.500000	0.092431   
871.000000	0.221636   
871.500000	0.145090   
872.000000	0.079303   
872.500000	0.047053   
873.000000	0.081303   
873.500000	-0.001196  
874.000000	-0.082560  
874.500000	-0.111871  
875.000000	-0.063446  
875.500000	0.004227   
876.000000	0.116787   
876.500000	0.137931   
877.000000	0.102863   
877.500000	-0.041643  
878.000000	-0.100916  
878.500000	-0.113765  
879.000000	-0.095257  
879.500000	-0.117924  
880.000000	-0.101280  
880.500000	0.052454   
881.000000	0.185666   
881.500000	0.273765   
882.000000	0.105272   
882.500000	-0.032212  
883.000000	-0.165939  
883.500000	-0.135212  
884.000000	-0.069909  
884.500000	0.049409   
885.000000	0.123515   
885.500000	0.118651   
886.000000	0.099909   
886.500000	0.059727   
887.000000	0.037045   
887.500000	0.009015   
888.000000	0.108840   
888.500000	0.233681   
889.000000	0.227083   
889.500000	0.058696   
890.000000	-0.117954  
890.500000	-0.265750  
891.000000	-0.347121  
891.500000	-0.314727  
892.000000	-0.131818  
892.500000	0.021893   
893.000000	0.053333   
893.500000	-0.000431  
894.000000	-0.072424  
894.500000	-0.192704  
895.000000	-0.194886  
895.500000	0.017757   
896.000000	0.298136   
896.500000	0.304272   
897.000000	0.093560   
897.500000	-0.147333  
898.000000	-0.166219  
898.500000	-0.080219  
899.000000	0.009310   
899.500000	-0.097712  
900.000000	-0.396742  
900.500000	-0.867000  

