PE FL                   SPECTRUM    ASCII       PEDS        1.60        
  -1
S12R#25.SP
24/04/15
16:13:54.00
24/04/15
16:15:19.00
Jan

900.500000
1









LS55
405.00
5.00
5.00
SCAN
1
20
100
100
0
400
0
1
0
1
5
ON
900 405 
1 0 0
#HDR
-1
-1
#GR
NM

0.00002384185791015625
0.0
450.000000
0.500000
902
8
176.216977
-0.514477
#DATA
450.000000	-0.198000  
450.500000	-0.102772  
451.000000	-0.026560  
451.500000	0.101666   
452.000000	0.208530   
452.500000	0.232333   
453.000000	0.033803   
453.500000	-0.263265  
454.000000	-0.514477  
454.500000	-0.460356  
455.000000	-0.189575  
455.500000	0.058363   
456.000000	0.050931   
456.500000	-0.032098  
457.000000	-0.047098  
457.500000	-0.023606  
458.000000	0.058598   
458.500000	0.190856   
459.000000	0.208378   
459.500000	-0.019189  
460.000000	-0.339871  
460.500000	-0.447242  
461.000000	-0.407568  
461.500000	-0.367962  
462.000000	-0.293318  
462.500000	-0.117068  
463.000000	0.003477   
463.500000	-0.024015  
464.000000	-0.155196  
464.500000	-0.133280  
465.000000	-0.103015  
465.500000	0.012924   
466.000000	-0.053204  
466.500000	0.014636   
467.000000	-0.006696  
467.500000	0.188628   
468.000000	0.091196   
468.500000	0.065886   
469.000000	-0.077886  
469.500000	0.029681   
470.000000	0.015098   
470.500000	0.048954   
471.000000	-0.003037  
471.500000	0.012212   
472.000000	-0.030954  
472.500000	0.046416   
473.000000	0.144795   
473.500000	0.195356   
474.000000	0.048106   
474.500000	-0.032219  
475.000000	-0.003121  
475.500000	0.091954   
476.000000	0.014106   
476.500000	-0.068825  
477.000000	-0.140121  
477.500000	-0.089553  
478.000000	-0.053401  
478.500000	0.047984   
479.000000	0.062931   
479.500000	0.008825   
480.000000	-0.155515  
480.500000	-0.269075  
481.000000	-0.280007  
481.500000	-0.139666  
482.000000	0.044924   
482.500000	0.212537   
483.000000	0.198462   
483.500000	0.033909   
484.000000	-0.195696  
484.500000	-0.279303  
485.000000	-0.212045  
485.500000	-0.042750  
486.000000	0.138681   
486.500000	0.196962   
487.000000	0.123787   
487.500000	0.013363   
488.000000	0.160204   
488.500000	0.286121   
489.000000	0.323545   
489.500000	0.146242   
490.000000	0.043749   
490.500000	0.052719   
491.000000	0.034128   
491.500000	-0.094242  
492.000000	-0.243340  
492.500000	-0.216795  
493.000000	-0.092636  
493.500000	0.060454   
494.000000	0.150000   
494.500000	0.126015   
495.000000	0.069265   
495.500000	-0.039265  
496.000000	0.038053   
496.500000	0.171659   
497.000000	0.321310   
497.500000	0.392325   
498.000000	0.520765   
498.500000	0.646530   
499.000000	0.665848   
499.500000	0.650439   
500.000000	0.604295   
500.500000	0.682575   
501.000000	0.748878   
501.500000	0.811583   
502.000000	0.790492   
502.500000	0.790522   
503.000000	0.874727   
503.500000	1.131863   
504.000000	1.425053   
504.500000	1.481136   
505.000000	1.317416   
505.500000	1.133765   
506.000000	1.267757   
506.500000	1.598393   
507.000000	1.794575   
507.500000	1.728651   
508.000000	1.588303   
508.500000	1.738045   
509.000000	1.903568   
509.500000	2.096992   
510.000000	2.145424   
510.500000	2.374007   
511.000000	2.514068   
511.500000	2.656848   
512.000000	2.684674   
512.500000	2.734659   
513.000000	2.739106   
513.500000	2.724825   
514.000000	2.824075   
514.500000	2.803621   
515.000000	2.758977   
515.500000	2.713878   
516.000000	2.904212   
516.500000	2.912424   
517.000000	2.832136   
517.500000	2.794969   
518.000000	3.182780   
518.500000	3.480007   
519.000000	3.521606   
519.500000	3.348575   
520.000000	3.330750   
520.500000	3.302424   
521.000000	3.275196   
521.500000	3.255969   
522.000000	3.406212   
522.500000	3.591143   
523.000000	3.592166   
523.500000	3.484212   
524.000000	3.405333   
524.500000	3.605931   
525.000000	3.820962   
525.500000	3.978098   
526.000000	3.918696   
526.500000	3.925598   
527.000000	3.945348   
527.500000	4.182386   
528.000000	4.467750   
528.500000	4.857227   
529.000000	5.155265   
529.500000	5.347719   
530.000000	5.439848   
530.500000	5.433772   
531.000000	5.522818   
531.500000	5.765212   
532.000000	6.121954   
532.500000	6.358143   
533.000000	6.648946   
533.500000	6.969969   
534.000000	7.500871   
534.500000	7.796628   
535.000000	7.883340   
535.500000	8.181022   
536.000000	8.871409   
536.500000	9.285643   
537.000000	9.141143   
537.500000	9.023999   
538.000000	9.608348   
538.500000	10.907257  
539.000000	11.904840  
539.500000	12.526515  
540.000000	12.551606  
540.500000	12.679507  
541.000000	12.946606  
541.500000	13.625590  
542.000000	14.020818  
542.500000	14.331068  
543.000000	14.289621  
543.500000	13.947810  
544.000000	13.448795  
544.500000	12.926159  
545.000000	12.382954  
545.500000	11.543810  
546.000000	10.845219  
546.500000	9.912325   
547.000000	9.233750   
547.500000	8.527984   
548.000000	8.250651   
548.500000	7.809757   
549.000000	7.290212   
549.500000	6.728825   
550.000000	6.373159   
550.500000	5.928037   
551.000000	5.382204   
551.500000	4.997643   
552.000000	4.634992   
552.500000	4.273030   
553.000000	3.781893   
553.500000	3.505560   
554.000000	3.427318   
554.500000	3.443863   
555.000000	3.289454   
555.500000	3.213234   
556.000000	3.284954   
556.500000	3.462598   
557.000000	3.398121   
557.500000	3.286840   
558.000000	3.339356   
558.500000	3.488431   
559.000000	3.522416   
559.500000	3.292333   
560.000000	3.141590   
560.500000	3.221681   
561.000000	3.437530   
561.500000	3.414446   
562.000000	3.284954   
562.500000	3.097287   
563.000000	3.161303   
563.500000	3.231113   
564.000000	3.221386   
564.500000	3.051393   
565.000000	3.034356   
565.500000	3.276272   
566.000000	3.529030   
566.500000	3.412159   
567.000000	3.064628   
567.500000	2.855090   
568.000000	2.999348   
568.500000	3.253984   
569.000000	3.432643   
569.500000	3.378909   
570.000000	3.199719   
570.500000	3.144113   
571.000000	3.246537   
571.500000	3.359083   
572.000000	3.227113   
572.500000	3.079234   
573.000000	3.051856   
573.500000	3.192681   
574.000000	3.187075   
574.500000	3.232022   
575.000000	3.317454   
575.500000	3.504893   
576.000000	3.492257   
576.500000	3.496878   
577.000000	3.367681   
577.500000	3.316689   
578.000000	3.245803   
578.500000	3.251083   
579.000000	3.151333   
579.500000	2.969386   
580.000000	2.867530   
580.500000	2.885295   
581.000000	3.049515   
581.500000	3.301121   
582.000000	3.669439   
582.500000	3.810742   
583.000000	3.638439   
583.500000	3.390356   
584.000000	3.371492   
584.500000	3.355128   
585.000000	3.337128   
585.500000	3.264340   
586.000000	3.442583   
586.500000	3.555856   
587.000000	3.639492   
587.500000	3.715954   
588.000000	3.853727   
588.500000	3.711151   
589.000000	3.551856   
589.500000	3.674318   
590.000000	4.277833   
590.500000	4.545924   
591.000000	4.361371   
591.500000	3.932924   
592.000000	4.027507   
592.500000	4.245833   
593.000000	4.361848   
593.500000	4.062507   
594.000000	3.916469   
594.500000	4.160060   
595.000000	4.558106   
595.500000	4.812954   
596.000000	4.863757   
596.500000	5.059681   
597.000000	5.118522   
597.500000	5.091121   
598.000000	4.951643   
598.500000	5.018583   
599.000000	5.084212   
599.500000	5.134818   
600.000000	5.178712   
600.500000	5.277984   
601.000000	5.342083   
601.500000	5.504848   
602.000000	5.774621   
602.500000	6.031954   
603.000000	6.106409   
603.500000	6.130583   
604.000000	5.992598   
604.500000	5.965636   
605.000000	6.026303   
605.500000	6.643727   
606.000000	7.255651   
606.500000	7.700060   
607.000000	7.663742   
607.500000	7.604515   
608.000000	7.516757   
608.500000	7.622234   
609.000000	8.055212   
609.500000	8.715371   
610.000000	9.177098   
610.500000	9.143992   
611.000000	9.344272   
611.500000	9.818901   
612.000000	10.408492  
612.500000	10.402742  
613.000000	10.411045  
613.500000	10.681886  
614.000000	11.159060  
614.500000	11.314871  
615.000000	11.362007  
615.500000	11.746893  
616.000000	12.583015  
616.500000	13.488772  
617.000000	13.764628  
617.500000	13.700075  
618.000000	13.237530  
618.500000	13.647606  
619.000000	14.335151  
619.500000	15.566015  
620.000000	16.300681  
620.500000	17.154469  
621.000000	17.495113  
621.500000	18.017416  
622.000000	18.362484  
622.500000	19.082893  
623.000000	19.939401  
623.500000	20.717583  
624.000000	21.508409  
624.500000	22.629621  
625.000000	23.818128  
625.500000	24.837000  
626.000000	25.407704  
626.500000	26.607037  
627.000000	28.143681  
627.500000	29.440780  
628.000000	29.704500  
628.500000	30.102901  
629.000000	30.910083  
629.500000	32.090469  
630.000000	33.386159  
630.500000	35.050681  
631.000000	36.488462  
631.500000	37.499371  
632.000000	38.578628  
632.500000	40.427280  
633.000000	41.824356  
633.500000	42.953696  
634.000000	44.417818  
634.500000	46.629954  
635.000000	48.291803  
635.500000	49.242984  
636.000000	50.368045  
636.500000	51.860431  
637.000000	52.906234  
637.500000	53.898242  
638.000000	55.780166  
638.500000	58.144803  
639.000000	60.263727  
639.500000	62.236303  
640.000000	64.352810  
640.500000	66.574174  
641.000000	68.427643  
641.500000	70.009484  
642.000000	71.671325  
642.500000	73.653560  
643.000000	76.335628  
643.500000	79.383166  
644.000000	81.610401  
644.500000	82.839803  
645.000000	84.013765  
645.500000	85.927439  
646.000000	88.621378  
646.500000	90.531128  
647.000000	91.626636  
647.500000	92.944825  
648.000000	94.841492  
648.500000	97.049318  
649.000000	98.847507  
649.500000	101.131825 
650.000000	103.760810 
650.500000	106.736515 
651.000000	109.106636 
651.500000	111.184431 
652.000000	112.612909 
652.500000	114.937575 
653.000000	118.154333 
653.500000	120.800787 
654.000000	122.616893 
654.500000	124.205128 
655.000000	126.324750 
655.500000	128.630098 
656.000000	131.498037 
656.500000	134.328575 
657.000000	136.290750 
657.500000	137.171719 
658.000000	137.885189 
658.500000	139.550196 
659.000000	141.161469 
659.500000	143.993045 
660.000000	146.766931 
660.500000	148.874742 
661.000000	149.943500 
661.500000	152.391939 
662.000000	155.412128 
662.500000	157.084674 
663.000000	157.304924 
663.500000	158.277462 
664.000000	160.926371 
664.500000	163.178469 
665.000000	164.487250 
665.500000	165.938477 
666.000000	167.343840 
666.500000	168.431272 
667.000000	169.219166 
667.500000	170.522431 
668.000000	172.051962 
668.500000	172.728522 
669.000000	173.004113 
669.500000	173.546363 
670.000000	174.456204 
670.500000	175.362681 
671.000000	176.142469 
671.500000	176.216977 
672.000000	174.879939 
672.500000	173.669166 
673.000000	173.478113 
673.500000	174.891833 
674.000000	175.210727 
674.500000	175.211287 
675.000000	175.189787 
675.500000	176.070787 
676.000000	175.882886 
676.500000	175.634893 
677.000000	175.721098 
677.500000	176.041295 
678.000000	175.144795 
678.500000	173.614727 
679.000000	172.626545 
679.500000	172.009598 
680.000000	170.100492 
680.500000	166.810409 
681.000000	163.723303 
681.500000	162.149628 
682.000000	161.244757 
682.500000	159.887409 
683.000000	158.055295 
683.500000	156.621060 
684.000000	155.305234 
684.500000	152.419348 
685.000000	149.270780 
685.500000	146.962113 
686.000000	146.044765 
686.500000	144.184295 
687.000000	141.672848 
687.500000	138.902083 
688.000000	136.491068 
688.500000	133.518151 
689.000000	130.599507 
689.500000	127.869121 
690.000000	125.140416 
690.500000	122.070325 
691.000000	119.044250 
691.500000	116.487878 
692.000000	114.284257 
692.500000	112.264840 
693.000000	110.012598 
693.500000	107.602265 
694.000000	104.122893 
694.500000	100.245393 
695.000000	96.157113  
695.500000	93.256613  
696.000000	91.021037  
696.500000	89.360242  
697.000000	87.349780  
697.500000	85.131537  
698.000000	82.568053  
698.500000	79.896053  
699.000000	77.251280  
699.500000	74.597234  
700.000000	72.492598  
700.500000	71.128325  
701.000000	69.790499  
701.500000	67.709454  
702.000000	65.498545  
702.500000	62.922734  
703.000000	60.632106  
703.500000	58.749234  
704.000000	57.909643  
704.500000	56.797143  
705.000000	55.272765  
705.500000	52.990477  
706.000000	51.167340  
706.500000	49.261484  
707.000000	47.678287  
707.500000	46.869454  
708.000000	46.524007  
708.500000	45.875954  
709.000000	44.320643  
709.500000	42.413265  
710.000000	40.129378  
710.500000	38.541681  
711.000000	37.691075  
711.500000	37.525613  
712.000000	36.832272  
712.500000	35.853083  
713.000000	34.599303  
713.500000	33.340007  
714.000000	32.092537  
714.500000	31.742454  
715.000000	31.781704  
715.500000	30.917250  
716.000000	29.086636  
716.500000	27.660515  
717.000000	27.344560  
717.500000	27.132787  
718.000000	26.330954  
718.500000	25.055265  
719.000000	23.964992  
719.500000	23.183015  
720.000000	22.512166  
720.500000	22.045681  
721.000000	21.452757  
721.500000	21.115393  
722.000000	20.663424  
722.500000	20.154416  
723.000000	19.260833  
723.500000	18.285681  
724.000000	17.723780  
724.500000	17.847962  
725.000000	18.366257  
725.500000	18.352371  
726.000000	17.942734  
726.500000	17.122848  
727.000000	16.235575  
727.500000	15.244196  
728.000000	14.461977  
728.500000	13.992575  
729.000000	13.856166  
729.500000	13.781083  
730.000000	13.661553  
730.500000	13.382181  
731.000000	13.202151  
731.500000	13.093030  
732.000000	12.950340  
732.500000	12.442371  
733.000000	11.932348  
733.500000	11.474939  
734.000000	11.333265  
734.500000	10.978363  
735.000000	10.626227  
735.500000	10.164893  
736.000000	10.159393  
736.500000	10.135553  
737.000000	10.060810  
737.500000	9.782136   
738.000000	9.407909   
738.500000	9.080136   
739.000000	8.853287   
739.500000	8.715507   
740.000000	8.566212   
740.500000	8.393651   
741.000000	8.334992   
741.500000	8.214704   
742.000000	8.080356   
742.500000	8.010568   
743.000000	8.214704   
743.500000	8.091181   
744.000000	7.652515   
744.500000	7.185234   
745.000000	6.987992   
745.500000	6.793810   
746.000000	6.569909   
746.500000	6.398045   
747.000000	6.220848   
747.500000	6.072318   
748.000000	6.157401   
748.500000	6.416848   
749.000000	6.588530   
749.500000	6.552318   
750.000000	6.387439   
750.500000	6.122106   
751.000000	5.689719   
751.500000	5.449416   
752.000000	5.399765   
752.500000	5.477712   
753.000000	5.428969   
753.500000	5.363310   
754.000000	5.163416   
754.500000	5.049787   
755.000000	4.879143   
755.500000	4.883075   
756.000000	4.921530   
756.500000	4.998818   
757.000000	4.984886   
757.500000	4.865469   
758.000000	4.794174   
758.500000	4.725803   
759.000000	4.593606   
759.500000	4.329098   
760.000000	4.060500   
760.500000	3.873401   
761.000000	3.871734   
761.500000	4.120022   
762.000000	4.396568   
762.500000	4.651924   
763.000000	4.505689   
763.500000	4.448560   
764.000000	4.383106   
764.500000	4.364015   
765.000000	4.238378   
765.500000	4.261242   
766.000000	4.439424   
766.500000	4.438901   
767.000000	4.102590   
767.500000	3.654954   
768.000000	3.442333   
768.500000	3.434772   
769.000000	3.486007   
769.500000	3.583393   
770.000000	3.623871   
770.500000	3.622500   
771.000000	3.489568   
771.500000	3.317583   
772.000000	3.277575   
772.500000	3.342492   
773.000000	3.500416   
773.500000	3.496916   
774.000000	3.451560   
774.500000	3.275924   
775.000000	3.185606   
775.500000	3.167939   
776.000000	3.196462   
776.500000	3.162227   
777.000000	3.088446   
777.500000	3.114060   
778.000000	3.184166   
778.500000	3.208045   
779.000000	3.085659   
779.500000	2.896969   
780.000000	2.773689   
780.500000	2.852204   
781.000000	2.999750   
781.500000	3.016106   
782.000000	2.967295   
782.500000	2.935121   
783.000000	2.994878   
783.500000	2.954340   
784.000000	2.829401   
784.500000	2.650462   
785.000000	2.586537   
785.500000	2.527386   
786.000000	2.538681   
786.500000	2.592181   
787.000000	2.771893   
787.500000	2.948522   
788.000000	3.000606   
788.500000	2.868143   
789.000000	2.782090   
789.500000	2.763143   
790.000000	2.784015   
790.500000	2.639590   
791.000000	2.326257   
791.500000	2.031151   
792.000000	2.025189   
792.500000	2.187992   
793.000000	2.352378   
793.500000	2.370833   
794.000000	2.422780   
794.500000	2.444727   
795.000000	2.499939   
795.500000	2.533128   
796.000000	2.750484   
796.500000	2.701924   
797.000000	2.422931   
797.500000	1.873818   
798.000000	1.635356   
798.500000	1.741962   
799.000000	2.113590   
799.500000	2.271628   
800.000000	2.245674   
800.500000	2.090143   
801.000000	2.052136   
801.500000	2.082022   
802.000000	1.976568   
802.500000	1.829803   
803.000000	1.833303   
803.500000	2.086742   
804.000000	2.199113   
804.500000	2.183734   
805.000000	2.072113   
805.500000	2.100378   
806.000000	1.958363   
806.500000	1.732871   
807.000000	1.580227   
807.500000	1.686393   
808.000000	1.827219   
808.500000	1.789340   
809.000000	1.651780   
809.500000	1.553886   
810.000000	1.535507   
810.500000	1.584621   
811.000000	1.630848   
811.500000	1.736909   
812.000000	1.871113   
812.500000	1.838840   
813.000000	1.782659   
813.500000	1.767295   
814.000000	1.822977   
814.500000	1.735522   
815.000000	1.518424   
815.500000	1.318886   
816.000000	1.279242   
816.500000	1.328992   
817.000000	1.431863   
817.500000	1.495128   
818.000000	1.441409   
818.500000	1.426378   
819.000000	1.569840   
819.500000	1.665545   
820.000000	1.785643   
820.500000	1.872022   
821.000000	2.071734   
821.500000	2.175356   
822.000000	2.233863   
822.500000	2.319348   
823.000000	2.396901   
823.500000	2.316121   
824.000000	2.262598   
824.500000	2.275909   
825.000000	2.373181   
825.500000	2.447962   
826.000000	2.452121   
826.500000	2.405212   
827.000000	2.441204   
827.500000	2.432810   
828.000000	2.302287   
828.500000	2.037393   
829.000000	1.719166   
829.500000	1.507962   
830.000000	1.462272   
830.500000	1.571984   
831.000000	1.561825   
831.500000	1.355507   
832.000000	1.068878   
832.500000	0.985636   
833.000000	0.983348   
833.500000	1.030954   
834.000000	1.055477   
834.500000	1.118765   
835.000000	1.137984   
835.500000	1.111969   
836.000000	1.079257   
836.500000	1.056265   
837.000000	1.067606   
837.500000	1.023280   
838.000000	0.925196   
838.500000	0.807924   
839.000000	0.744477   
839.500000	0.676477   
840.000000	0.644939   
840.500000	0.693492   
841.000000	0.805901   
841.500000	0.880522   
842.000000	0.831772   
842.500000	0.739924   
843.000000	0.591780   
843.500000	0.530189   
844.000000	0.516818   
844.500000	0.571621   
845.000000	0.552037   
845.500000	0.474348   
846.000000	0.434871   
846.500000	0.388575   
847.000000	0.310409   
847.500000	0.207227   
848.000000	0.244886   
848.500000	0.276310   
849.000000	0.241954   
849.500000	0.092553   
850.000000	0.000757   
850.500000	0.017409   
851.000000	0.156598   
851.500000	0.320249   
852.000000	0.381257   
852.500000	0.249454   
853.000000	0.092916   
853.500000	0.025257   
854.000000	0.062719   
854.500000	0.049143   
855.000000	0.047969   
855.500000	0.098136   
856.000000	0.221553   
856.500000	0.240212   
857.000000	0.175757   
857.500000	0.076037   
858.000000	0.036803   
858.500000	-0.017219  
859.000000	-0.107537  
859.500000	-0.229386  
860.000000	-0.275946  
860.500000	-0.298909  
861.000000	-0.193356  
861.500000	-0.090484  
862.000000	-0.041628  
862.500000	-0.046946  
863.000000	-0.004590  
863.500000	0.089090   
864.000000	0.124166   
864.500000	0.111734   
865.000000	0.000545   
865.500000	-0.073022  
866.000000	-0.124386  
866.500000	-0.021439  
867.000000	0.060234   
867.500000	0.152477   
868.000000	0.245469   
868.500000	0.231954   
869.000000	0.047166   
869.500000	-0.163454  
870.000000	-0.202825  
870.500000	-0.036568  
871.000000	0.083007   
871.500000	0.083128   
872.000000	-0.042772  
872.500000	-0.062212  
873.000000	0.002810   
873.500000	0.109484   
874.000000	0.073651   
874.500000	0.042613   
875.000000	0.044015   
875.500000	0.052507   
876.000000	0.012621   
876.500000	0.060492   
877.000000	0.054287   
877.500000	-0.035628  
878.000000	-0.218045  
878.500000	-0.186681  
879.000000	-0.067393  
879.500000	0.114386   
880.000000	0.081386   
880.500000	0.031962   
881.000000	-0.042401  
881.500000	-0.016424  
882.000000	-0.029098  
882.500000	-0.039492  
883.000000	-0.129659  
883.500000	-0.160045  
884.000000	-0.213446  
884.500000	-0.203553  
885.000000	-0.175795  
885.500000	-0.077704  
886.000000	-0.007939  
886.500000	0.064909   
887.000000	0.086606   
887.500000	0.100159   
888.000000	0.038090   
888.500000	-0.004856  
889.000000	0.008871   
889.500000	0.083022   
890.000000	0.011666   
890.500000	-0.008810  
891.000000	0.029045   
891.500000	0.198886   
892.000000	0.159613   
892.500000	-0.066212  
893.000000	-0.328727  
893.500000	-0.355159  
894.000000	-0.275022  
894.500000	-0.080484  
895.000000	0.073287   
895.500000	0.153325   
896.000000	0.108060   
896.500000	0.048143   
897.000000	-0.047492  
897.500000	-0.066583  
898.000000	-0.139469  
898.500000	-0.078962  
899.000000	0.030250   
899.500000	0.109757   
900.000000	-0.060303  
900.500000	-0.433000  

