PE FL                   SPECTRUM    ASCII       PEDS        1.60        
  -1
S12R#14.SP
24/04/15
15:58:13.00
24/04/15
15:59:38.00
Jan

900.500000
1









LS55
405.00
5.00
5.00
SCAN
1
20
100
100
0
400
0
1
0
1
5
ON
900 405 
1 0 0
#HDR
-1
-1
#GR
NM

0.00002384185791015625
0.0
450.000000
0.500000
902
8
187.679469
-0.475431
#DATA
450.000000	0.606999   
450.500000	-0.032318  
451.000000	-0.226030  
451.500000	-0.066856  
452.000000	-0.006651  
452.500000	-0.148977  
453.000000	-0.248742  
453.500000	-0.168871  
454.000000	-0.156189  
454.500000	-0.323219  
455.000000	-0.475431  
455.500000	-0.359795  
456.000000	-0.141121  
456.500000	-0.059204  
457.000000	-0.117113  
457.500000	-0.202856  
458.000000	-0.245893  
458.500000	-0.244287  
459.000000	-0.178863  
459.500000	-0.147098  
460.000000	-0.181022  
460.500000	-0.238431  
461.000000	-0.124446  
461.500000	0.045022   
462.000000	0.174613   
462.500000	0.115462   
463.000000	0.005765   
463.500000	-0.164083  
464.000000	-0.211939  
464.500000	-0.015954  
465.000000	0.231439   
465.500000	0.220500   
466.000000	-0.036893  
466.500000	-0.106000  
467.000000	-0.013666  
467.500000	-0.020356  
468.000000	-0.252621  
468.500000	-0.295590  
469.000000	-0.192265  
469.500000	-0.010212  
470.000000	0.051287   
470.500000	0.175272   
471.000000	0.201909   
471.500000	0.171234   
472.000000	0.024719   
472.500000	0.000492   
473.000000	-0.063295  
473.500000	-0.160590  
474.000000	-0.300053  
474.500000	-0.361856  
475.000000	-0.294666  
475.500000	-0.164401  
476.000000	-0.077136  
476.500000	-0.064181  
477.000000	-0.010272  
477.500000	0.055030   
478.000000	0.126946   
478.500000	0.134204   
479.000000	0.127909   
479.500000	0.089136   
480.000000	-0.020409  
480.500000	-0.186295  
481.000000	-0.302636  
481.500000	-0.203659  
482.000000	-0.031303  
482.500000	0.292159   
483.000000	0.488787   
483.500000	0.529090   
484.000000	0.274992   
484.500000	-0.022174  
485.000000	-0.232621  
485.500000	-0.113833  
486.000000	0.080204   
486.500000	0.100098   
487.000000	-0.039780  
487.500000	-0.117037  
488.000000	-0.029446  
488.500000	0.003401   
489.000000	-0.104227  
489.500000	-0.123969  
490.000000	0.075553   
490.500000	0.331712   
491.000000	0.354166   
491.500000	0.161272   
492.000000	-0.026477  
492.500000	-0.051189  
493.000000	-0.036825  
493.500000	-0.040356  
494.000000	0.015871   
494.500000	0.167681   
495.000000	0.239257   
495.500000	0.232583   
496.000000	0.197318   
496.500000	0.258553   
497.000000	0.290765   
497.500000	0.332803   
498.000000	0.377575   
498.500000	0.491386   
499.000000	0.666015   
499.500000	0.866893   
500.000000	0.980689   
500.500000	0.998863   
501.000000	0.953856   
501.500000	0.900469   
502.000000	0.793863   
502.500000	0.853340   
503.000000	0.996477   
503.500000	1.182098   
504.000000	1.243681   
504.500000	1.244946   
505.000000	1.199712   
505.500000	1.155628   
506.000000	1.300318   
506.500000	1.308106   
507.000000	1.283325   
507.500000	1.285424   
508.000000	1.785750   
508.500000	2.352030   
509.000000	2.578477   
509.500000	2.385484   
510.000000	2.247477   
510.500000	2.312439   
511.000000	2.523250   
511.500000	2.680757   
512.000000	2.774719   
512.500000	2.785196   
513.000000	2.783106   
513.500000	2.728530   
514.000000	2.814045   
514.500000	2.953340   
515.000000	3.182643   
515.500000	3.320333   
516.000000	3.426068   
516.500000	3.338818   
517.000000	3.188257   
517.500000	2.985795   
518.000000	3.077575   
518.500000	3.228598   
519.000000	3.361537   
519.500000	3.309727   
520.000000	3.314090   
520.500000	3.410606   
521.000000	3.439886   
521.500000	3.412356   
522.000000	3.173045   
522.500000	2.986287   
523.000000	2.850477   
523.500000	3.171984   
524.000000	3.568083   
524.500000	3.806871   
525.000000	3.811803   
525.500000	3.836689   
526.000000	4.125318   
526.500000	4.415507   
527.000000	4.566053   
527.500000	4.420636   
528.000000	4.344446   
528.500000	4.484590   
529.000000	4.892810   
529.500000	5.161083   
530.000000	5.288431   
530.500000	5.467787   
531.000000	5.595022   
531.500000	5.853780   
532.000000	6.246931   
532.500000	6.669522   
533.000000	6.815045   
533.500000	6.845613   
534.000000	7.072196   
534.500000	7.637590   
535.000000	8.124893   
535.500000	8.244212   
536.000000	8.216643   
536.500000	8.471712   
537.000000	9.200151   
537.500000	10.089386  
538.000000	10.784780  
538.500000	11.316931  
539.000000	11.773810  
539.500000	12.409333  
540.000000	13.034128  
540.500000	13.733090  
541.000000	13.981666  
541.500000	14.005924  
542.000000	13.926348  
542.500000	14.489446  
543.000000	14.786075  
543.500000	14.354537  
544.000000	12.906159  
544.500000	11.903628  
545.000000	11.565954  
545.500000	11.486431  
546.000000	10.903984  
546.500000	10.176704  
547.000000	9.586833   
547.500000	9.007492   
548.000000	8.311265   
548.500000	7.561416   
549.000000	7.205909   
549.500000	7.102712   
550.000000	6.931363   
550.500000	6.211803   
551.000000	5.409318   
551.500000	4.753204   
552.000000	4.369007   
552.500000	3.824431   
553.000000	3.388863   
553.500000	3.272643   
554.000000	3.479393   
554.500000	3.546106   
555.000000	3.502886   
555.500000	3.344015   
556.000000	3.229015   
556.500000	3.116363   
557.000000	3.230931   
557.500000	3.499621   
558.000000	3.722954   
558.500000	3.415477   
559.000000	3.030098   
559.500000	2.887007   
560.000000	3.072643   
560.500000	3.288098   
561.000000	3.260757   
561.500000	3.136492   
562.000000	3.020636   
562.500000	3.113924   
563.000000	3.248734   
563.500000	3.367015   
564.000000	3.284393   
564.500000	3.253371   
565.000000	3.242674   
565.500000	3.226204   
566.000000	3.233219   
566.500000	3.220015   
567.000000	3.264598   
567.500000	3.290136   
568.000000	3.315037   
568.500000	3.268356   
569.000000	3.278075   
569.500000	3.346590   
570.000000	3.538606   
570.500000	3.631977   
571.000000	3.579227   
571.500000	3.362537   
572.000000	3.140757   
572.500000	3.032522   
573.000000	3.209022   
573.500000	3.494280   
574.000000	3.669484   
574.500000	3.655287   
575.000000	3.613007   
575.500000	3.589666   
576.000000	3.437931   
576.500000	3.098477   
577.000000	3.035030   
577.500000	3.307590   
578.000000	3.614636   
578.500000	3.510060   
579.000000	3.373886   
579.500000	3.370257   
580.000000	3.596689   
580.500000	3.646166   
581.000000	3.584439   
581.500000	3.426007   
582.000000	3.280325   
582.500000	3.224250   
583.000000	3.314810   
583.500000	3.521666   
584.000000	3.712772   
584.500000	3.752166   
585.000000	3.751325   
585.500000	3.804931   
586.000000	3.899356   
586.500000	3.904749   
587.000000	3.953712   
587.500000	3.899250   
588.000000	3.732227   
588.500000	3.492530   
589.000000	3.465712   
589.500000	3.548977   
590.000000	3.777280   
590.500000	3.960810   
591.000000	4.101280   
591.500000	3.856712   
592.000000	3.604265   
592.500000	3.457136   
593.000000	3.854772   
593.500000	4.434469   
594.000000	5.012295   
594.500000	5.088787   
595.000000	4.759431   
595.500000	4.379742   
596.000000	4.233696   
596.500000	4.491522   
597.000000	4.678666   
597.500000	4.719348   
598.000000	4.375795   
598.500000	4.205439   
599.000000	4.435583   
599.500000	4.881553   
600.000000	4.974628   
600.500000	4.816250   
601.000000	5.004318   
601.500000	5.549545   
602.000000	6.024590   
602.500000	5.891977   
603.000000	5.638166   
603.500000	5.666196   
604.000000	5.799893   
604.500000	6.055674   
605.000000	6.336340   
605.500000	6.762689   
606.000000	6.825333   
606.500000	6.866568   
607.000000	6.787575   
607.500000	7.100371   
608.000000	7.302765   
608.500000	7.679128   
609.000000	7.765446   
609.500000	7.788742   
610.000000	7.670507   
610.500000	7.921424   
611.000000	8.087772   
611.500000	8.171515   
612.000000	8.218409   
612.500000	8.738106   
613.000000	9.521742   
613.500000	10.168075  
614.000000	10.557113  
614.500000	10.915022  
615.000000	11.465924  
615.500000	11.950621  
616.000000	12.126439  
616.500000	12.219204  
617.000000	12.808477  
617.500000	13.371984  
618.000000	13.506000  
618.500000	13.344318  
619.000000	13.868651  
619.500000	14.844143  
620.000000	15.578734  
620.500000	15.590075  
621.000000	15.850121  
621.500000	16.790000  
622.000000	17.900356  
622.500000	18.626696  
623.000000	18.970818  
623.500000	19.454212  
624.000000	19.981583  
624.500000	20.469393  
625.000000	20.969378  
625.500000	21.854166  
626.000000	23.069992  
626.500000	24.581204  
627.000000	25.789136  
627.500000	26.351446  
628.000000	26.729750  
628.500000	27.528977  
629.000000	28.658719  
629.500000	29.353803  
630.000000	29.622431  
630.500000	30.079234  
631.000000	31.308916  
631.500000	33.368666  
632.000000	35.645719  
632.500000	37.224863  
633.000000	38.081257  
633.500000	39.335121  
634.000000	41.335924  
634.500000	43.260666  
635.000000	44.401893  
635.500000	45.246151  
636.000000	46.434037  
636.500000	48.105166  
637.000000	49.856772  
637.500000	51.071954  
638.000000	52.082636  
638.500000	53.132863  
639.000000	54.561727  
639.500000	56.232424  
640.000000	58.403628  
640.500000	61.029742  
641.000000	63.857613  
641.500000	66.091742  
642.000000	68.080901  
642.500000	69.680151  
643.000000	71.033931  
643.500000	72.434818  
644.000000	74.901507  
644.500000	77.447098  
645.000000	79.022659  
645.500000	79.449772  
646.000000	80.890098  
646.500000	84.008833  
647.000000	87.923598  
647.500000	90.976136  
648.000000	93.390219  
648.500000	95.149174  
649.000000	97.082431  
649.500000	99.379515  
650.000000	102.127833 
650.500000	104.210257 
651.000000	105.249750 
651.500000	106.455909 
652.000000	108.616969 
652.500000	111.850053 
653.000000	114.248742 
653.500000	115.726515 
654.000000	116.507757 
654.500000	118.450386 
655.000000	121.142719 
655.500000	124.217424 
656.000000	127.426174 
656.500000	130.160613 
657.000000	132.381939 
657.500000	133.298939 
658.000000	134.594333 
658.500000	136.908984 
659.000000	140.715492 
659.500000	144.021462 
660.000000	146.056159 
660.500000	147.958242 
661.000000	150.468840 
661.500000	152.974727 
662.000000	154.063734 
662.500000	156.082037 
663.000000	158.523825 
663.500000	160.502977 
664.000000	160.378780 
664.500000	161.163484 
665.000000	163.236000 
665.500000	166.031303 
666.000000	167.626545 
666.500000	169.140818 
667.000000	170.669613 
667.500000	173.172643 
668.000000	174.789984 
668.500000	176.165492 
669.000000	177.071121 
669.500000	178.338939 
670.000000	179.432068 
670.500000	179.744143 
671.000000	180.043825 
671.500000	180.956500 
672.000000	182.219795 
672.500000	182.613037 
673.000000	182.716098 
673.500000	183.048083 
674.000000	183.511750 
674.500000	184.393795 
675.000000	185.440795 
675.500000	187.557416 
676.000000	187.679469 
676.500000	186.561310 
677.000000	183.936015 
677.500000	182.563030 
678.000000	180.629477 
678.500000	180.392325 
679.000000	180.664371 
679.500000	181.609803 
680.000000	181.524666 
680.500000	180.501212 
681.000000	178.797325 
681.500000	176.489000 
682.000000	174.490674 
682.500000	172.964037 
683.000000	171.988053 
683.500000	170.732704 
684.000000	169.021772 
684.500000	166.631143 
685.000000	163.817189 
685.500000	161.808325 
686.000000	160.689484 
686.500000	159.317272 
687.000000	156.614204 
687.500000	152.522568 
688.000000	149.033568 
688.500000	146.714810 
689.000000	144.713181 
689.500000	142.314878 
690.000000	139.460575 
690.500000	137.618568 
691.000000	134.841863 
691.500000	131.700818 
692.000000	128.048219 
692.500000	126.443287 
693.000000	124.634234 
693.500000	121.921939 
694.000000	117.673659 
694.500000	114.014318 
695.000000	111.056909 
695.500000	108.364734 
696.000000	105.150371 
696.500000	102.228363 
697.000000	99.602439  
697.500000	97.450318  
698.000000	94.514939  
698.500000	91.830643  
699.000000	89.167280  
699.500000	87.886954  
700.000000	85.407257  
700.500000	83.053265  
701.000000	80.001575  
701.500000	78.142946  
702.000000	75.554931  
702.500000	73.113318  
703.000000	70.597598  
703.500000	68.844234  
704.000000	66.986916  
704.500000	64.907515  
705.000000	62.684318  
705.500000	60.585765  
706.000000	58.609022  
706.500000	56.689787  
707.000000	55.157333  
707.500000	54.029689  
708.000000	53.406151  
708.500000	51.934174  
709.000000	49.596931  
709.500000	46.955613  
710.000000	45.827507  
710.500000	45.476068  
711.000000	45.301204  
711.500000	44.059537  
712.000000	42.584295  
712.500000	41.135636  
713.000000	39.731121  
713.500000	38.189446  
714.000000	36.708613  
714.500000	35.670856  
715.000000	35.129537  
715.500000	34.423984  
716.000000	33.173871  
716.500000	31.751931  
717.000000	30.964765  
717.500000	30.794007  
718.000000	30.079106  
718.500000	28.739454  
719.000000	27.529113  
719.500000	27.552795  
720.000000	27.350886  
720.500000	26.562719  
721.000000	24.866643  
721.500000	23.769287  
722.000000	23.096734  
722.500000	23.125106  
723.000000	22.861909  
723.500000	22.153750  
724.000000	21.049121  
724.500000	20.251030  
725.000000	19.810621  
725.500000	19.596856  
726.000000	19.154424  
726.500000	18.652439  
727.000000	17.981477  
727.500000	17.762007  
728.000000	17.553204  
728.500000	17.348530  
729.000000	16.670750  
729.500000	15.919431  
730.000000	15.188477  
730.500000	14.684333  
731.000000	14.438878  
731.500000	14.235772  
732.000000	14.171780  
732.500000	13.858871  
733.000000	13.401469  
733.500000	12.699621  
734.000000	12.184227  
734.500000	12.002022  
735.000000	12.105431  
735.500000	12.138537  
736.000000	11.933060  
736.500000	11.362454  
737.000000	10.556469  
737.500000	9.912545   
738.000000	9.834613   
738.500000	10.169840  
739.000000	10.478378  
739.500000	10.276856  
740.000000	9.868121   
740.500000	9.626734   
741.000000	9.532946   
741.500000	9.341871   
742.000000	8.918969   
742.500000	8.516704   
743.000000	8.212068   
743.500000	8.070484   
744.000000	7.729833   
744.500000	7.414689   
745.000000	7.167462   
745.500000	7.108136   
746.000000	7.269757   
746.500000	7.390075   
747.000000	7.541651   
747.500000	7.457310   
748.000000	7.391227   
748.500000	7.001636   
749.000000	6.704499   
749.500000	6.222810   
750.000000	6.081189   
750.500000	5.962348   
751.000000	6.053537   
751.500000	6.131121   
752.000000	6.195621   
752.500000	6.129757   
753.000000	6.101378   
753.500000	6.008810   
754.000000	5.760090   
754.500000	5.514280   
755.000000	5.385386   
755.500000	5.470931   
756.000000	5.541393   
756.500000	5.449522   
757.000000	5.132356   
757.500000	4.834606   
758.000000	4.784939   
758.500000	4.818181   
759.000000	4.781969   
759.500000	4.524946   
760.000000	4.474606   
760.500000	4.431469   
761.000000	4.496795   
761.500000	4.439606   
762.000000	4.425871   
762.500000	4.297446   
763.000000	4.237749   
763.500000	4.430439   
764.000000	4.701121   
764.500000	4.897613   
765.000000	4.729045   
765.500000	4.410333   
766.000000	3.990280   
766.500000	3.956795   
767.000000	4.207916   
767.500000	4.446590   
768.000000	4.086318   
768.500000	3.603219   
769.000000	3.389098   
769.500000	3.597977   
770.000000	3.692462   
770.500000	3.825174   
771.000000	3.910833   
771.500000	3.933999   
772.000000	3.682083   
772.500000	3.465901   
773.000000	3.340393   
773.500000	3.347151   
774.000000	3.237636   
774.500000	3.347909   
775.000000	3.525409   
775.500000	3.652492   
776.000000	3.459507   
776.500000	3.288371   
777.000000	3.187189   
777.500000	3.210636   
778.000000	3.176371   
778.500000	3.072704   
779.000000	3.052803   
779.500000	3.038719   
780.000000	3.161515   
780.500000	3.243378   
781.000000	3.245136   
781.500000	2.984181   
782.000000	2.719280   
782.500000	2.570530   
783.000000	2.669727   
783.500000	2.888310   
784.000000	3.064462   
784.500000	3.116446   
785.000000	3.178681   
785.500000	3.302765   
786.000000	3.341287   
786.500000	3.133106   
787.000000	2.764621   
787.500000	2.545992   
788.000000	2.618734   
788.500000	2.783166   
789.000000	2.943075   
789.500000	2.965030   
790.000000	2.861431   
790.500000	2.547371   
791.000000	2.232750   
791.500000	2.127704   
792.000000	2.400431   
792.500000	2.632280   
793.000000	2.729916   
793.500000	2.553227   
794.000000	2.470863   
794.500000	2.530606   
795.000000	2.737946   
795.500000	2.783810   
796.000000	2.712696   
796.500000	2.406537   
797.000000	2.083545   
797.500000	1.918909   
798.000000	2.123181   
798.500000	2.355795   
799.000000	2.331515   
799.500000	2.086704   
800.000000	2.114477   
800.500000	2.455053   
801.000000	2.650113   
801.500000	2.509098   
802.000000	2.084886   
802.500000	1.671787   
803.000000	1.422848   
803.500000	1.510878   
804.000000	1.747090   
804.500000	1.849500   
805.000000	1.714000   
805.500000	1.516121   
806.000000	1.561356   
806.500000	1.825333   
807.000000	2.115795   
807.500000	2.138545   
808.000000	1.924553   
808.500000	1.773696   
809.000000	1.844621   
809.500000	1.971272   
810.000000	1.929128   
810.500000	1.698977   
811.000000	1.589196   
811.500000	1.750363   
812.000000	1.995545   
812.500000	1.929136   
813.000000	1.650666   
813.500000	1.483568   
814.000000	1.699280   
814.500000	1.842825   
815.000000	1.754909   
815.500000	1.498371   
816.000000	1.420401   
816.500000	1.319696   
817.000000	1.233484   
817.500000	1.128303   
818.000000	1.204659   
818.500000	1.321795   
819.000000	1.448340   
819.500000	1.605151   
820.000000	1.700242   
820.500000	1.727424   
821.000000	1.755075   
821.500000	2.023598   
822.000000	2.199696   
822.500000	2.244295   
823.000000	2.181075   
823.500000	2.257901   
824.000000	2.376825   
824.500000	2.493606   
825.000000	2.534984   
825.500000	2.516583   
826.000000	2.305992   
826.500000	2.069325   
827.000000	1.880068   
827.500000	1.958393   
828.000000	2.006757   
828.500000	1.892166   
829.000000	1.433954   
829.500000	1.174969   
830.000000	1.217507   
830.500000	1.513265   
831.000000	1.646340   
831.500000	1.500553   
832.000000	1.272530   
832.500000	1.166674   
833.000000	1.172727   
833.500000	1.151840   
834.000000	1.067500   
834.500000	1.040643   
835.000000	1.086371   
835.500000	1.077643   
836.000000	1.033469   
836.500000	1.006227   
837.000000	0.936446   
837.500000	0.870083   
838.000000	0.784492   
838.500000	0.798909   
839.000000	0.822212   
839.500000	0.861174   
840.000000	0.762090   
840.500000	0.704659   
841.000000	0.705037   
841.500000	0.795037   
842.000000	0.811106   
842.500000	0.707030   
843.000000	0.606174   
843.500000	0.513886   
844.000000	0.535462   
844.500000	0.570765   
845.000000	0.638628   
845.500000	0.572856   
846.000000	0.494303   
846.500000	0.364424   
847.000000	0.359424   
847.500000	0.380030   
848.000000	0.452462   
848.500000	0.383500   
849.000000	0.215212   
849.500000	0.039242   
850.000000	0.042659   
850.500000	0.152484   
851.000000	0.206303   
851.500000	0.141659   
852.000000	0.126659   
852.500000	0.200545   
853.000000	0.242840   
853.500000	0.187356   
854.000000	0.103500   
854.500000	0.165060   
855.000000	0.257295   
855.500000	0.334893   
856.000000	0.271825   
856.500000	0.198204   
857.000000	0.123113   
857.500000	0.117204   
858.000000	0.064674   
858.500000	0.012553   
859.000000	-0.023356  
859.500000	-0.026416  
860.000000	-0.068325  
860.500000	-0.127590  
861.000000	-0.138030  
861.500000	-0.056174  
862.000000	-0.011696  
862.500000	0.021674   
863.000000	-0.055643  
863.500000	-0.138863  
864.000000	-0.115462  
864.500000	-0.068590  
865.000000	-0.037068  
865.500000	-0.064946  
866.000000	-0.054257  
866.500000	-0.090946  
867.000000	-0.093265  
867.500000	-0.060727  
868.000000	0.053893   
868.500000	0.000954   
869.000000	-0.114333  
869.500000	-0.135507  
870.000000	-0.006719  
870.500000	0.048765   
871.000000	0.040219   
871.500000	-0.013454  
872.000000	-0.050871  
872.500000	-0.151333  
873.000000	-0.243280  
873.500000	-0.242121  
874.000000	-0.038613  
874.500000	0.090719   
875.000000	0.013053   
875.500000	-0.235825  
876.000000	-0.268787  
876.500000	-0.155924  
877.000000	-0.030727  
877.500000	-0.063462  
878.000000	-0.137106  
878.500000	-0.113727  
879.000000	-0.049515  
879.500000	-0.046499  
880.000000	-0.155022  
880.500000	-0.234053  
881.000000	-0.256045  
881.500000	-0.165939  
882.000000	-0.155795  
882.500000	-0.162234  
883.000000	-0.182893  
883.500000	-0.158992  
884.000000	-0.110469  
884.500000	-0.032742  
885.000000	0.026333   
885.500000	0.041212   
886.000000	-0.003219  
886.500000	-0.204068  
887.000000	-0.318393  
887.500000	-0.354037  
888.000000	-0.158916  
888.500000	0.039060   
889.000000	0.184045   
889.500000	0.072893   
890.000000	-0.040901  
890.500000	-0.151931  
891.000000	-0.143909  
891.500000	-0.207507  
892.000000	-0.204083  
892.500000	-0.221060  
893.000000	-0.177689  
893.500000	-0.206863  
894.000000	-0.126803  
894.500000	-0.018333  
895.000000	0.035333   
895.500000	-0.028265  
896.000000	-0.174916  
896.500000	-0.265098  
897.000000	-0.329636  
897.500000	-0.319992  
898.000000	-0.287098  
898.500000	-0.127712  
899.000000	0.039575   
899.500000	0.120477   
900.000000	-0.005159  
900.500000	-0.269000  

