PE FL                   SPECTRUM    ASCII       PEDS        1.60        
  -1
S12R#37.SP
24/04/15
16:31:01.00
24/04/15
16:32:26.00
Jan

900.500000
1









LS55
405.00
5.00
5.00
SCAN
1
20
100
100
0
400
0
1
0
1
5
ON
900 405 
1 0 0
#HDR
-1
-1
#GR
NM

0.00002384185791015625
0.0
450.000000
0.500000
902
8
166.725378
-0.506000
#DATA
450.000000	0.132000   
450.500000	-0.114954  
451.000000	-0.170090  
451.500000	-0.182575  
452.000000	-0.203469  
452.500000	-0.158090  
453.000000	0.040075   
453.500000	0.128204   
454.000000	0.147636   
454.500000	0.028522   
455.000000	-0.020022  
455.500000	-0.134272  
456.000000	-0.182954  
456.500000	-0.200090  
457.000000	-0.132500  
457.500000	-0.093030  
458.000000	-0.032598  
458.500000	0.030568   
459.000000	-0.006856  
459.500000	-0.073689  
460.000000	-0.183181  
460.500000	-0.217424  
461.000000	-0.182151  
461.500000	-0.053090  
462.000000	0.062060   
462.500000	0.063439   
463.000000	-0.125856  
463.500000	-0.317712  
464.000000	-0.382969  
464.500000	-0.234560  
465.000000	-0.075848  
465.500000	0.079007   
466.000000	0.031348   
466.500000	-0.073022  
467.000000	-0.158704  
467.500000	-0.080833  
468.000000	-0.040795  
468.500000	-0.092015  
469.000000	-0.077181  
469.500000	0.040295   
470.000000	0.172242   
470.500000	0.156727   
471.000000	0.066136   
471.500000	-0.077310  
472.000000	-0.247037  
472.500000	-0.315469  
473.000000	-0.279871  
473.500000	-0.195219  
474.000000	-0.220871  
474.500000	-0.266174  
475.000000	-0.328522  
475.500000	-0.291393  
476.000000	-0.173689  
476.500000	-0.065386  
477.000000	-0.063507  
477.500000	-0.115318  
478.000000	0.007386   
478.500000	0.130825   
479.000000	0.149090   
479.500000	0.025356   
480.000000	-0.022856  
480.500000	-0.041333  
481.000000	-0.009083  
481.500000	-0.020106  
482.000000	-0.033318  
482.500000	0.057181   
483.000000	0.161871   
483.500000	0.233469   
484.000000	0.131500   
484.500000	-0.076848  
485.000000	-0.236871  
485.500000	-0.228128  
486.000000	-0.007371  
486.500000	0.111772   
487.000000	0.029242   
487.500000	-0.331431  
488.000000	-0.377651  
488.500000	-0.258174  
489.000000	-0.024810  
489.500000	0.052393   
490.000000	0.111916   
490.500000	0.122840   
491.000000	0.140136   
491.500000	0.098431   
492.000000	0.001204   
492.500000	0.001037   
493.000000	0.106969   
493.500000	0.206515   
494.000000	0.083090   
494.500000	-0.106204  
495.000000	-0.042439  
495.500000	0.241151   
496.000000	0.385189   
496.500000	0.317416   
497.000000	0.226098   
497.500000	0.333363   
498.000000	0.597401   
498.500000	0.801204   
499.000000	0.851984   
499.500000	0.814856   
500.000000	0.772189   
500.500000	0.819015   
501.000000	0.843219   
501.500000	0.839106   
502.000000	0.760696   
502.500000	0.820651   
503.000000	0.961863   
503.500000	1.252015   
504.000000	1.338757   
504.500000	1.352833   
505.000000	1.313098   
505.500000	1.469477   
506.000000	1.580234   
506.500000	1.679234   
507.000000	1.545257   
507.500000	1.482439   
508.000000	1.507469   
508.500000	1.833530   
509.000000	2.198181   
509.500000	2.484196   
510.000000	2.464939   
510.500000	2.332174   
511.000000	2.279295   
511.500000	2.492477   
512.000000	2.767825   
512.500000	2.939613   
513.000000	2.829090   
513.500000	2.784659   
514.000000	2.866295   
514.500000	3.077636   
515.000000	3.099234   
515.500000	3.021583   
516.000000	2.948030   
516.500000	3.061401   
517.000000	3.180295   
517.500000	3.168287   
518.000000	3.073772   
518.500000	3.004030   
519.000000	3.003454   
519.500000	2.991106   
520.000000	3.109780   
520.500000	3.392856   
521.000000	3.683681   
521.500000	3.600098   
522.000000	3.422613   
522.500000	3.329878   
523.000000	3.473090   
523.500000	3.650787   
524.000000	3.784719   
524.500000	3.785166   
525.000000	3.732113   
525.500000	3.865318   
526.000000	4.178787   
526.500000	4.240393   
527.000000	3.976484   
527.500000	3.909878   
528.000000	4.187174   
528.500000	4.681143   
529.000000	4.959484   
529.500000	5.190992   
530.000000	5.404083   
530.500000	5.674962   
531.000000	5.870128   
531.500000	5.997500   
532.000000	6.015856   
532.500000	6.049393   
533.000000	6.374871   
533.500000	6.782651   
534.000000	7.359628   
534.500000	7.789439   
535.000000	8.100030   
535.500000	8.257848   
536.000000	8.435439   
536.500000	8.596265   
537.000000	8.915219   
537.500000	9.407000   
538.000000	10.174439  
538.500000	11.027181  
539.000000	11.755393  
539.500000	12.000439  
540.000000	12.336250  
540.500000	12.829469  
541.000000	13.700727  
541.500000	14.028628  
542.000000	13.846424  
542.500000	13.612310  
543.000000	13.937136  
543.500000	13.989871  
544.000000	13.232303  
544.500000	11.918060  
545.000000	10.809757  
545.500000	10.253530  
546.000000	9.968401   
546.500000	9.789507   
547.000000	9.633371   
547.500000	9.231969   
548.000000	8.474931   
548.500000	7.512628   
549.000000	6.800143   
549.500000	6.482446   
550.000000	6.361045   
550.500000	5.969227   
551.000000	5.348962   
551.500000	4.644007   
552.000000	4.051151   
552.500000	3.616515   
553.000000	3.350098   
553.500000	3.154515   
554.000000	3.123621   
554.500000	3.278272   
555.000000	3.538439   
555.500000	3.590765   
556.000000	3.354537   
556.500000	3.154030   
557.000000	3.128712   
557.500000	3.166045   
558.000000	3.183727   
558.500000	3.433015   
559.000000	3.722886   
559.500000	3.909833   
560.000000	3.726681   
560.500000	3.492977   
561.000000	3.318196   
561.500000	3.264840   
562.000000	3.255803   
562.500000	3.281477   
563.000000	3.268666   
563.500000	3.182212   
564.000000	3.064439   
564.500000	3.069045   
565.000000	3.191727   
565.500000	3.291810   
566.000000	3.142030   
566.500000	2.999212   
567.000000	3.118636   
567.500000	3.404393   
568.000000	3.478500   
568.500000	3.335022   
569.000000	3.334931   
569.500000	3.428469   
570.000000	3.379098   
570.500000	3.093030   
571.000000	2.954568   
571.500000	3.100818   
572.000000	3.314643   
572.500000	3.376477   
573.000000	3.332893   
573.500000	3.306992   
574.000000	3.352340   
574.500000	3.396848   
575.000000	3.250053   
575.500000	2.992439   
576.000000	2.881151   
576.500000	3.000242   
577.000000	3.244045   
577.500000	3.390484   
578.000000	3.408439   
578.500000	3.186803   
579.000000	3.051234   
579.500000	3.237401   
580.000000	3.751568   
580.500000	3.923022   
581.000000	3.654780   
581.500000	3.365492   
582.000000	3.441075   
582.500000	3.561454   
583.000000	3.575098   
583.500000	3.539924   
584.000000	3.551500   
584.500000	3.557340   
585.000000	3.591340   
585.500000	3.655219   
586.000000	3.668621   
586.500000	3.557030   
587.000000	3.338666   
587.500000	3.222393   
588.000000	3.313962   
588.500000	3.604446   
589.000000	3.902015   
589.500000	3.987515   
590.000000	3.877810   
590.500000	4.008166   
591.000000	4.323007   
591.500000	4.654810   
592.000000	4.567393   
592.500000	4.387560   
593.000000	4.299901   
593.500000	4.542022   
594.000000	4.486999   
594.500000	4.340727   
595.000000	4.377659   
595.500000	4.892742   
596.000000	5.100742   
596.500000	5.011363   
597.000000	4.838848   
597.500000	5.197621   
598.000000	5.296499   
598.500000	5.438954   
599.000000	5.487787   
599.500000	5.922840   
600.000000	6.063606   
600.500000	6.140469   
601.000000	5.924060   
601.500000	5.889909   
602.000000	5.956234   
602.500000	6.114696   
603.000000	6.182424   
603.500000	6.228765   
604.000000	6.614431   
604.500000	7.119060   
605.000000	7.428674   
605.500000	7.479742   
606.000000	7.597863   
606.500000	7.987446   
607.000000	8.337356   
607.500000	8.583037   
608.000000	8.444712   
608.500000	8.470628   
609.000000	8.574250   
609.500000	9.024340   
610.000000	9.525734   
610.500000	9.913606   
611.000000	10.165772  
611.500000	10.453318  
612.000000	10.891181  
612.500000	11.220212  
613.000000	11.407371  
613.500000	11.531931  
614.000000	11.786583  
614.500000	11.968189  
615.000000	12.376015  
615.500000	13.059712  
616.000000	14.149818  
616.500000	14.876909  
617.000000	15.169113  
617.500000	15.129037  
618.000000	15.638318  
618.500000	16.354037  
619.000000	16.960159  
619.500000	17.338303  
620.000000	17.735083  
620.500000	18.370810  
621.000000	19.179689  
621.500000	20.288992  
622.000000	21.086727  
622.500000	21.559621  
623.000000	21.914962  
623.500000	22.411219  
624.000000	22.761704  
624.500000	23.273257  
625.000000	24.419734  
625.500000	26.269818  
626.000000	27.806295  
626.500000	28.607780  
627.000000	29.315333  
627.500000	30.311674  
628.000000	31.475681  
628.500000	32.748113  
629.000000	34.299128  
629.500000	35.640295  
630.000000	36.551772  
630.500000	37.191219  
631.000000	38.415318  
631.500000	40.088568  
632.000000	41.857984  
632.500000	43.597022  
633.000000	45.196250  
633.500000	46.512446  
634.000000	47.456196  
634.500000	48.583083  
635.000000	50.258439  
635.500000	52.191530  
636.000000	53.580553  
636.500000	54.780045  
637.000000	56.709984  
637.500000	59.425295  
638.000000	62.188840  
638.500000	63.566522  
639.000000	64.531378  
639.500000	65.676196  
640.000000	67.681984  
640.500000	69.458856  
641.000000	70.973696  
641.500000	72.339507  
642.000000	74.133515  
642.500000	76.990348  
643.000000	80.093136  
643.500000	82.881363  
644.000000	84.117984  
644.500000	85.039545  
645.000000	86.833333  
645.500000	89.569166  
646.000000	92.031098  
646.500000	94.047068  
647.000000	96.358181  
647.500000	98.627053  
648.000000	100.710098 
648.500000	102.169113 
649.000000	102.964848 
649.500000	103.402196 
650.000000	104.299537 
650.500000	106.878340 
651.000000	110.554969 
651.500000	113.964068 
652.000000	115.967234 
652.500000	117.870401 
653.000000	119.725795 
653.500000	121.391893 
654.000000	122.848409 
654.500000	125.215386 
655.000000	127.981537 
655.500000	129.605727 
656.000000	130.281757 
656.500000	131.600454 
657.000000	134.637333 
657.500000	137.920810 
658.000000	139.883954 
658.500000	140.723696 
659.000000	141.424696 
659.500000	143.391469 
660.000000	146.127303 
660.500000	148.606143 
661.000000	149.727060 
661.500000	150.675098 
662.000000	152.315818 
662.500000	154.327969 
663.000000	156.152696 
663.500000	157.879636 
664.000000	159.421151 
664.500000	160.579537 
665.000000	161.218659 
665.500000	161.754378 
666.000000	162.328530 
666.500000	163.190174 
667.000000	164.845143 
667.500000	166.075363 
668.000000	165.122984 
668.500000	163.516280 
669.000000	164.050863 
669.500000	166.083719 
670.000000	166.578439 
670.500000	165.684969 
671.000000	164.911424 
671.500000	165.687954 
672.000000	166.414143 
672.500000	166.725378 
673.000000	166.484598 
673.500000	165.928227 
674.000000	165.597628 
674.500000	165.849196 
675.000000	166.488719 
675.500000	166.385522 
676.000000	165.106583 
676.500000	163.191386 
677.000000	161.600803 
677.500000	160.180583 
678.000000	158.566750 
678.500000	156.884863 
679.000000	155.677378 
679.500000	153.932651 
680.000000	152.090386 
680.500000	149.993159 
681.000000	148.772621 
681.500000	146.946522 
682.000000	144.779500 
682.500000	142.776189 
683.000000	142.012030 
683.500000	140.626469 
684.000000	137.872121 
684.500000	134.117053 
685.000000	130.944007 
685.500000	129.333348 
686.000000	128.355545 
686.500000	126.670250 
687.000000	123.720060 
687.500000	120.139734 
688.000000	116.689037 
688.500000	114.454280 
689.000000	112.362530 
689.500000	110.621053 
690.000000	107.874772 
690.500000	104.866909 
691.000000	101.739992 
691.500000	99.520962  
692.000000	97.249143  
692.500000	94.774484  
693.000000	91.688598  
693.500000	88.530454  
694.000000	85.850378  
694.500000	84.053431  
695.000000	82.758098  
695.500000	81.362613  
696.000000	79.177212  
696.500000	76.234227  
697.000000	72.795295  
697.500000	69.881545  
698.000000	67.989530  
698.500000	66.550204  
699.000000	65.404507  
699.500000	64.002492  
700.000000	62.298272  
700.500000	59.863227  
701.000000	57.633340  
701.500000	55.640628  
702.000000	53.969287  
702.500000	52.238696  
703.000000	50.698431  
703.500000	49.409659  
704.000000	48.135189  
704.500000	47.034136  
705.000000	45.929492  
705.500000	44.800272  
706.000000	43.241401  
706.500000	42.019363  
707.000000	40.918477  
707.500000	40.201113  
708.000000	39.178000  
708.500000	37.826257  
709.000000	36.299795  
709.500000	35.444681  
710.000000	34.879848  
710.500000	33.850159  
711.000000	32.607371  
711.500000	31.516621  
712.000000	30.852053  
712.500000	30.033454  
713.000000	29.312515  
713.500000	28.462106  
714.000000	27.151962  
714.500000	25.781477  
715.000000	25.184750  
715.500000	25.201674  
716.000000	24.624833  
716.500000	23.443037  
717.000000	22.365363  
717.500000	21.897643  
718.000000	21.444681  
718.500000	21.133272  
719.000000	20.847151  
719.500000	20.521712  
720.000000	19.829901  
720.500000	19.089515  
721.000000	18.294409  
721.500000	17.761166  
722.000000	17.417030  
722.500000	17.183878  
723.000000	16.535212  
723.500000	15.490007  
724.000000	14.745371  
724.500000	14.488492  
725.000000	14.597143  
725.500000	14.448484  
726.000000	14.200931  
726.500000	13.818659  
727.000000	13.591340  
727.500000	13.339424  
728.000000	13.014507  
728.500000	12.575424  
729.000000	12.133015  
729.500000	11.858924  
730.000000	11.780704  
730.500000	11.604401  
731.000000	11.408356  
731.500000	10.981886  
732.000000	10.666674  
732.500000	10.249287  
733.000000	9.902242   
733.500000	9.655113   
734.000000	9.842848   
734.500000	10.101765  
735.000000	10.200000  
735.500000	9.977015   
736.000000	9.265492   
736.500000	8.879409   
737.000000	8.829545   
737.500000	9.046977   
738.000000	8.774909   
738.500000	8.482477   
739.000000	8.295507   
739.500000	8.332477   
740.000000	7.987772   
740.500000	7.507992   
741.000000	7.072227   
741.500000	6.901628   
742.000000	6.877848   
742.500000	6.795090   
743.000000	6.566765   
743.500000	6.462060   
744.000000	6.434833   
744.500000	6.494181   
745.000000	6.400787   
745.500000	6.322257   
746.000000	6.109189   
746.500000	5.910628   
747.000000	5.769636   
747.500000	5.870446   
748.000000	5.827083   
748.500000	5.722522   
749.000000	5.532818   
749.500000	5.492924   
750.000000	5.369962   
750.500000	5.438371   
751.000000	5.500181   
751.500000	5.634219   
752.000000	5.551386   
752.500000	5.468409   
753.000000	5.338628   
753.500000	5.188727   
754.000000	4.984946   
754.500000	4.978704   
755.000000	4.933393   
755.500000	4.838681   
756.000000	4.659333   
756.500000	4.721772   
757.000000	4.702121   
757.500000	4.639969   
758.000000	4.346742   
758.500000	4.373560   
759.000000	4.539242   
759.500000	4.634492   
760.000000	4.385310   
760.500000	4.275704   
761.000000	4.400000   
761.500000	4.650856   
762.000000	4.558128   
762.500000	4.170431   
763.000000	3.797363   
763.500000	3.617045   
764.000000	3.647295   
764.500000	3.781522   
765.000000	4.013689   
765.500000	4.094765   
766.000000	4.085696   
766.500000	3.860750   
767.000000	3.659250   
767.500000	3.494606   
768.000000	3.439992   
768.500000	3.452575   
769.000000	3.515030   
769.500000	3.477560   
770.000000	3.466893   
770.500000	3.448840   
771.000000	3.377628   
771.500000	3.331295   
772.000000	3.388810   
772.500000	3.495416   
773.000000	3.470712   
773.500000	3.486204   
774.000000	3.458212   
774.500000	3.398121   
775.000000	3.067325   
775.500000	2.895106   
776.000000	2.859098   
776.500000	3.025212   
777.000000	3.142075   
777.500000	3.244643   
778.000000	3.230924   
778.500000	3.202446   
779.000000	3.159393   
779.500000	3.115848   
780.000000	2.912393   
780.500000	2.800962   
781.000000	2.847909   
781.500000	3.094719   
782.000000	3.194128   
782.500000	3.239848   
783.000000	3.142151   
783.500000	3.138893   
784.000000	3.018113   
784.500000	2.875507   
785.000000	2.690606   
785.500000	2.685462   
786.000000	2.733954   
786.500000	2.685924   
787.000000	2.535424   
787.500000	2.494689   
788.000000	2.528871   
788.500000	2.551143   
789.000000	2.504704   
789.500000	2.505181   
790.000000	2.426098   
790.500000	2.454681   
791.000000	2.501712   
791.500000	2.565128   
792.000000	2.301393   
792.500000	2.170795   
793.000000	2.240393   
793.500000	2.433272   
794.000000	2.312484   
794.500000	2.229636   
795.000000	2.323242   
795.500000	2.596280   
796.000000	2.638803   
796.500000	2.560742   
797.000000	2.453333   
797.500000	2.414553   
798.000000	2.450833   
798.500000	2.447583   
799.000000	2.401969   
799.500000	2.204401   
800.000000	2.090250   
800.500000	2.046484   
801.000000	2.061234   
801.500000	1.986651   
802.000000	1.938318   
802.500000	1.850742   
803.000000	1.743939   
803.500000	1.724674   
804.000000	1.842840   
804.500000	1.873439   
805.000000	1.670015   
805.500000	1.359325   
806.000000	1.304166   
806.500000	1.502522   
807.000000	1.739969   
807.500000	1.854219   
808.000000	1.669583   
808.500000	1.508992   
809.000000	1.477045   
809.500000	1.735500   
810.000000	1.829143   
810.500000	1.795659   
811.000000	1.589196   
811.500000	1.466757   
812.000000	1.367136   
812.500000	1.430250   
813.000000	1.463280   
813.500000	1.467128   
814.000000	1.333674   
814.500000	1.316984   
815.000000	1.335787   
815.500000	1.474909   
816.000000	1.438863   
816.500000	1.331810   
817.000000	1.205060   
817.500000	1.206772   
818.000000	1.320378   
818.500000	1.427598   
819.000000	1.609318   
819.500000	1.782098   
820.000000	1.759174   
820.500000	1.836878   
821.000000	2.016575   
821.500000	2.285666   
822.000000	2.249878   
822.500000	2.377893   
823.000000	2.540871   
823.500000	2.776530   
824.000000	2.587886   
824.500000	2.407030   
825.000000	2.347068   
825.500000	2.395310   
826.000000	2.276780   
826.500000	2.183477   
827.000000	2.038174   
827.500000	2.042212   
828.000000	1.881772   
828.500000	1.873712   
829.000000	1.816666   
829.500000	1.844196   
830.000000	1.558310   
830.500000	1.376189   
831.000000	1.229946   
831.500000	1.332113   
832.000000	1.335666   
832.500000	1.291151   
833.000000	1.256015   
833.500000	1.309128   
834.000000	1.241780   
834.500000	1.085189   
835.000000	0.960901   
835.500000	0.980151   
836.000000	1.036371   
836.500000	1.056159   
837.000000	1.069219   
837.500000	1.086295   
838.000000	1.068295   
838.500000	0.927219   
839.000000	0.791757   
839.500000	0.700810   
840.000000	0.704083   
840.500000	0.720560   
841.000000	0.636712   
841.500000	0.542909   
842.000000	0.544196   
842.500000	0.730833   
843.000000	0.809181   
843.500000	0.736878   
844.000000	0.537446   
844.500000	0.517318   
845.000000	0.585227   
845.500000	0.610931   
846.000000	0.501651   
846.500000	0.444924   
847.000000	0.427492   
847.500000	0.402363   
848.000000	0.249848   
848.500000	0.161280   
849.000000	0.195871   
849.500000	0.340166   
850.000000	0.323742   
850.500000	0.231356   
851.000000	0.132303   
851.500000	0.107613   
852.000000	0.124022   
852.500000	0.133772   
853.000000	0.189598   
853.500000	0.242257   
854.000000	0.280833   
854.500000	0.134022   
855.000000	-0.045636  
855.500000	-0.225787  
856.000000	-0.162765  
856.500000	-0.046825  
857.000000	0.030242   
857.500000	0.032689   
858.000000	0.088651   
858.500000	0.108568   
859.000000	0.052939   
859.500000	-0.006159  
860.000000	0.037810   
860.500000	0.086287   
861.000000	0.048939   
861.500000	-0.028484  
862.000000	-0.086924  
862.500000	-0.140545  
863.000000	-0.192818  
863.500000	-0.124674  
864.000000	-0.047621  
864.500000	0.067712   
865.000000	0.088234   
865.500000	0.124681   
866.000000	0.032030   
866.500000	-0.008742  
867.000000	-0.019507  
867.500000	0.057136   
868.000000	0.052999   
868.500000	-0.003643  
869.000000	-0.084333  
869.500000	-0.122053  
870.000000	-0.164795  
870.500000	-0.135060  
871.000000	-0.057621  
871.500000	0.048628   
872.000000	0.084424   
872.500000	0.089515   
873.000000	0.088871   
873.500000	0.019924   
874.000000	-0.130780  
874.500000	-0.245325  
875.000000	-0.186765  
875.500000	-0.121007  
876.000000	-0.118045  
876.500000	-0.173106  
877.000000	-0.201651  
877.500000	-0.148719  
878.000000	-0.087681  
878.500000	-0.021242  
879.000000	-0.044537  
879.500000	-0.044803  
880.000000	-0.028628  
880.500000	0.030515   
881.000000	0.046886   
881.500000	0.040878   
882.000000	0.038636   
882.500000	-0.025212  
883.000000	-0.113954  
883.500000	-0.207068  
884.000000	-0.111159  
884.500000	-0.056977  
885.000000	-0.061992  
885.500000	-0.135318  
886.000000	-0.076015  
886.500000	-0.013878  
887.000000	-0.041348  
887.500000	-0.157939  
888.000000	-0.173583  
888.500000	-0.107765  
889.000000	-0.024333  
889.500000	0.032378   
890.000000	0.055954   
890.500000	0.046234   
891.000000	-0.031007  
891.500000	-0.124696  
892.000000	-0.170893  
892.500000	-0.113053  
893.000000	-0.103750  
893.500000	-0.071613  
894.000000	-0.016484  
894.500000	0.000090   
895.000000	-0.076530  
895.500000	-0.156280  
896.000000	-0.052113  
896.500000	0.010598   
897.000000	-0.065204  
897.500000	-0.230750  
898.000000	-0.195992  
898.500000	-0.069583  
899.000000	0.017712   
899.500000	-0.055628  
900.000000	-0.255250  
900.500000	-0.506000  

