PE FL                   SPECTRUM    ASCII       PEDS        1.60        
  -1
S12R#60.SP
24/04/15
17:03:49.00
24/04/15
17:05:14.00
Jan

900.500000
1









LS55
405.00
5.00
5.00
SCAN
1
20
100
100
0
400
0
1
0
1
5
ON
900 405 
1 0 0
#HDR
-1
-1
#GR
NM

0.00002384185791015625
0.0
450.000000
0.500000
902
8
144.649318
-0.593000
#DATA
450.000000	-0.593000  
450.500000	-0.359265  
451.000000	-0.260090  
451.500000	-0.233916  
452.000000	-0.140424  
452.500000	-0.078227  
453.000000	-0.080530  
453.500000	-0.151492  
454.000000	-0.133515  
454.500000	-0.111250  
455.000000	-0.106560  
455.500000	-0.100090  
456.000000	-0.094590  
456.500000	-0.137113  
457.000000	-0.141356  
457.500000	0.010287   
458.000000	0.133818   
458.500000	0.185287   
459.000000	0.057022   
459.500000	-0.049151  
460.000000	-0.193098  
460.500000	-0.229636  
461.000000	-0.138136  
461.500000	0.092537   
462.000000	0.222219   
462.500000	0.156969   
463.000000	-0.063196  
463.500000	-0.229159  
464.000000	-0.124893  
464.500000	0.088340   
465.000000	0.233242   
465.500000	0.152196   
466.000000	-0.019234  
466.500000	-0.070250  
467.000000	-0.066856  
467.500000	-0.101674  
468.000000	-0.202136  
468.500000	-0.097507  
469.000000	0.118439   
469.500000	0.274151   
470.000000	0.116924   
470.500000	-0.093409  
471.000000	-0.151378  
471.500000	-0.096833  
472.000000	-0.072204  
472.500000	-0.192075  
473.000000	-0.329666  
473.500000	-0.310613  
474.000000	-0.132333  
474.500000	0.044977   
475.000000	0.063295   
475.500000	0.023446   
476.000000	-0.072606  
476.500000	-0.128257  
477.000000	-0.102696  
477.500000	0.062939   
478.000000	0.140977   
478.500000	0.062643   
479.000000	-0.072575  
479.500000	-0.112500  
480.000000	-0.136818  
480.500000	-0.077924  
481.000000	-0.003121  
481.500000	0.024553   
482.000000	-0.038378  
482.500000	-0.142810  
483.000000	-0.116628  
483.500000	0.007234   
484.000000	0.197553   
484.500000	0.300416   
485.000000	0.380946   
485.500000	0.331696   
486.000000	0.369795   
486.500000	0.191128   
487.000000	-0.013962  
487.500000	-0.195507  
488.000000	-0.065431  
488.500000	-0.066924  
489.000000	-0.105257  
489.500000	-0.250083  
490.000000	-0.103045  
490.500000	0.081954   
491.000000	0.154356   
491.500000	0.023575   
492.000000	-0.057901  
492.500000	0.024287   
493.000000	0.157772   
493.500000	0.177045   
494.000000	0.060075   
494.500000	0.112810   
495.000000	0.239272   
495.500000	0.304378   
496.000000	0.134037   
496.500000	0.108219   
497.000000	0.248651   
497.500000	0.496840   
498.000000	0.556696   
498.500000	0.455863   
499.000000	0.353234   
499.500000	0.324810   
500.000000	0.515999   
500.500000	0.671643   
501.000000	0.751893   
501.500000	0.621015   
502.000000	0.569462   
502.500000	0.655719   
503.000000	0.907227   
503.500000	1.100787   
504.000000	1.223174   
504.500000	1.255378   
505.000000	1.166954   
505.500000	1.139409   
506.000000	1.204401   
506.500000	1.435848   
507.000000	1.581969   
507.500000	1.638128   
508.000000	1.608386   
508.500000	1.751568   
509.000000	2.074568   
509.500000	2.406863   
510.000000	2.360378   
510.500000	2.168575   
511.000000	2.142287   
511.500000	2.429780   
512.000000	2.629037   
512.500000	2.805083   
513.000000	2.852477   
513.500000	3.030007   
514.000000	3.055871   
514.500000	3.144492   
515.000000	3.089856   
515.500000	2.977909   
516.000000	2.798825   
516.500000	2.816060   
517.000000	2.974227   
517.500000	3.171166   
518.000000	3.254416   
518.500000	3.285401   
519.000000	3.257303   
519.500000	3.148280   
520.000000	3.007545   
520.500000	2.875090   
521.000000	2.989462   
521.500000	3.216462   
522.000000	3.472946   
522.500000	3.439272   
523.000000	3.401128   
523.500000	3.399787   
524.000000	3.541181   
524.500000	3.551681   
525.000000	3.410416   
525.500000	3.361462   
526.000000	3.451037   
526.500000	3.494522   
527.000000	3.613363   
527.500000	3.878666   
528.000000	4.242136   
528.500000	4.417121   
529.000000	4.545666   
529.500000	4.704128   
530.000000	5.201863   
530.500000	5.800666   
531.000000	6.188166   
531.500000	6.143757   
532.000000	5.946439   
532.500000	6.158674   
533.000000	6.723909   
533.500000	7.129704   
534.000000	7.318113   
534.500000	7.510750   
535.000000	7.895007   
535.500000	8.177553   
536.000000	8.377999   
536.500000	8.531462   
537.000000	8.996469   
537.500000	9.505757   
538.000000	9.994378   
538.500000	10.254795  
539.000000	10.660901  
539.500000	11.394840  
540.000000	12.283939  
540.500000	12.872037  
541.000000	13.092030  
541.500000	13.350666  
542.000000	13.618606  
542.500000	14.091212  
543.000000	13.923530  
543.500000	13.422212  
544.000000	12.493992  
544.500000	11.984651  
545.000000	11.691257  
545.500000	11.414818  
546.000000	10.642128  
546.500000	9.704242   
547.000000	9.108886   
547.500000	8.708977   
548.000000	8.325363   
548.500000	7.729075   
549.000000	7.205121   
549.500000	6.694704   
550.000000	6.130681   
550.500000	5.509348   
551.000000	5.011045   
551.500000	4.690000   
552.000000	4.329856   
552.500000	3.741250   
553.000000	3.194053   
553.500000	3.037272   
554.000000	3.348265   
554.500000	3.657386   
555.000000	3.694030   
555.500000	3.588196   
556.000000	3.504151   
556.500000	3.369628   
557.000000	3.214257   
557.500000	3.173106   
558.000000	3.399560   
558.500000	3.437946   
559.000000	3.341106   
559.500000	3.157560   
560.000000	3.381651   
560.500000	3.645325   
561.000000	3.786348   
561.500000	3.549719   
562.000000	3.421143   
562.500000	3.389659   
563.000000	3.352363   
563.500000	3.195954   
564.000000	3.033560   
564.500000	3.097492   
565.000000	3.188628   
565.500000	3.282689   
566.000000	3.226689   
566.500000	3.250590   
567.000000	3.328363   
567.500000	3.547454   
568.000000	3.749962   
568.500000	3.767469   
569.000000	3.592151   
569.500000	3.332424   
570.000000	3.270424   
570.500000	3.289583   
571.000000	3.345348   
571.500000	3.222348   
572.000000	3.023553   
572.500000	3.119651   
573.000000	3.433575   
573.500000	3.737606   
574.000000	3.753969   
574.500000	3.588643   
575.000000	3.328333   
575.500000	3.057454   
576.000000	2.893287   
576.500000	2.858181   
577.000000	3.061893   
577.500000	3.239772   
578.000000	3.388227   
578.500000	3.314121   
579.000000	3.208416   
579.500000	3.281765   
580.000000	3.421348   
580.500000	3.635007   
581.000000	3.671477   
581.500000	3.730659   
582.000000	3.657424   
582.500000	3.718030   
583.000000	3.673318   
583.500000	3.587878   
584.000000	3.346666   
584.500000	3.314696   
585.000000	3.584250   
585.500000	3.908409   
586.000000	3.935909   
586.500000	3.626136   
587.000000	3.340712   
587.500000	3.301848   
588.000000	3.468674   
588.500000	3.583159   
589.000000	3.621651   
589.500000	3.597696   
590.000000	3.737537   
590.500000	3.830030   
591.000000	4.119977   
591.500000	4.469954   
592.000000	4.712515   
592.500000	4.557765   
593.000000	4.449242   
593.500000	4.707734   
594.000000	5.140166   
594.500000	5.190037   
595.000000	4.968159   
595.500000	4.916272   
596.000000	5.103765   
596.500000	5.254856   
597.000000	5.586446   
597.500000	5.827219   
598.000000	6.129151   
598.500000	6.087371   
599.000000	6.143303   
599.500000	6.114522   
600.000000	6.330681   
600.500000	6.459537   
601.000000	6.782469   
601.500000	7.034159   
602.000000	7.166250   
602.500000	7.139924   
603.000000	7.024439   
603.500000	6.968575   
604.000000	6.936977   
604.500000	7.166954   
605.000000	7.736696   
605.500000	8.394378   
606.000000	8.633181   
606.500000	8.605643   
607.000000	8.719553   
607.500000	9.221484   
608.000000	9.630803   
608.500000	9.887999   
609.000000	10.092575  
609.500000	10.426401  
610.000000	10.965333  
610.500000	11.469227  
611.000000	11.945636  
611.500000	12.093590  
612.000000	12.124901  
612.500000	12.423060  
613.000000	13.178143  
613.500000	13.856969  
614.000000	13.993651  
614.500000	14.051507  
615.000000	14.447727  
615.500000	15.284454  
616.000000	15.899356  
616.500000	16.525856  
617.000000	17.385181  
617.500000	18.117992  
618.000000	18.465712  
618.500000	18.861015  
619.000000	19.795818  
619.500000	20.800462  
620.000000	21.518742  
620.500000	22.430606  
621.000000	23.495371  
621.500000	24.252780  
622.000000	24.501969  
622.500000	25.172409  
623.000000	26.502939  
623.500000	28.025386  
624.000000	29.218386  
624.500000	29.846257  
625.000000	30.079484  
625.500000	30.368446  
626.000000	31.294712  
626.500000	32.394734  
627.000000	33.925651  
627.500000	35.383181  
628.000000	36.788113  
628.500000	37.344992  
629.000000	37.995446  
629.500000	39.231984  
630.000000	41.280446  
630.500000	42.741871  
631.000000	43.982840  
631.500000	45.191606  
632.000000	46.926219  
632.500000	49.215863  
633.000000	51.306242  
633.500000	52.721219  
634.000000	53.671219  
634.500000	54.591613  
635.000000	56.089227  
635.500000	58.178121  
636.000000	60.633515  
636.500000	62.436424  
637.000000	63.673060  
637.500000	64.173863  
638.000000	65.548681  
638.500000	67.158628  
639.000000	69.074568  
639.500000	70.614568  
640.000000	72.218537  
640.500000	74.506196  
641.000000	77.446212  
641.500000	80.323318  
642.000000	82.201590  
642.500000	83.408318  
643.000000	84.605719  
643.500000	86.217060  
644.000000	87.879454  
644.500000	89.274848  
645.000000	90.907924  
645.500000	92.781318  
646.000000	94.988439  
646.500000	96.671499  
647.000000	98.207931  
647.500000	99.684454  
648.000000	101.060204 
648.500000	102.059045 
649.000000	103.928515 
649.500000	106.575537 
650.000000	109.306386 
650.500000	111.555840 
651.000000	112.937606 
651.500000	114.019166 
652.000000	115.574348 
652.500000	118.181750 
653.000000	120.268696 
653.500000	121.702931 
654.000000	122.355250 
654.500000	123.517128 
655.000000	124.698242 
655.500000	125.587416 
656.000000	126.750674 
656.500000	127.968954 
657.000000	129.137007 
657.500000	130.199522 
658.000000	131.680939 
658.500000	132.815242 
659.000000	134.019196 
659.500000	134.989174 
660.000000	136.523075 
660.500000	137.284431 
661.000000	137.508530 
661.500000	137.181719 
662.000000	138.316227 
662.500000	140.036159 
663.000000	141.343356 
663.500000	140.666992 
664.000000	140.370992 
664.500000	140.114886 
665.000000	140.370469 
665.500000	140.582060 
666.000000	141.580545 
666.500000	142.917053 
667.000000	144.365477 
667.500000	144.649318 
668.000000	143.010553 
668.500000	141.036371 
669.000000	139.613030 
669.500000	140.393015 
670.000000	141.074060 
670.500000	141.239848 
671.000000	140.121409 
671.500000	138.746219 
672.000000	137.510022 
672.500000	136.154856 
673.000000	134.864856 
673.500000	133.368909 
674.000000	133.023909 
674.500000	131.765022 
675.000000	129.651439 
675.500000	126.993348 
676.000000	126.381174 
676.500000	126.322136 
677.000000	125.862803 
677.500000	123.960515 
678.000000	122.510151 
678.500000	121.902734 
679.000000	121.756174 
679.500000	119.938522 
680.000000	116.813696 
680.500000	113.320401 
681.000000	110.900083 
681.500000	109.393727 
682.000000	108.204946 
682.500000	106.940363 
683.000000	104.665681 
683.500000	102.282113 
684.000000	99.516916  
684.500000	97.051477  
685.000000	94.515659  
685.500000	92.340393  
686.000000	90.018234  
686.500000	87.218265  
687.000000	85.064916  
687.500000	83.682378  
688.000000	83.455083  
688.500000	81.705689  
689.000000	79.472568  
689.500000	76.147810  
690.000000	73.303969  
690.500000	70.655136  
691.000000	69.155378  
691.500000	67.869234  
692.000000	66.409939  
692.500000	64.401250  
693.000000	62.957901  
693.500000	61.664356  
694.000000	60.070068  
694.500000	57.669234  
695.000000	55.899189  
695.500000	54.282757  
696.000000	52.999500  
696.500000	51.026901  
697.000000	49.422340  
697.500000	47.368651  
698.000000	45.528818  
698.500000	43.758901  
699.000000	42.700454  
699.500000	41.542060  
700.000000	40.301196  
700.500000	39.075121  
701.000000	38.230454  
701.500000	37.283863  
702.000000	36.154136  
702.500000	35.698643  
703.000000	35.193530  
703.500000	34.145492  
704.000000	32.332999  
704.500000	31.064022  
705.000000	30.249007  
705.500000	29.354765  
706.000000	28.161068  
706.500000	27.224704  
707.000000	26.671098  
707.500000	25.776424  
708.000000	24.629492  
708.500000	23.624068  
709.000000	23.085742  
709.500000	22.891666  
710.000000	22.591962  
710.500000	22.380431  
711.000000	21.998628  
711.500000	21.603946  
712.000000	20.790333  
712.500000	20.138621  
713.000000	19.863037  
713.500000	19.752348  
714.000000	19.575280  
714.500000	19.116106  
715.000000	18.507204  
715.500000	17.632734  
716.000000	16.987242  
716.500000	16.276454  
717.000000	15.802060  
717.500000	15.553484  
718.000000	15.594553  
718.500000	15.315287  
719.000000	14.541219  
719.500000	13.657015  
720.000000	13.102325  
720.500000	12.984250  
721.000000	12.960030  
721.500000	13.082643  
722.000000	12.772606  
722.500000	12.284553  
723.000000	11.771295  
723.500000	11.614621  
724.000000	11.346333  
724.500000	11.332696  
725.000000	11.220931  
725.500000	10.960159  
726.000000	10.335121  
726.500000	10.180439  
727.000000	10.396257  
727.500000	10.505068  
728.000000	10.041893  
728.500000	9.550924   
729.000000	9.377507   
729.500000	9.218053   
730.000000	8.808310   
730.500000	8.365583   
731.000000	8.214893   
731.500000	8.270893   
732.000000	8.278621   
732.500000	8.083227   
733.000000	7.866022   
733.500000	7.739954   
734.000000	7.722636   
734.500000	7.649946   
735.000000	7.565651   
735.500000	7.342030   
736.000000	7.089106   
736.500000	6.949992   
737.000000	6.995128   
737.500000	6.973272   
738.000000	6.706363   
738.500000	6.175643   
739.000000	5.757696   
739.500000	5.676977   
740.000000	6.014507   
740.500000	6.199818   
741.000000	6.189234   
741.500000	5.792757   
742.000000	5.649537   
742.500000	5.453166   
743.000000	5.449280   
743.500000	5.286075   
744.000000	5.366280   
744.500000	5.279840   
745.000000	5.218734   
745.500000	4.989492   
746.000000	5.025871   
746.500000	5.076765   
747.000000	5.128878   
747.500000	4.988886   
748.000000	4.818098   
748.500000	4.661719   
749.000000	4.410287   
749.500000	4.303553   
750.000000	4.255643   
750.500000	4.471962   
751.000000	4.613621   
751.500000	4.773469   
752.000000	4.602750   
752.500000	4.454045   
753.000000	4.083848   
753.500000	3.965984   
754.000000	3.990462   
754.500000	4.311159   
755.000000	4.494575   
755.500000	4.531265   
756.000000	4.230901   
756.500000	3.997431   
757.000000	3.944477   
757.500000	4.110030   
758.000000	4.143734   
758.500000	4.040992   
759.000000	3.953318   
759.500000	3.937833   
760.000000	3.800984   
760.500000	3.718371   
761.000000	3.823696   
761.500000	3.904037   
762.000000	3.646053   
762.500000	3.222530   
763.000000	3.206053   
763.500000	3.614492   
764.000000	4.127151   
764.500000	4.209840   
765.000000	3.954484   
765.500000	3.461909   
766.000000	3.213833   
766.500000	3.224363   
767.000000	3.401265   
767.500000	3.438780   
768.000000	3.251409   
768.500000	2.947060   
769.000000	2.784939   
769.500000	3.025325   
770.000000	3.394272   
770.500000	3.574674   
771.000000	3.343878   
771.500000	3.182371   
772.000000	3.276446   
772.500000	3.320825   
773.000000	3.103318   
773.500000	2.915613   
774.000000	3.040090   
774.500000	3.223651   
775.000000	3.168469   
775.500000	2.849689   
776.000000	2.718954   
776.500000	2.895878   
777.000000	3.164212   
777.500000	3.140234   
778.000000	2.919348   
778.500000	2.711621   
779.000000	2.758916   
779.500000	2.684507   
780.000000	2.566856   
780.500000	2.477500   
781.000000	2.698000   
781.500000	2.899136   
782.000000	2.965893   
782.500000	2.798454   
783.000000	2.656060   
783.500000	2.618378   
784.000000	2.600462   
784.500000	2.624772   
785.000000	2.673992   
785.500000	2.792704   
786.000000	2.826325   
786.500000	2.816537   
787.000000	2.787242   
787.500000	2.837250   
788.000000	2.869681   
788.500000	2.777825   
789.000000	2.729484   
789.500000	2.736825   
790.000000	2.803712   
790.500000	2.757484   
791.000000	2.646242   
791.500000	2.552719   
792.000000	2.536856   
792.500000	2.468083   
793.000000	2.496462   
793.500000	2.626704   
794.000000	2.597227   
794.500000	2.469500   
795.000000	2.367189   
795.500000	2.433181   
796.000000	2.364939   
796.500000	2.184015   
797.000000	2.032037   
797.500000	2.173174   
798.000000	2.288174   
798.500000	2.149719   
799.000000	1.944734   
799.500000	1.942750   
800.000000	2.102393   
800.500000	2.200318   
801.000000	2.246128   
801.500000	2.219946   
802.000000	2.171939   
802.500000	2.080825   
803.000000	1.943492   
803.500000	1.751803   
804.000000	1.655409   
804.500000	1.692992   
805.000000	1.889477   
805.500000	1.899303   
806.000000	1.796416   
806.500000	1.595560   
807.000000	1.427250   
807.500000	1.266318   
808.000000	1.241840   
808.500000	1.375522   
809.000000	1.576204   
809.500000	1.747159   
810.000000	1.647409   
810.500000	1.454181   
811.000000	1.375962   
811.500000	1.466530   
812.000000	1.463530   
812.500000	1.343575   
813.000000	1.192151   
813.500000	1.198931   
814.000000	1.380151   
814.500000	1.491840   
815.000000	1.330886   
815.500000	1.130250   
816.000000	1.212901   
816.500000	1.507257   
817.000000	1.627643   
817.500000	1.587446   
818.000000	1.597522   
818.500000	1.735568   
819.000000	1.714363   
819.500000	1.575106   
820.000000	1.561560   
820.500000	1.855151   
821.000000	2.241242   
821.500000	2.513992   
822.000000	2.544242   
822.500000	2.539886   
823.000000	2.611553   
823.500000	2.767515   
824.000000	2.826734   
824.500000	2.690340   
825.000000	2.386030   
825.500000	2.069272   
826.000000	1.793969   
826.500000	1.645954   
827.000000	1.717439   
827.500000	1.893878   
828.000000	1.988287   
828.500000	1.815946   
829.000000	1.546750   
829.500000	1.428939   
830.000000	1.525250   
830.500000	1.696803   
831.000000	1.690401   
831.500000	1.478992   
832.000000	1.152810   
832.500000	0.933659   
833.000000	0.867424   
833.500000	1.020681   
834.000000	1.162257   
834.500000	1.287939   
835.000000	1.323000   
835.500000	1.234272   
836.000000	1.017106   
836.500000	0.873818   
837.000000	0.925689   
837.500000	1.089295   
838.000000	1.195704   
838.500000	1.099659   
839.000000	0.958333   
839.500000	0.833212   
840.000000	0.799022   
840.500000	0.792901   
841.000000	0.806136   
841.500000	0.793780   
842.000000	0.781560   
842.500000	0.705818   
843.000000	0.601545   
843.500000	0.486287   
844.000000	0.465772   
844.500000	0.597818   
845.000000	0.827378   
845.500000	0.811212   
846.000000	0.510886   
846.500000	0.074219   
847.000000	-0.089143  
847.500000	0.020954   
848.000000	0.239659   
848.500000	0.359166   
849.000000	0.412000   
849.500000	0.364204   
850.000000	0.162992   
850.500000	0.029659   
851.000000	0.070166   
851.500000	0.241121   
852.000000	0.160325   
852.500000	-0.034060  
853.000000	-0.181939  
853.500000	-0.154227  
854.000000	-0.121189  
854.500000	0.000386   
855.000000	0.150628   
855.500000	0.192522   
856.000000	0.023515   
856.500000	-0.151196  
857.000000	-0.177977  
857.500000	-0.044356  
858.000000	0.043780   
858.500000	0.041909   
859.000000	0.067000   
859.500000	0.125030   
860.000000	0.111780   
860.500000	-0.026515  
861.000000	-0.113045  
861.500000	-0.053439  
862.000000	0.001234   
862.500000	-0.019000  
863.000000	-0.053060  
863.500000	-0.074659  
864.000000	-0.063878  
864.500000	-0.033121  
865.000000	0.135522   
865.500000	0.242143   
866.000000	0.184636   
866.500000	-0.063159  
867.000000	-0.159757  
867.500000	-0.121083  
868.000000	-0.005212  
868.500000	0.013931   
869.000000	-0.005272  
869.500000	-0.010863  
870.000000	-0.087022  
870.500000	-0.194053  
871.000000	-0.212272  
871.500000	-0.063446  
872.000000	0.045287   
872.500000	0.050174   
873.000000	-0.041386  
873.500000	-0.058166  
874.000000	-0.082704  
874.500000	-0.083227  
875.000000	-0.093719  
875.500000	-0.069181  
876.000000	0.000962   
876.500000	0.075287   
877.000000	0.124810   
877.500000	0.123159   
878.000000	0.146439   
878.500000	0.086848   
879.000000	-0.122840  
879.500000	-0.361416  
880.000000	-0.404143  
880.500000	-0.275348  
881.000000	-0.219628  
881.500000	-0.163659  
882.000000	-0.076409  
882.500000	-0.015333  
883.000000	-0.119333  
883.500000	-0.148371  
884.000000	-0.077795  
884.500000	0.056878   
885.000000	0.038886   
885.500000	0.018545   
886.000000	-0.078295  
886.500000	-0.129666  
887.000000	-0.191636  
887.500000	-0.115287  
888.000000	-0.074348  
888.500000	-0.001053  
889.000000	0.029007   
889.500000	0.095189   
890.000000	0.037234   
890.500000	0.004189   
891.000000	-0.018606  
891.500000	0.045659   
892.000000	0.074204   
892.500000	0.110356   
893.000000	0.012878   
893.500000	-0.135416  
894.000000	-0.287045  
894.500000	-0.277537  
895.000000	-0.176477  
895.500000	-0.105159  
896.000000	-0.128522  
896.500000	-0.045159  
897.000000	0.035992   
897.500000	0.066522   
898.000000	-0.045287  
898.500000	-0.103833  
899.000000	-0.076462  
899.500000	0.052712   
900.000000	0.196462   
900.500000	0.432000   

