PE FL                   SPECTRUM    ASCII       PEDS        1.60        
  -1
S12R#04.SP
24/04/15
15:43:57.00
24/04/15
15:45:23.00
Jan

900.500000
1









LS55
405.00
5.00
5.00
SCAN
1
20
100
100
0
400
0
1
0
1
5
ON
900 405 
1 0 0
#HDR
-1
-1
#GR
NM

0.00002384185791015625
0.0
450.000000
0.500000
902
8
213.113083
-0.428999
#DATA
450.000000	-0.428999  
450.500000	-0.323795  
451.000000	-0.205765  
451.500000	-0.146795  
452.000000	-0.211151  
452.500000	-0.317765  
453.000000	-0.225212  
453.500000	-0.048810  
454.000000	0.060151   
454.500000	-0.000265  
455.000000	-0.029045  
455.500000	0.010530   
456.000000	0.149083   
456.500000	0.253962   
457.000000	0.236916   
457.500000	0.002303   
458.000000	-0.141674  
458.500000	-0.140174  
459.000000	-0.057810  
459.500000	-0.083560  
460.000000	-0.003219  
460.500000	0.072553   
461.000000	0.073545   
461.500000	-0.132295  
462.000000	-0.152863  
462.500000	-0.085659  
463.000000	0.132431   
463.500000	0.206439   
464.000000	0.135954   
464.500000	-0.142068  
465.000000	-0.364045  
465.500000	-0.428090  
466.000000	-0.341272  
466.500000	-0.210537  
467.000000	-0.109878  
467.500000	0.136128   
468.000000	0.313045   
468.500000	0.401992   
469.000000	0.144803   
469.500000	-0.112568  
470.000000	-0.135583  
470.500000	0.067386   
471.000000	0.106893   
471.500000	-0.080522  
472.000000	-0.168045  
472.500000	-0.127901  
473.000000	0.015318   
473.500000	0.002484   
474.000000	0.006022   
474.500000	0.057515   
475.000000	0.206068   
475.500000	0.292878   
476.000000	0.214560   
476.500000	0.096340   
477.000000	0.011878   
477.500000	-0.028030  
478.000000	-0.159568  
478.500000	-0.202151  
479.000000	-0.081439  
479.500000	0.095590   
480.000000	0.078696   
480.500000	0.062015   
481.000000	0.041977   
481.500000	0.063325   
482.000000	-0.053280  
482.500000	-0.078818  
483.000000	-0.024166  
483.500000	0.083871   
484.000000	0.027022   
484.500000	-0.050537  
485.000000	-0.053946  
485.500000	0.022189   
486.000000	0.157507   
486.500000	0.284606   
487.000000	0.266090   
487.500000	0.112409   
488.000000	-0.042166  
488.500000	-0.079992  
489.000000	-0.034083  
489.500000	0.109954   
490.000000	0.186469   
490.500000	0.178143   
491.000000	0.118734   
491.500000	0.227068   
492.000000	0.392068   
492.500000	0.565227   
493.000000	0.534068   
493.500000	0.394818   
494.000000	0.071681   
494.500000	-0.037500  
495.000000	0.112787   
495.500000	0.371143   
496.000000	0.313280   
496.500000	0.206787   
497.000000	0.260757   
497.500000	0.485787   
498.000000	0.622818   
498.500000	0.527545   
499.000000	0.363174   
499.500000	0.332560   
500.000000	0.591992   
500.500000	0.739462   
501.000000	0.800196   
501.500000	0.776386   
502.000000	0.926954   
502.500000	0.950969   
503.000000	0.885946   
503.500000	0.793840   
504.000000	0.809886   
504.500000	0.883310   
505.000000	1.086878   
505.500000	1.483787   
506.000000	1.922462   
506.500000	2.127136   
507.000000	2.101128   
507.500000	1.948643   
508.000000	1.930878   
508.500000	2.050075   
509.000000	2.366530   
509.500000	2.643606   
510.000000	2.826583   
510.500000	2.724234   
511.000000	2.724992   
511.500000	2.916128   
512.000000	3.195606   
512.500000	3.146833   
513.000000	2.936446   
513.500000	2.831757   
514.000000	3.003378   
514.500000	3.202916   
515.000000	3.242030   
515.500000	3.114431   
516.000000	2.959765   
516.500000	2.982280   
517.000000	3.082212   
517.500000	3.285507   
518.000000	3.275484   
518.500000	3.276446   
519.000000	3.082098   
519.500000	3.077477   
520.000000	3.120113   
520.500000	3.450196   
521.000000	3.609446   
521.500000	3.651075   
522.000000	3.421106   
522.500000	3.393946   
523.000000	3.488666   
523.500000	3.726924   
524.000000	3.884818   
524.500000	4.120886   
525.000000	4.140871   
525.500000	4.166356   
526.000000	4.044340   
526.500000	3.852204   
527.000000	3.632507   
527.500000	3.658954   
528.000000	4.104431   
528.500000	4.556348   
529.000000	4.868840   
529.500000	4.996242   
530.000000	5.224340   
530.500000	5.273446   
531.000000	5.507151   
531.500000	5.862931   
532.000000	6.247219   
532.500000	6.395469   
533.000000	6.584909   
533.500000	6.761128   
534.000000	7.052113   
534.500000	7.232015   
535.000000	7.795977   
535.500000	8.644325   
536.000000	9.495969   
536.500000	9.922681   
537.000000	10.207325  
537.500000	10.575878  
538.000000	10.975439  
538.500000	11.539856  
539.000000	11.973833  
539.500000	12.484636  
540.000000	12.904598  
540.500000	13.479780  
541.000000	14.098325  
541.500000	14.520318  
542.000000	14.368000  
542.500000	14.224924  
543.000000	14.209204  
543.500000	14.298371  
544.000000	13.995962  
544.500000	13.269924  
545.000000	12.243750  
545.500000	11.405090  
546.000000	10.620537  
546.500000	10.010492  
547.000000	9.507128   
547.500000	8.978946   
548.000000	8.560106   
548.500000	8.225181   
549.000000	7.811924   
549.500000	7.184765   
550.000000	6.396060   
550.500000	5.752287   
551.000000	5.355893   
551.500000	4.901424   
552.000000	4.354250   
552.500000	3.899727   
553.000000	3.735606   
553.500000	3.794121   
554.000000	3.934280   
554.500000	3.855659   
555.000000	3.554734   
555.500000	3.299651   
556.000000	3.203136   
556.500000	3.292500   
557.000000	3.309401   
557.500000	3.254439   
558.000000	3.150000   
558.500000	3.139689   
559.000000	3.242484   
559.500000	3.423909   
560.000000	3.436325   
560.500000	3.296969   
561.000000	3.120212   
561.500000	3.079060   
562.000000	3.014113   
562.500000	3.037787   
563.000000	3.083583   
563.500000	3.263181   
564.000000	3.301742   
564.500000	3.327863   
565.000000	3.264696   
565.500000	3.362795   
566.000000	3.402454   
566.500000	3.416181   
567.000000	3.277325   
567.500000	3.250522   
568.000000	3.303606   
568.500000	3.457833   
569.000000	3.550537   
569.500000	3.574242   
570.000000	3.528757   
570.500000	3.512674   
571.000000	3.496492   
571.500000	3.385242   
572.000000	3.140030   
572.500000	3.049924   
573.000000	3.155530   
573.500000	3.339984   
574.000000	3.266477   
574.500000	3.070568   
575.000000	2.887696   
575.500000	2.890977   
576.000000	2.985727   
576.500000	3.085189   
577.000000	3.206507   
577.500000	3.281606   
578.000000	3.293689   
578.500000	3.164128   
579.000000	3.259227   
579.500000	3.426969   
580.000000	3.552083   
580.500000	3.391507   
581.000000	3.388590   
581.500000	3.547962   
582.000000	3.849015   
582.500000	3.939598   
583.000000	3.834075   
583.500000	3.557075   
584.000000	3.289742   
584.500000	3.163015   
585.000000	3.306053   
585.500000	3.572250   
586.000000	3.768537   
586.500000	3.923719   
587.000000	3.897492   
587.500000	3.784212   
588.000000	3.672909   
588.500000	3.769568   
589.000000	3.887439   
589.500000	4.129613   
590.000000	4.171946   
590.500000	4.313545   
591.000000	4.201401   
591.500000	4.172962   
592.000000	4.030340   
592.500000	4.073439   
593.000000	3.952310   
593.500000	4.059257   
594.000000	4.265106   
594.500000	4.450810   
595.000000	4.565545   
595.500000	4.680992   
596.000000	4.785704   
596.500000	4.564356   
597.000000	4.276545   
597.500000	4.146545   
598.000000	4.448825   
598.500000	4.774795   
599.000000	5.007984   
599.500000	5.225212   
600.000000	5.320916   
600.500000	5.543166   
601.000000	5.758272   
601.500000	6.001984   
602.000000	6.062090   
602.500000	6.019901   
603.000000	6.047984   
603.500000	6.295325   
604.000000	6.423545   
604.500000	6.177272   
605.000000	5.895681   
605.500000	6.013378   
606.000000	6.489090   
606.500000	6.923295   
607.000000	6.958196   
607.500000	7.002924   
608.000000	7.032757   
608.500000	7.265560   
609.000000	7.512674   
609.500000	7.927825   
610.000000	8.534212   
610.500000	8.885840   
611.000000	8.905712   
611.500000	8.777303   
612.000000	9.080295   
612.500000	9.601098   
613.000000	9.861651   
613.500000	9.748992   
614.000000	9.602113   
614.500000	9.917780   
615.000000	10.528356  
615.500000	11.255492  
616.000000	11.751393  
616.500000	12.317848  
617.000000	12.809916  
617.500000	13.087704  
618.000000	13.245992  
618.500000	13.646287  
619.000000	13.881106  
619.500000	14.016780  
620.000000	14.298318  
620.500000	15.380492  
621.000000	16.172446  
621.500000	16.513530  
622.000000	16.512840  
622.500000	17.077469  
623.000000	17.918310  
623.500000	19.287833  
624.000000	20.731340  
624.500000	21.857166  
625.000000	22.433742  
625.500000	23.231803  
626.000000	24.319651  
626.500000	25.128174  
627.000000	25.261886  
627.500000	25.430545  
628.000000	25.835977  
628.500000	26.801962  
629.000000	28.144878  
629.500000	30.007393  
630.000000	31.440424  
630.500000	32.079734  
631.000000	32.282151  
631.500000	33.262606  
632.000000	35.217545  
632.500000	37.292886  
633.000000	38.778166  
633.500000	39.898833  
634.000000	41.431840  
634.500000	42.734189  
635.000000	43.750537  
635.500000	45.018545  
636.000000	46.914613  
636.500000	48.281560  
637.000000	48.945666  
637.500000	49.928803  
638.000000	52.522060  
638.500000	55.322401  
639.000000	57.733530  
639.500000	59.673924  
640.000000	61.904590  
640.500000	62.913916  
641.000000	63.656613  
641.500000	65.137878  
642.000000	68.095553  
642.500000	70.907015  
643.000000	72.772204  
643.500000	74.437287  
644.000000	76.969590  
644.500000	79.408060  
645.000000	80.741280  
645.500000	82.324181  
646.000000	84.895045  
646.500000	88.537916  
647.000000	90.944901  
647.500000	92.314393  
648.000000	93.197772  
648.500000	96.434416  
649.000000	100.554757 
649.500000	105.079992 
650.000000	107.790681 
650.500000	109.693371 
651.000000	111.506803 
651.500000	113.192924 
652.000000	115.254939 
652.500000	116.909000 
653.000000	119.890583 
653.500000	122.372856 
654.000000	126.324901 
654.500000	129.410151 
655.000000	132.787053 
655.500000	134.630863 
656.000000	137.040666 
656.500000	139.307204 
657.000000	142.589901 
657.500000	145.667189 
658.000000	149.039613 
658.500000	151.417446 
659.000000	153.168143 
659.500000	154.546333 
660.000000	157.923598 
660.500000	161.664143 
661.000000	164.993931 
661.500000	167.216500 
662.000000	169.568068 
662.500000	173.085469 
663.000000	175.699068 
663.500000	176.705060 
664.000000	175.676325 
664.500000	176.265598 
665.000000	178.941242 
665.500000	183.937825 
666.000000	187.599666 
666.500000	190.760871 
667.000000	193.448825 
667.500000	194.774886 
668.000000	193.374219 
668.500000	193.038659 
669.000000	195.194068 
669.500000	198.644795 
670.000000	199.056371 
670.500000	198.666151 
671.000000	199.385219 
671.500000	201.789780 
672.000000	203.492628 
672.500000	205.549128 
673.000000	207.596636 
673.500000	208.820386 
674.000000	207.833628 
674.500000	205.796886 
675.000000	205.598340 
675.500000	208.086689 
676.000000	211.275530 
676.500000	212.678924 
677.000000	211.917659 
677.500000	211.466810 
678.000000	211.831446 
678.500000	213.113083 
679.000000	213.078075 
679.500000	212.360750 
680.000000	210.280803 
680.500000	208.473075 
681.000000	207.034924 
681.500000	206.957750 
682.000000	207.868893 
682.500000	208.422856 
683.000000	207.849272 
683.500000	206.435878 
684.000000	204.848719 
684.500000	202.837946 
685.000000	200.328340 
685.500000	198.173666 
686.000000	196.388272 
686.500000	194.623787 
687.000000	192.219969 
687.500000	188.878530 
688.000000	186.185765 
688.500000	182.969757 
689.000000	181.107234 
689.500000	178.548530 
690.000000	176.530575 
690.500000	173.419363 
691.000000	170.675378 
691.500000	167.305227 
692.000000	164.603212 
692.500000	161.090863 
693.000000	157.178515 
693.500000	152.651053 
694.000000	148.709037 
694.500000	145.344878 
695.000000	142.235401 
695.500000	138.285136 
696.000000	134.483803 
696.500000	130.503166 
697.000000	126.900537 
697.500000	123.487340 
698.000000	120.909606 
698.500000	118.043424 
699.000000	115.695818 
699.500000	112.827939 
700.000000	109.916492 
700.500000	105.398424 
701.000000	101.591893 
701.500000	99.175681  
702.000000	98.375015  
702.500000	95.651750  
703.000000	91.606500  
703.500000	87.970515  
704.000000	86.607795  
704.500000	85.921545  
705.000000	84.114636  
705.500000	80.876613  
706.000000	77.962189  
706.500000	75.764825  
707.000000	73.617863  
707.500000	71.209810  
708.000000	68.777303  
708.500000	66.733037  
709.000000	65.192878  
709.500000	63.904643  
710.000000	62.697939  
710.500000	60.640151  
711.000000	57.626265  
711.500000	54.834136  
712.000000	53.108575  
712.500000	52.487984  
713.000000	51.707818  
713.500000	51.056234  
714.000000	49.884651  
714.500000	48.345856  
715.000000	46.231015  
715.500000	44.653878  
716.000000	43.534166  
716.500000	42.135272  
717.000000	40.283772  
717.500000	38.426643  
718.000000	37.709636  
718.500000	37.468825  
719.000000	36.861575  
719.500000	35.418462  
720.000000	33.564916  
720.500000	32.194166  
721.000000	31.443840  
721.500000	30.844666  
722.000000	29.957522  
722.500000	29.347469  
723.000000	28.914219  
723.500000	28.623795  
724.000000	27.859765  
724.500000	26.904916  
725.000000	25.704666  
725.500000	24.902424  
726.000000	23.900310  
726.500000	23.504916  
727.000000	23.075227  
727.500000	22.877704  
728.000000	21.984689  
728.500000	21.094590  
729.000000	20.201772  
729.500000	19.691227  
730.000000	18.944590  
730.500000	17.959643  
731.000000	17.090931  
731.500000	16.566219  
732.000000	16.311007  
732.500000	16.038272  
733.000000	15.588613  
733.500000	15.210234  
734.000000	14.961878  
734.500000	15.071318  
735.000000	15.014795  
735.500000	14.859825  
736.000000	14.338901  
736.500000	13.755037  
737.000000	13.110015  
737.500000	12.524348  
738.000000	12.263356  
738.500000	12.296606  
739.000000	12.301750  
739.500000	11.950560  
740.000000	11.554386  
740.500000	11.428954  
741.000000	11.402068  
741.500000	11.182121  
742.000000	10.604151  
742.500000	10.261416  
743.000000	10.075053  
743.500000	10.091265  
744.000000	9.700196   
744.500000	9.207575   
745.000000	8.771962   
745.500000	8.885166   
746.000000	9.010189   
746.500000	8.863128   
747.000000	8.321999   
747.500000	7.954310   
748.000000	7.886977   
748.500000	7.777310   
749.000000	7.570969   
749.500000	7.340628   
750.000000	7.240780   
750.500000	7.084924   
751.000000	6.979469   
751.500000	7.058795   
752.000000	7.217060   
752.500000	7.140060   
753.000000	6.758689   
753.500000	6.457106   
754.000000	6.518598   
754.500000	7.070909   
755.000000	7.254803   
755.500000	6.872098   
756.000000	5.911962   
756.500000	5.655901   
757.000000	5.946121   
757.500000	6.440492   
758.000000	6.340893   
758.500000	6.052454   
759.000000	5.761909   
759.500000	5.532696   
760.000000	5.291795   
760.500000	5.069068   
761.000000	5.028196   
761.500000	4.965628   
762.000000	5.147386   
762.500000	5.264477   
763.000000	5.226969   
763.500000	4.917121   
764.000000	4.807757   
764.500000	4.898030   
765.000000	5.015409   
765.500000	4.841954   
766.000000	4.699681   
766.500000	4.743265   
767.000000	4.918522   
767.500000	4.799409   
768.000000	4.613643   
768.500000	4.286424   
769.000000	4.227287   
769.500000	4.118424   
770.000000	4.098212   
770.500000	3.802303   
771.000000	3.621795   
771.500000	3.424606   
772.000000	3.400818   
772.500000	3.335075   
773.000000	3.401598   
773.500000	3.585742   
774.000000	3.717204   
774.500000	3.582924   
775.000000	3.296863   
775.500000	3.099825   
776.000000	3.149515   
776.500000	3.219272   
777.000000	3.301250   
777.500000	3.291984   
778.000000	3.284181   
778.500000	3.213280   
779.000000	3.197060   
779.500000	3.181712   
780.000000	3.183166   
780.500000	3.085628   
781.000000	3.011204   
781.500000	2.987560   
782.000000	2.918878   
782.500000	2.815992   
783.000000	2.769643   
783.500000	2.896431   
784.000000	3.110136   
784.500000	3.283962   
785.000000	3.198250   
785.500000	2.987303   
786.000000	2.820992   
786.500000	2.847030   
787.000000	2.942734   
787.500000	3.020007   
788.000000	2.940022   
788.500000	2.891825   
789.000000	2.927446   
789.500000	2.995689   
790.000000	2.925969   
790.500000	2.648515   
791.000000	2.483704   
791.500000	2.576499   
792.000000	2.863287   
792.500000	2.885303   
793.000000	2.778022   
793.500000	2.584810   
794.000000	2.586454   
794.500000	2.682181   
795.000000	2.740477   
795.500000	2.711560   
796.000000	2.575143   
796.500000	2.418568   
797.000000	2.351159   
797.500000	2.570734   
798.000000	2.783007   
798.500000	2.752946   
799.000000	2.495257   
799.500000	2.265174   
800.000000	2.113886   
800.500000	1.942287   
801.000000	1.863484   
801.500000	2.066757   
802.000000	2.279734   
802.500000	2.213575   
803.000000	1.909674   
803.500000	1.794454   
804.000000	1.707060   
804.500000	1.811060   
805.000000	1.822704   
805.500000	1.879568   
806.000000	1.740318   
806.500000	1.605227   
807.000000	1.440992   
807.500000	1.418234   
808.000000	1.515568   
808.500000	1.884196   
809.000000	2.401431   
809.500000	2.601840   
810.000000	2.422553   
810.500000	1.985204   
811.000000	1.659227   
811.500000	1.514371   
812.000000	1.420287   
812.500000	1.295431   
813.000000	1.186893   
813.500000	1.260280   
814.000000	1.574393   
814.500000	1.868060   
815.000000	1.873121   
815.500000	1.587924   
816.000000	1.330878   
816.500000	1.505295   
817.000000	1.937590   
817.500000	2.050772   
818.000000	1.744454   
818.500000	1.352393   
819.000000	1.261113   
819.500000	1.377840   
820.000000	1.481484   
820.500000	1.709727   
821.000000	2.068227   
821.500000	2.365257   
822.000000	2.412833   
822.500000	2.568287   
823.000000	2.781553   
823.500000	3.010257   
824.000000	2.859583   
824.500000	2.751962   
825.000000	2.786515   
825.500000	2.870409   
826.000000	2.691000   
826.500000	2.373037   
827.000000	2.194931   
827.500000	2.227659   
828.000000	2.378272   
828.500000	2.300886   
829.000000	2.022969   
829.500000	1.576901   
830.000000	1.367590   
830.500000	1.370295   
831.000000	1.467659   
831.500000	1.417674   
832.000000	1.380424   
832.500000	1.341113   
833.000000	1.361765   
833.500000	1.296553   
834.000000	1.201060   
834.500000	1.118916   
835.000000	1.052909   
835.500000	0.945545   
836.000000	0.848954   
836.500000	0.823848   
837.000000	0.815719   
837.500000	0.818212   
838.000000	0.828416   
838.500000	0.886371   
839.000000	0.966393   
839.500000	0.979015   
840.000000	0.948681   
840.500000	0.738522   
841.000000	0.516439   
841.500000	0.432378   
842.000000	0.615515   
842.500000	0.781272   
843.000000	0.735007   
843.500000	0.553378   
844.000000	0.321636   
844.500000	0.241113   
845.000000	0.276393   
845.500000	0.456363   
846.000000	0.477931   
846.500000	0.377871   
847.000000	0.219098   
847.500000	0.211196   
848.000000	0.377704   
848.500000	0.503204   
849.000000	0.471977   
849.500000	0.258037   
850.000000	0.205204   
850.500000	0.173378   
851.000000	0.161515   
851.500000	0.016106   
852.000000	0.038409   
852.500000	0.116643   
853.000000	0.234219   
853.500000	0.245803   
854.000000	0.392825   
854.500000	0.469840   
855.000000	0.534727   
855.500000	0.388977   
856.000000	0.237893   
856.500000	0.076378   
857.000000	0.070060   
857.500000	0.016787   
858.000000	0.012924   
858.500000	0.037143   
859.000000	0.140462   
859.500000	0.247795   
860.000000	0.167598   
860.500000	0.135454   
861.000000	0.132598   
861.500000	0.183272   
862.000000	0.091969   
862.500000	0.024106   
863.000000	0.034598   
863.500000	0.169272   
864.000000	0.241219   
864.500000	0.202757   
865.000000	0.085825   
865.500000	-0.048386  
866.000000	-0.117083  
866.500000	-0.155719  
867.000000	-0.189272  
867.500000	-0.134121  
868.000000	-0.048219  
868.500000	0.147757   
869.000000	0.267022   
869.500000	0.291219   
870.000000	0.131234   
870.500000	0.012931   
871.000000	-0.074439  
871.500000	-0.059643  
872.000000	-0.162007  
872.500000	-0.224560  
873.000000	-0.239159  
873.500000	-0.091219  
874.000000	-0.029242  
874.500000	0.042113   
875.000000	0.029280   
875.500000	0.104522   
876.000000	0.088325   
876.500000	0.054742   
877.000000	-0.030939  
877.500000	-0.013098  
878.000000	0.063416   
878.500000	0.106553   
879.000000	0.117477   
879.500000	0.004287   
880.000000	-0.090962  
880.500000	-0.249424  
881.000000	-0.255780  
881.500000	-0.194871  
882.000000	-0.019742  
882.500000	-0.009507  
883.000000	-0.060068  
883.500000	-0.098121  
884.000000	-0.049356  
884.500000	-0.007893  
885.000000	-0.010856  
885.500000	0.035250   
886.000000	0.104606   
886.500000	0.137356   
887.000000	0.023757   
887.500000	-0.042492  
888.000000	-0.064545  
888.500000	-0.028128  
889.000000	-0.049704  
889.500000	-0.052901  
890.000000	-0.051568  
890.500000	-0.046204  
891.000000	-0.087295  
891.500000	-0.076386  
892.000000	-0.018363  
892.500000	-0.024659  
893.000000	-0.109575  
893.500000	-0.212984  
894.000000	-0.215250  
894.500000	-0.164189  
895.000000	-0.051886  
895.500000	0.047810   
896.000000	0.134765   
896.500000	0.049765   
897.000000	-0.075484  
897.500000	-0.191045  
898.000000	-0.085060  
898.500000	0.095628   
899.000000	0.249568   
899.500000	0.178462   
900.000000	0.004378   
900.500000	-0.199000  

