PE FL                   SPECTRUM    ASCII       PEDS        1.60        
  -1
S12R#30.SP
24/04/15
16:21:02.00
24/04/15
16:22:27.00
Jan

900.500000
1









LS55
405.00
5.00
5.00
SCAN
1
20
100
100
0
400
0
1
0
1
5
ON
900 405 
1 0 0
#HDR
-1
-1
#GR
NM

0.00002384185791015625
0.0
450.000000
0.500000
902
8
174.756969
-0.932000
#DATA
450.000000	0.001000   
450.500000	0.062757   
451.000000	0.037007   
451.500000	-0.102030  
452.000000	-0.232628  
452.500000	-0.322128  
453.000000	-0.294628  
453.500000	-0.155280  
454.000000	-0.040590  
454.500000	0.047878   
455.000000	0.124318   
455.500000	0.183878   
456.000000	0.195348   
456.500000	0.229500   
457.000000	0.211924   
457.500000	0.022409   
458.000000	-0.155689  
458.500000	-0.088643  
459.000000	0.066522   
459.500000	0.029878   
460.000000	-0.159939  
460.500000	-0.234977  
461.000000	-0.278977  
461.500000	-0.285212  
462.000000	-0.324901  
462.500000	-0.286431  
463.000000	-0.201075  
463.500000	-0.039462  
464.000000	0.010924   
464.500000	-0.173689  
465.000000	-0.411893  
465.500000	-0.273446  
466.000000	-0.069575  
466.500000	-0.012621  
467.000000	-0.229704  
467.500000	-0.287954  
468.000000	-0.268909  
468.500000	-0.130780  
469.000000	-0.059613  
469.500000	0.014356   
470.000000	0.033560   
470.500000	-0.013083  
471.000000	-0.036287  
471.500000	-0.134022  
472.000000	-0.158757  
472.500000	-0.234659  
473.000000	-0.208106  
473.500000	-0.210416  
474.000000	-0.005446  
474.500000	0.110681   
475.000000	0.156856   
475.500000	0.089272   
476.000000	0.117886   
476.500000	0.099992   
477.000000	-0.125984  
477.500000	-0.345204  
478.000000	-0.440772  
478.500000	-0.325659  
479.000000	-0.271575  
479.500000	-0.170462  
480.000000	-0.103916  
480.500000	-0.012992  
481.000000	-0.035916  
481.500000	-0.075075  
482.000000	-0.054901  
482.500000	0.117871   
483.000000	0.291560   
483.500000	0.255772   
484.000000	0.079053   
484.500000	-0.018689  
485.000000	0.042689   
485.500000	0.021083   
486.000000	-0.015787  
486.500000	-0.039818  
487.000000	0.023469   
487.500000	0.024909   
488.000000	0.025318   
488.500000	0.066719   
489.000000	0.039939   
489.500000	0.074590   
490.000000	0.194356   
490.500000	0.230916   
491.000000	0.032651   
491.500000	-0.153098  
492.000000	-0.070787  
492.500000	0.106007   
493.000000	0.146234   
493.500000	-0.063780  
494.000000	-0.131484  
494.500000	-0.132424  
495.000000	0.020424   
495.500000	0.092696   
496.000000	0.255909   
496.500000	0.336212   
497.000000	0.461772   
497.500000	0.408696   
498.000000	0.449090   
498.500000	0.538840   
499.000000	0.698462   
499.500000	0.764136   
500.000000	0.724553   
500.500000	0.662265   
501.000000	0.661356   
501.500000	0.752659   
502.000000	0.851704   
502.500000	0.881537   
503.000000	0.911871   
503.500000	0.986931   
504.000000	1.163734   
504.500000	1.490666   
505.000000	1.689946   
505.500000	1.633037   
506.000000	1.311530   
506.500000	1.319734   
507.000000	1.551787   
507.500000	1.981681   
508.000000	2.010689   
508.500000	2.057454   
509.000000	2.157022   
509.500000	2.456757   
510.000000	2.498757   
510.500000	2.348560   
511.000000	2.202007   
511.500000	2.341560   
512.000000	2.591378   
512.500000	2.686651   
513.000000	2.680787   
513.500000	2.729416   
514.000000	2.823924   
514.500000	2.748356   
515.000000	2.623310   
515.500000	2.597825   
516.000000	2.713121   
516.500000	2.910287   
517.000000	3.081386   
517.500000	3.239068   
518.000000	3.362704   
518.500000	3.280083   
519.000000	3.110560   
519.500000	3.000492   
520.000000	3.120166   
520.500000	3.222159   
521.000000	3.230333   
521.500000	3.082833   
522.000000	3.119712   
522.500000	3.135083   
523.000000	3.195462   
523.500000	3.342818   
524.000000	3.606848   
524.500000	3.774750   
525.000000	3.727409   
525.500000	3.712742   
526.000000	3.739537   
526.500000	4.026348   
527.000000	4.324083   
527.500000	4.808083   
528.000000	5.152446   
528.500000	5.313280   
529.000000	5.151984   
529.500000	5.057636   
530.000000	5.060348   
530.500000	5.290583   
531.000000	5.612704   
531.500000	5.985037   
532.000000	6.267416   
532.500000	6.487795   
533.000000	6.660416   
533.500000	6.945378   
534.000000	7.033742   
534.500000	7.261371   
535.000000	7.688098   
535.500000	8.251393   
536.000000	8.599636   
536.500000	8.930143   
537.000000	9.434810   
537.500000	10.125106  
538.000000	10.611757  
538.500000	10.956515  
539.000000	11.441454  
539.500000	12.174613  
540.000000	12.825803  
540.500000	13.086916  
541.000000	13.208340  
541.500000	13.473946  
542.000000	13.971871  
542.500000	14.284325  
543.000000	14.252234  
543.500000	13.804712  
544.000000	13.006719  
544.500000	12.230545  
545.000000	11.738022  
545.500000	11.456939  
546.000000	10.991431  
546.500000	10.355053  
547.000000	9.625750   
547.500000	8.960848   
548.000000	8.533772   
548.500000	8.057537   
549.000000	7.479363   
549.500000	6.613098   
550.000000	6.026946   
550.500000	5.728568   
551.000000	5.429787   
551.500000	4.879000   
552.000000	4.195787   
552.500000	3.658871   
553.000000	3.370007   
553.500000	3.471409   
554.000000	3.676227   
554.500000	3.703590   
555.000000	3.440916   
555.500000	3.190757   
556.000000	3.102522   
556.500000	3.268909   
557.000000	3.463401   
557.500000	3.528151   
558.000000	3.326962   
558.500000	3.070522   
559.000000	2.843750   
559.500000	2.732446   
560.000000	2.666333   
560.500000	2.705219   
561.000000	2.917174   
561.500000	3.118621   
562.000000	3.325598   
562.500000	3.402439   
563.000000	3.406515   
563.500000	3.362439   
564.000000	3.516696   
564.500000	3.614234   
565.000000	3.512803   
565.500000	3.268310   
566.000000	3.254712   
566.500000	3.601863   
567.000000	3.875446   
567.500000	3.815803   
568.000000	3.444469   
568.500000	3.137734   
569.000000	2.977098   
569.500000	3.025477   
570.000000	3.205393   
570.500000	3.284643   
571.000000	3.157068   
571.500000	2.835757   
572.000000	2.775462   
572.500000	3.060174   
573.000000	3.563143   
573.500000	3.746030   
574.000000	3.647575   
574.500000	3.358628   
575.000000	3.139416   
575.500000	3.083401   
576.000000	3.223939   
576.500000	3.328348   
577.000000	3.300856   
577.500000	3.184803   
578.000000	3.135446   
578.500000	3.215196   
579.000000	3.210045   
579.500000	3.208568   
580.000000	3.304734   
580.500000	3.469787   
581.000000	3.444666   
581.500000	3.383856   
582.000000	3.192446   
582.500000	3.168568   
583.000000	3.248553   
583.500000	3.590575   
584.000000	3.757166   
584.500000	3.808469   
585.000000	3.617469   
585.500000	3.786401   
586.000000	3.840924   
586.500000	3.934765   
587.000000	3.645969   
587.500000	3.514780   
588.000000	3.405666   
588.500000	3.679401   
589.000000	3.698136   
589.500000	3.598772   
590.000000	3.400000   
590.500000	3.583712   
591.000000	3.972310   
591.500000	4.236545   
592.000000	4.311893   
592.500000	4.311128   
593.000000	4.332507   
593.500000	4.185636   
594.000000	4.050840   
594.500000	3.914227   
595.000000	3.975916   
595.500000	4.123704   
596.000000	4.542954   
596.500000	4.770909   
597.000000	4.852522   
597.500000	4.811939   
598.000000	5.142462   
598.500000	5.445795   
599.000000	5.573333   
599.500000	5.562401   
600.000000	5.755787   
600.500000	5.686719   
601.000000	5.280757   
601.500000	4.943454   
602.000000	5.398803   
602.500000	6.241606   
603.000000	6.773840   
603.500000	6.770151   
604.000000	6.724075   
604.500000	6.759666   
605.000000	6.709522   
605.500000	6.649015   
606.000000	6.845818   
606.500000	7.421189   
607.000000	7.778696   
607.500000	7.903878   
608.000000	7.901840   
608.500000	8.093462   
609.000000	8.347757   
609.500000	8.847984   
610.000000	9.425696   
610.500000	9.959909   
611.000000	10.234371  
611.500000	10.207295  
612.000000	10.322946  
612.500000	10.310431  
613.000000	10.574371  
613.500000	11.038121  
614.000000	12.019848  
614.500000	12.611303  
615.000000	12.790931  
615.500000	12.659636  
616.000000	12.807174  
616.500000	13.183212  
617.000000	13.669000  
617.500000	14.333386  
618.000000	15.079075  
618.500000	15.532863  
619.000000	16.060977  
619.500000	16.717022  
620.000000	17.260477  
620.500000	17.471810  
621.000000	17.845386  
621.500000	18.703075  
622.000000	19.424060  
622.500000	20.670583  
623.000000	21.723272  
623.500000	23.056878  
624.000000	23.292757  
624.500000	23.543325  
625.000000	23.583204  
625.500000	24.390128  
626.000000	25.241893  
626.500000	27.227886  
627.000000	29.072984  
627.500000	30.356287  
628.000000	30.574113  
628.500000	30.946628  
629.000000	31.662878  
629.500000	33.249628  
630.000000	34.541681  
630.500000	36.143189  
631.000000	37.718439  
631.500000	39.457969  
632.000000	40.756250  
632.500000	41.732310  
633.000000	42.828909  
633.500000	44.347257  
634.000000	46.096643  
634.500000	47.596886  
635.000000	49.214787  
635.500000	50.636121  
636.000000	52.373856  
636.500000	54.002469  
637.000000	55.566439  
637.500000	56.936795  
638.000000	58.262098  
638.500000	59.925469  
639.000000	61.740424  
639.500000	63.259416  
640.000000	64.485636  
640.500000	66.145962  
641.000000	68.590189  
641.500000	71.276272  
642.000000	73.929613  
642.500000	76.182659  
643.000000	78.238310  
643.500000	79.863545  
644.000000	80.883969  
644.500000	82.330689  
645.000000	84.639984  
645.500000	87.516848  
646.000000	89.481856  
646.500000	90.977196  
647.000000	92.454386  
647.500000	95.001121  
648.000000	97.549871  
648.500000	99.872068  
649.000000	101.926666 
649.500000	104.094833 
650.000000	106.500969 
650.500000	108.716992 
651.000000	110.680977 
651.500000	111.994060 
652.000000	114.047893 
652.500000	115.525765 
653.000000	117.011833 
653.500000	117.742636 
654.000000	119.370681 
654.500000	123.007295 
655.000000	128.115340 
655.500000	132.039825 
656.000000	133.178045 
656.500000	133.960174 
657.000000	136.221537 
657.500000	139.316803 
658.000000	140.535128 
658.500000	141.543530 
659.000000	143.987727 
659.500000	146.666416 
660.000000	148.042704 
660.500000	149.812303 
661.000000	152.396924 
661.500000	154.566303 
662.000000	154.523530 
662.500000	155.185242 
663.000000	157.529121 
663.500000	160.457219 
664.000000	161.765303 
664.500000	162.382287 
665.000000	162.870757 
665.500000	162.975946 
666.000000	162.873219 
666.500000	163.639015 
667.000000	165.620750 
667.500000	167.556280 
668.000000	169.190606 
668.500000	170.299204 
669.000000	171.500810 
669.500000	171.420772 
670.000000	171.104803 
670.500000	171.375803 
671.000000	172.408416 
671.500000	173.198212 
672.000000	173.084068 
672.500000	173.556886 
673.000000	174.457212 
673.500000	174.756969 
674.000000	172.655000 
674.500000	171.829750 
675.000000	172.831409 
675.500000	174.212984 
676.000000	173.211227 
676.500000	170.919689 
677.000000	169.514265 
677.500000	168.768393 
678.000000	166.556583 
678.500000	164.963530 
679.000000	164.056189 
679.500000	163.583113 
680.000000	161.043803 
680.500000	159.051643 
681.000000	158.269651 
681.500000	158.910159 
682.000000	157.882212 
682.500000	154.964583 
683.000000	152.383946 
683.500000	150.542280 
684.000000	149.405689 
684.500000	146.579848 
685.000000	142.850037 
685.500000	139.332439 
686.000000	137.345000 
686.500000	135.426113 
687.000000	132.821060 
687.500000	130.158318 
688.000000	128.179280 
688.500000	126.008189 
689.000000	123.463598 
689.500000	120.527590 
690.000000	118.363143 
690.500000	116.163553 
691.000000	114.424666 
691.500000	112.088196 
692.000000	108.856121 
692.500000	104.473363 
693.000000	100.764537 
693.500000	98.045621  
694.000000	96.080712  
694.500000	93.662537  
695.000000	91.362500  
695.500000	89.108181  
696.000000	87.689446  
696.500000	85.468833  
697.000000	82.983848  
697.500000	79.656075  
698.000000	77.688977  
698.500000	75.486303  
699.000000	73.418757  
699.500000	70.296765  
700.000000	68.018659  
700.500000	65.454757  
701.000000	63.898386  
701.500000	61.910719  
702.000000	60.168045  
702.500000	57.651757  
703.000000	55.892681  
703.500000	54.738371  
704.000000	54.165568  
704.500000	53.083833  
705.000000	51.643121  
705.500000	49.566909  
706.000000	47.476477  
706.500000	45.634151  
707.000000	44.156878  
707.500000	42.888310  
708.000000	42.140613  
708.500000	41.765734  
709.000000	41.560840  
709.500000	40.458984  
710.000000	38.409318  
710.500000	36.188924  
711.000000	35.068962  
711.500000	34.965037  
712.000000	34.675234  
712.500000	33.488257  
713.000000	32.293060  
713.500000	31.562477  
714.000000	30.664060  
714.500000	29.180143  
715.000000	27.870712  
715.500000	27.083265  
716.000000	27.020007  
716.500000	26.285522  
717.000000	25.357939  
717.500000	24.347492  
718.000000	24.179545  
718.500000	23.295083  
719.000000	22.285515  
719.500000	21.169810  
720.000000	21.262878  
720.500000	21.153977  
721.000000	20.860333  
721.500000	20.036431  
722.000000	19.812469  
722.500000	19.421000  
723.000000	18.875212  
723.500000	17.932886  
724.000000	17.379515  
724.500000	16.727340  
725.000000	16.171166  
725.500000	15.579946  
726.000000	15.495250  
726.500000	15.296628  
727.000000	14.947462  
727.500000	14.337575  
728.000000	14.340174  
728.500000	14.030265  
729.000000	13.836098  
729.500000	13.325219  
730.000000	13.106060  
730.500000	12.467856  
731.000000	11.854803  
731.500000	11.374083  
732.000000	11.544007  
732.500000	11.622113  
733.000000	11.498803  
733.500000	10.830219  
734.000000	10.296727  
734.500000	9.769439   
735.000000	9.706075   
735.500000	9.640250   
736.000000	9.925765   
736.500000	10.027598  
737.000000	10.086022  
737.500000	9.660272   
738.000000	9.097075   
738.500000	8.598530   
739.000000	8.490666   
739.500000	8.537371   
740.000000	8.475189   
740.500000	8.218840   
741.000000	7.950348   
741.500000	7.700356   
742.000000	7.368636   
742.500000	7.205477   
743.000000	7.064651   
743.500000	6.923204   
744.000000	6.345439   
744.500000	6.114318   
745.000000	6.145803   
745.500000	6.555189   
746.000000	6.560787   
746.500000	6.474924   
747.000000	6.313871   
747.500000	6.413909   
748.000000	6.338166   
748.500000	6.326712   
749.000000	6.358636   
749.500000	6.387848   
750.000000	6.229893   
750.500000	5.924984   
751.000000	5.698348   
751.500000	5.490143   
752.000000	5.459999   
752.500000	5.450060   
753.000000	5.559325   
753.500000	5.373750   
754.000000	5.083083   
754.500000	4.910606   
755.000000	5.021287   
755.500000	5.188378   
756.000000	5.150689   
756.500000	5.100924   
757.000000	4.989924   
757.500000	4.879833   
758.000000	4.586931   
758.500000	4.433583   
759.000000	4.311568   
759.500000	4.261136   
760.000000	4.334674   
760.500000	4.481196   
761.000000	4.478803   
761.500000	4.220196   
762.000000	3.966484   
762.500000	3.862530   
763.000000	3.955757   
763.500000	4.063053   
764.000000	4.259098   
764.500000	4.299916   
765.000000	4.339643   
765.500000	4.291204   
766.000000	4.149143   
766.500000	3.801606   
767.000000	3.618651   
767.500000	3.587295   
768.000000	3.608553   
768.500000	3.591689   
769.000000	3.569946   
769.500000	3.580613   
770.000000	3.318499   
770.500000	3.041287   
771.000000	3.056681   
771.500000	3.655583   
772.000000	4.103780   
772.500000	4.200462   
773.000000	3.862863   
773.500000	3.549916   
774.000000	3.272651   
774.500000	3.134742   
775.000000	3.122272   
775.500000	3.243113   
776.000000	3.257015   
776.500000	3.224492   
777.000000	3.203553   
777.500000	3.166742   
778.000000	3.115204   
778.500000	3.105628   
779.000000	3.141704   
779.500000	3.171803   
780.000000	3.163242   
780.500000	3.094954   
781.000000	3.010757   
781.500000	2.979515   
782.000000	2.982643   
782.500000	3.029712   
783.000000	2.988742   
783.500000	2.909015   
784.000000	2.787401   
784.500000	2.794287   
785.000000	2.895863   
785.500000	3.026765   
786.000000	2.942060   
786.500000	2.685840   
787.000000	2.567696   
787.500000	2.701522   
788.000000	3.000863   
788.500000	2.979098   
789.000000	2.749886   
789.500000	2.481295   
790.000000	2.577234   
790.500000	2.691583   
791.000000	2.702765   
791.500000	2.525878   
792.000000	2.503280   
792.500000	2.703386   
793.000000	2.845386   
793.500000	2.649068   
794.000000	2.323053   
794.500000	2.273454   
795.000000	2.410530   
795.500000	2.426651   
796.000000	2.347272   
796.500000	2.459250   
797.000000	2.611007   
797.500000	2.493469   
798.000000	2.249424   
798.500000	2.236977   
799.000000	2.421136   
799.500000	2.402469   
800.000000	2.185477   
800.500000	2.120424   
801.000000	2.293325   
801.500000	2.408878   
802.000000	2.307340   
802.500000	2.204174   
803.000000	2.087151   
803.500000	2.065090   
804.000000	1.967659   
804.500000	2.055742   
805.000000	1.960272   
805.500000	1.851189   
806.000000	1.672310   
806.500000	1.726348   
807.000000	1.777053   
807.500000	1.889613   
808.000000	1.955212   
808.500000	1.921106   
809.000000	1.821924   
809.500000	1.751598   
810.000000	1.847765   
810.500000	1.972613   
811.000000	2.027924   
811.500000	1.890621   
812.000000	1.816848   
812.500000	1.900128   
813.000000	1.970696   
813.500000	1.778265   
814.000000	1.531515   
814.500000	1.447992   
815.000000	1.507946   
815.500000	1.532272   
816.000000	1.631833   
816.500000	1.779939   
817.000000	1.792856   
817.500000	1.582242   
818.000000	1.468856   
818.500000	1.556560   
819.000000	1.612212   
819.500000	1.549954   
820.000000	1.599272   
820.500000	1.911030   
821.000000	2.307151   
821.500000	2.456492   
822.000000	2.336303   
822.500000	2.310583   
823.000000	2.488477   
823.500000	2.721371   
824.000000	2.759250   
824.500000	2.591606   
825.000000	2.278068   
825.500000	2.008575   
826.000000	1.815053   
826.500000	1.812674   
827.000000	1.972128   
827.500000	2.170598   
828.000000	2.200371   
828.500000	2.118477   
829.000000	1.846446   
829.500000	1.611393   
830.000000	1.402333   
830.500000	1.400037   
831.000000	1.445689   
831.500000	1.440462   
832.000000	1.246303   
832.500000	1.168053   
833.000000	1.228136   
833.500000	1.299719   
834.000000	1.257621   
834.500000	1.192946   
835.000000	1.175371   
835.500000	1.153333   
836.000000	1.137712   
836.500000	1.003189   
837.000000	0.883727   
837.500000	0.729393   
838.000000	0.804227   
838.500000	0.905454   
839.000000	1.040901   
839.500000	0.911946   
840.000000	0.755643   
840.500000	0.634409   
841.000000	0.679204   
841.500000	0.727090   
842.000000	0.746886   
842.500000	0.708272   
843.000000	0.667750   
843.500000	0.618280   
844.000000	0.542515   
844.500000	0.534409   
845.000000	0.555712   
845.500000	0.606166   
846.000000	0.612795   
846.500000	0.610992   
847.000000	0.542053   
847.500000	0.387696   
848.000000	0.142106   
848.500000	-0.075742  
849.000000	-0.071196  
849.500000	0.093863   
850.000000	0.264356   
850.500000	0.266310   
851.000000	0.154765   
851.500000	-0.014257  
852.000000	-0.108613  
852.500000	-0.126939  
853.000000	-0.041621  
853.500000	0.041969   
854.000000	0.106295   
854.500000	0.086196   
855.000000	0.088583   
855.500000	0.050643   
856.000000	0.047143   
856.500000	0.029242   
857.000000	0.074484   
857.500000	0.106931   
858.000000	0.069681   
858.500000	0.013484   
859.000000	-0.027560  
859.500000	-0.012946  
860.000000	-0.058848  
860.500000	-0.033522  
861.000000	0.006318   
861.500000	0.171037   
862.000000	0.185613   
862.500000	0.115484   
863.000000	0.007992   
863.500000	0.062007   
864.000000	0.176378   
864.500000	0.199772   
865.000000	0.022712   
865.500000	-0.184893  
866.000000	-0.257772  
866.500000	-0.197772  
867.000000	-0.096431  
867.500000	0.012909   
868.000000	0.093742   
868.500000	0.075507   
869.000000	-0.033825  
869.500000	-0.099954  
870.000000	-0.041030  
870.500000	0.015621   
871.000000	-0.059257  
871.500000	-0.132204  
872.000000	-0.211825  
872.500000	-0.196143  
873.000000	-0.260431  
873.500000	-0.213053  
874.000000	-0.295439  
874.500000	-0.231568  
875.000000	-0.185325  
875.500000	0.014992   
876.000000	0.050098   
876.500000	-0.000863  
877.000000	-0.088780  
877.500000	-0.089590  
878.000000	-0.060560  
878.500000	-0.066166  
879.000000	-0.061590  
879.500000	-0.038787  
880.000000	0.060651   
880.500000	0.074924   
881.000000	-0.002507  
881.500000	-0.077681  
882.000000	-0.083106  
882.500000	-0.004356  
883.000000	0.056833   
883.500000	0.037340   
884.000000	-0.087143  
884.500000	-0.195242  
885.000000	-0.199090  
885.500000	-0.095931  
886.000000	-0.082416  
886.500000	-0.127962  
887.000000	-0.119530  
887.500000	-0.058560  
888.000000	-0.033340  
888.500000	-0.026613  
889.000000	-0.033037  
889.500000	-0.069287  
890.000000	-0.139621  
890.500000	-0.128712  
891.000000	-0.050553  
891.500000	-0.029636  
892.000000	-0.169113  
892.500000	-0.227303  
893.000000	-0.224916  
893.500000	-0.093530  
894.000000	0.016090   
894.500000	0.083477   
895.000000	0.062431   
895.500000	0.046628   
896.000000	0.091439   
896.500000	0.042856   
897.000000	-0.058787  
897.500000	-0.097962  
898.000000	0.032946   
898.500000	0.171181   
899.000000	0.197287   
899.500000	0.096348   
900.000000	-0.269318  
900.500000	-0.932000  

