PE FL                   SPECTRUM    ASCII       PEDS        1.60        
  -1
S12R#07.SP
24/04/15
15:48:14.00
24/04/15
15:49:39.00
Jan

900.500000
1









LS55
405.00
5.00
5.00
SCAN
1
20
100
100
0
400
0
1
0
1
5
ON
900 405 
1 0 0
#HDR
-1
-1
#GR
NM

0.00002384185791015625
0.0
450.000000
0.500000
902
8
207.117689
-0.803999
#DATA
450.000000	-0.803999  
450.500000	-0.376833  
451.000000	0.009568   
451.500000	0.299090   
452.000000	0.314409   
452.500000	0.169333   
453.000000	-0.129325  
453.500000	-0.211856  
454.000000	-0.158393  
454.500000	0.008560   
455.000000	0.074007   
455.500000	0.044666   
456.000000	-0.052590  
456.500000	-0.098840  
457.000000	-0.098719  
457.500000	0.049568   
458.000000	0.192878   
458.500000	0.275363   
459.000000	0.211916   
459.500000	0.188628   
460.000000	0.170583   
460.500000	0.070454   
461.000000	-0.083181  
461.500000	-0.055712  
462.000000	0.105545   
462.500000	0.104803   
463.000000	-0.120606  
463.500000	-0.292515  
464.000000	-0.266045  
464.500000	-0.194568  
465.000000	-0.270053  
465.500000	-0.265886  
466.000000	-0.123795  
466.500000	0.101363   
467.000000	0.126871   
467.500000	0.047340   
468.000000	-0.129446  
468.500000	-0.095666  
469.000000	0.039272   
469.500000	0.179090   
470.000000	0.161386   
470.500000	0.135348   
471.000000	0.116757   
471.500000	0.017287   
472.000000	-0.174136  
472.500000	-0.231492  
473.000000	-0.121446  
473.500000	-0.137598  
474.000000	-0.304992  
474.500000	-0.438583  
475.000000	-0.402189  
475.500000	-0.221371  
476.000000	-0.047030  
476.500000	0.170803   
477.000000	0.268431   
477.500000	0.207560   
478.000000	-0.000090  
478.500000	-0.071939  
479.000000	-0.040651  
479.500000	0.041098   
480.000000	-0.000318  
480.500000	-0.042901  
481.000000	0.005886   
481.500000	0.090416   
482.000000	0.051446   
482.500000	-0.146840  
483.000000	-0.340022  
483.500000	-0.414795  
484.000000	-0.396871  
484.500000	-0.146946  
485.000000	0.191068   
485.500000	0.491128   
486.000000	0.415962   
486.500000	0.207734   
487.000000	0.013810   
487.500000	0.016151   
488.000000	0.010340   
488.500000	0.152757   
489.000000	0.216553   
489.500000	0.193924   
490.000000	0.142909   
490.500000	0.157780   
491.000000	0.129106   
491.500000	0.015893   
492.000000	-0.058045  
492.500000	-0.032575  
493.000000	0.031840   
493.500000	0.010469   
494.000000	0.139310   
494.500000	0.233053   
495.000000	0.243303   
495.500000	0.183083   
496.000000	0.349159   
496.500000	0.546810   
497.000000	0.617037   
497.500000	0.439757   
498.000000	0.318560   
498.500000	0.272636   
499.000000	0.292659   
499.500000	0.325015   
500.000000	0.448454   
500.500000	0.609454   
501.000000	0.799446   
501.500000	0.869015   
502.000000	0.884977   
502.500000	0.743204   
503.000000	0.689356   
503.500000	0.673787   
504.000000	0.864477   
504.500000	1.001030   
505.000000	1.191295   
505.500000	1.272083   
506.000000	1.232818   
506.500000	1.238189   
507.000000	1.381696   
507.500000	1.692340   
508.000000	1.883090   
508.500000	1.959257   
509.000000	1.980363   
509.500000	2.032984   
510.000000	2.143636   
510.500000	2.335348   
511.000000	2.661606   
511.500000	2.788030   
512.000000	2.839265   
512.500000	2.848492   
513.000000	3.002227   
513.500000	3.108090   
514.000000	3.094946   
514.500000	3.022931   
515.000000	2.977818   
515.500000	3.071924   
516.000000	3.169719   
516.500000	3.162772   
517.000000	2.984568   
517.500000	2.868522   
518.000000	3.006234   
518.500000	3.230810   
519.000000	3.323621   
519.500000	3.229181   
520.000000	3.272136   
520.500000	3.364333   
521.000000	3.510621   
521.500000	3.354787   
522.000000	3.268121   
522.500000	3.419386   
523.000000	3.804757   
523.500000	3.980803   
524.000000	3.930469   
524.500000	3.892113   
525.000000	4.039356   
525.500000	4.239022   
526.000000	4.370136   
526.500000	4.538984   
527.000000	4.608810   
527.500000	4.631234   
528.000000	4.685166   
528.500000	5.002469   
529.000000	5.252363   
529.500000	5.420772   
530.000000	5.286045   
530.500000	5.508227   
531.000000	5.809643   
531.500000	6.222287   
532.000000	6.261840   
532.500000	6.328696   
533.000000	6.506712   
533.500000	6.895386   
534.000000	7.268583   
534.500000	7.555636   
535.000000	7.819818   
535.500000	8.195174   
536.000000	8.747522   
536.500000	9.253113   
537.000000	9.467060   
537.500000	9.677712   
538.000000	10.189901  
538.500000	11.097174  
539.000000	11.827727  
539.500000	12.471340  
540.000000	13.114189  
540.500000	13.645742  
541.000000	13.850810  
541.500000	13.856196  
542.000000	13.754575  
542.500000	13.792477  
543.000000	13.846681  
543.500000	13.892984  
544.000000	13.376530  
544.500000	12.582446  
545.000000	11.823946  
545.500000	11.568219  
546.000000	11.120196  
546.500000	10.194681  
547.000000	9.123606   
547.500000	8.454325   
548.000000	8.230939   
548.500000	7.980121   
549.000000	7.509840   
549.500000	6.816871   
550.000000	6.175863   
550.500000	5.470234   
551.000000	4.911196   
551.500000	4.645939   
552.000000	4.587530   
552.500000	4.337378   
553.000000	3.839651   
553.500000	3.279227   
554.000000	3.043689   
554.500000	3.066590   
555.000000	3.319219   
555.500000	3.563946   
556.000000	3.696507   
556.500000	3.539280   
557.000000	3.516931   
557.500000	3.626143   
558.000000	3.793007   
558.500000	3.593916   
559.000000	3.336833   
559.500000	3.156348   
560.000000	3.162356   
560.500000	3.278219   
561.000000	3.462378   
561.500000	3.560371   
562.000000	3.412386   
562.500000	3.234969   
563.000000	3.130833   
563.500000	3.172689   
564.000000	3.153818   
564.500000	3.135234   
565.000000	3.186454   
565.500000	3.363984   
566.000000	3.536393   
566.500000	3.597492   
567.000000	3.476007   
567.500000	3.351257   
568.000000	3.253303   
568.500000	3.305212   
569.000000	3.466946   
569.500000	3.647045   
570.000000	3.540598   
570.500000	3.434204   
571.000000	3.424886   
571.500000	3.493727   
572.000000	3.351871   
572.500000	3.348030   
573.000000	3.472280   
573.500000	3.500083   
574.000000	3.302484   
574.500000	3.163484   
575.000000	3.155886   
575.500000	3.040401   
576.000000	2.835598   
576.500000	2.973454   
577.000000	3.441045   
577.500000	3.777310   
578.000000	3.866810   
578.500000	3.747742   
579.000000	3.753484   
579.500000	3.748621   
580.000000	3.758477   
580.500000	3.387992   
581.000000	3.075992   
581.500000	2.862469   
582.000000	3.085962   
582.500000	3.214083   
583.000000	3.232651   
583.500000	3.119007   
584.000000	3.216462   
584.500000	3.274045   
585.000000	3.360015   
585.500000	3.368681   
586.000000	3.567969   
586.500000	3.663946   
587.000000	3.756575   
587.500000	3.732803   
588.000000	3.776484   
588.500000	3.743174   
589.000000	3.716818   
589.500000	3.690681   
590.000000	3.751386   
590.500000	3.644075   
591.000000	3.611537   
591.500000	3.673356   
592.000000	3.939628   
592.500000	3.927234   
593.000000	3.917234   
593.500000	3.926378   
594.000000	4.065666   
594.500000	4.136848   
595.000000	4.150499   
595.500000	4.118674   
596.000000	4.196265   
596.500000	4.466507   
597.000000	4.808068   
597.500000	4.848568   
598.000000	4.594651   
598.500000	4.327212   
599.000000	4.505045   
599.500000	4.725348   
600.000000	4.859522   
600.500000	4.862492   
601.000000	4.990795   
601.500000	5.247416   
602.000000	5.382530   
602.500000	5.559901   
603.000000	5.794848   
603.500000	6.260083   
604.000000	6.561204   
604.500000	6.752234   
605.000000	6.800204   
605.500000	6.816295   
606.000000	6.886946   
606.500000	6.922219   
607.000000	7.092151   
607.500000	7.065090   
608.000000	7.125583   
608.500000	7.157265   
609.000000	7.602174   
609.500000	8.143878   
610.000000	8.666386   
610.500000	8.639242   
611.000000	8.590053   
611.500000	8.827840   
612.000000	9.502446   
612.500000	9.806553   
613.000000	9.816136   
613.500000	9.738000   
614.000000	10.055810  
614.500000	10.457909  
615.000000	10.985371  
615.500000	11.777810  
616.000000	12.568303  
616.500000	12.917477  
617.000000	12.638106  
617.500000	12.741015  
618.000000	13.413765  
618.500000	14.060265  
619.000000	14.069522  
619.500000	14.047045  
620.000000	14.447060  
620.500000	15.246280  
621.000000	15.878901  
621.500000	16.550121  
622.000000	17.429378  
622.500000	18.258893  
623.000000	18.717659  
623.500000	19.354666  
624.000000	20.019098  
624.500000	21.125742  
625.000000	22.098318  
625.500000	22.859818  
626.000000	23.474757  
626.500000	24.140128  
627.000000	25.011825  
627.500000	25.875530  
628.000000	26.960340  
628.500000	27.889371  
629.000000	29.118151  
629.500000	29.998992  
630.000000	31.197787  
630.500000	31.956651  
631.000000	32.660431  
631.500000	33.543015  
632.000000	35.542500  
632.500000	37.676515  
633.000000	39.369113  
633.500000	40.467621  
634.000000	41.746143  
634.500000	42.949681  
635.000000	44.094560  
635.500000	45.470833  
636.000000	47.212249  
636.500000	48.922765  
637.000000	49.963227  
637.500000	51.239083  
638.000000	53.000840  
638.500000	56.004681  
639.000000	58.463568  
639.500000	60.573659  
640.000000	61.534659  
640.500000	62.890643  
641.000000	64.126696  
641.500000	65.954704  
642.000000	67.950151  
642.500000	70.739727  
643.000000	73.970636  
643.500000	76.957181  
644.000000	78.966863  
644.500000	79.741121  
645.000000	80.494469  
645.500000	81.655962  
646.000000	83.968295  
646.500000	86.264121  
647.000000	89.043568  
647.500000	91.384272  
648.000000	93.690257  
648.500000	95.428477  
649.000000	97.829386  
649.500000	100.509818 
650.000000	103.720265 
650.500000	106.015204 
651.000000	108.412719 
651.500000	111.615333 
652.000000	115.451242 
652.500000	119.203128 
653.000000	121.931409 
653.500000	123.857128 
654.000000	125.064227 
654.500000	126.662515 
655.000000	128.502507 
655.500000	131.740083 
656.000000	135.152560 
656.500000	139.553348 
657.000000	142.693272 
657.500000	144.571356 
658.000000	145.814151 
658.500000	147.897704 
659.000000	150.284795 
659.500000	152.216446 
660.000000	153.245742 
660.500000	154.844598 
661.000000	157.901204 
661.500000	162.161424 
662.000000	165.316030 
662.500000	167.434560 
663.000000	169.295530 
663.500000	171.978037 
664.000000	173.712227 
664.500000	175.391007 
665.000000	177.416492 
665.500000	180.382257 
666.000000	182.643159 
666.500000	184.242666 
667.000000	185.639037 
667.500000	186.959280 
668.000000	188.681151 
668.500000	190.613409 
669.000000	192.094280 
669.500000	192.754196 
670.000000	194.327151 
670.500000	195.999522 
671.000000	197.637795 
671.500000	197.341992 
672.000000	197.178689 
672.500000	198.672068 
673.000000	202.078878 
673.500000	203.609545 
674.000000	203.657825 
674.500000	202.233181 
675.000000	202.607863 
675.500000	203.232303 
676.000000	204.281833 
676.500000	205.327500 
677.000000	206.665590 
677.500000	207.117689 
678.000000	206.524340 
678.500000	205.476439 
679.000000	204.902189 
679.500000	205.387462 
680.000000	205.905689 
680.500000	204.899674 
681.000000	202.697689 
681.500000	200.202219 
682.000000	199.230742 
682.500000	197.630969 
683.000000	195.757060 
683.500000	193.742310 
684.000000	192.307803 
684.500000	190.951848 
685.000000	188.867606 
685.500000	186.861931 
686.000000	185.724098 
686.500000	183.744166 
687.000000	181.063734 
687.500000	178.815848 
688.000000	177.762386 
688.500000	175.938704 
689.000000	172.533666 
689.500000	167.766893 
690.000000	164.032378 
690.500000	160.468492 
691.000000	157.680848 
691.500000	156.094734 
692.000000	154.102196 
692.500000	150.058196 
693.000000	144.854765 
693.500000	140.611030 
694.000000	136.945212 
694.500000	133.876500 
695.000000	131.351553 
695.500000	130.793022 
696.000000	129.493659 
696.500000	126.916848 
697.000000	122.102810 
697.500000	117.220363 
698.000000	113.086219 
698.500000	109.740818 
699.000000	106.968871 
699.500000	104.151757 
700.000000	102.026840 
700.500000	99.088757  
701.000000	96.037037  
701.500000	91.886893  
702.000000	89.450727  
702.500000	87.452348  
703.000000	86.424689  
703.500000	84.010446  
704.000000	80.952348  
704.500000	77.866916  
705.000000	75.827636  
705.500000	74.000189  
706.000000	71.983295  
706.500000	70.698992  
707.000000	69.417196  
707.500000	68.204681  
708.000000	65.642765  
708.500000	63.531000  
709.000000	61.347477  
709.500000	59.885363  
710.000000	58.080636  
710.500000	56.557946  
711.000000	54.639893  
711.500000	52.600393  
712.000000	50.549984  
712.500000	49.100719  
713.000000	48.242750  
713.500000	47.466348  
714.000000	46.450765  
714.500000	44.812962  
715.000000	43.068893  
715.500000	41.748159  
716.000000	40.839750  
716.500000	39.999431  
717.000000	38.775742  
717.500000	37.256522  
718.000000	35.820621  
718.500000	34.754825  
719.000000	33.710280  
719.500000	32.787356  
720.000000	31.695780  
720.500000	30.893166  
721.000000	29.869681  
721.500000	28.686318  
722.000000	27.361666  
722.500000	26.731825  
723.000000	26.019227  
723.500000	25.453886  
724.000000	24.562431  
724.500000	23.654325  
725.000000	22.994143  
725.500000	22.604068  
726.000000	22.341356  
726.500000	21.917537  
727.000000	21.271696  
727.500000	20.462856  
728.000000	19.899431  
728.500000	19.578446  
729.000000	19.147401  
729.500000	18.427689  
730.000000	17.125530  
730.500000	16.111189  
731.000000	15.756613  
731.500000	16.270727  
732.000000	16.564689  
732.500000	15.990553  
733.000000	15.085613  
733.500000	14.918780  
734.000000	15.285484  
734.500000	15.319310  
735.000000	14.568537  
735.500000	13.553901  
736.000000	12.630128  
736.500000	12.183136  
737.000000	12.048916  
737.500000	12.172886  
738.000000	12.143818  
738.500000	12.133121  
739.000000	12.018757  
739.500000	11.862484  
740.000000	11.456696  
740.500000	10.793446  
741.000000	10.052848  
741.500000	9.614606   
742.000000	9.589507   
742.500000	9.646333   
743.000000	9.392272   
743.500000	9.124530   
744.000000	9.100674   
744.500000	9.343750   
745.000000	9.238431   
745.500000	8.898242   
746.000000	8.460280   
746.500000	8.263931   
747.000000	8.090583   
747.500000	7.984909   
748.000000	7.804606   
748.500000	7.583212   
749.000000	7.364401   
749.500000	7.427030   
750.000000	7.559696   
750.500000	7.699939   
751.000000	7.505946   
751.500000	7.201356   
752.000000	6.829287   
752.500000	6.784689   
753.000000	6.908287   
753.500000	6.800386   
754.000000	6.284636   
754.500000	5.886977   
755.000000	6.162765   
755.500000	6.563356   
756.000000	6.630651   
756.500000	6.194696   
757.000000	5.782424   
757.500000	5.381772   
758.000000	5.058030   
758.500000	4.790939   
759.000000	4.972893   
759.500000	5.218401   
760.000000	5.391946   
760.500000	5.141439   
761.000000	4.879643   
761.500000	4.723174   
762.000000	4.929507   
762.500000	4.918757   
763.000000	4.679356   
763.500000	4.333878   
764.000000	4.306393   
764.500000	4.494651   
765.000000	4.533909   
765.500000	4.204954   
766.000000	3.765674   
766.500000	3.832037   
767.000000	4.288015   
767.500000	4.585893   
768.000000	4.216409   
768.500000	3.689348   
769.000000	3.402000   
769.500000	3.493984   
770.000000	3.599992   
770.500000	3.671227   
771.000000	3.799022   
771.500000	3.821765   
772.000000	3.647628   
772.500000	3.652431   
773.000000	3.866053   
773.500000	4.053265   
774.000000	3.802719   
774.500000	3.357530   
775.000000	3.219651   
775.500000	3.523401   
776.000000	3.713946   
776.500000	3.692113   
777.000000	3.480151   
777.500000	3.259287   
778.000000	3.128409   
778.500000	3.118969   
779.000000	3.088833   
779.500000	3.041272   
780.000000	2.947075   
780.500000	2.957689   
781.000000	2.988242   
781.500000	3.010325   
782.000000	2.915431   
782.500000	2.891848   
783.000000	2.932757   
783.500000	3.061000   
784.000000	3.139681   
784.500000	3.153590   
785.000000	3.123333   
785.500000	3.144212   
786.000000	3.093613   
786.500000	2.773651   
787.000000	2.431522   
787.500000	2.362810   
788.000000	2.655977   
788.500000	2.800136   
789.000000	2.736469   
789.500000	2.591606   
790.000000	2.663530   
790.500000	2.651863   
791.000000	2.550250   
791.500000	2.434378   
792.000000	2.558340   
792.500000	2.770166   
793.000000	2.962227   
793.500000	2.850090   
794.000000	2.566924   
794.500000	2.323946   
795.000000	2.454750   
795.500000	2.694136   
796.000000	2.872022   
796.500000	2.822143   
797.000000	2.760303   
797.500000	2.617984   
798.000000	2.507287   
798.500000	2.511825   
799.000000	2.619840   
799.500000	2.550962   
800.000000	2.335962   
800.500000	2.052409   
801.000000	2.078659   
801.500000	2.236628   
802.000000	2.418780   
802.500000	2.191598   
803.000000	2.012530   
803.500000	1.980454   
804.000000	2.155681   
804.500000	1.925621   
805.000000	1.680727   
805.500000	1.636825   
806.000000	1.861462   
806.500000	2.090613   
807.000000	2.213007   
807.500000	2.189583   
808.000000	1.949204   
808.500000	1.720060   
809.000000	1.568977   
809.500000	1.522984   
810.000000	1.314348   
810.500000	1.288666   
811.000000	1.492568   
811.500000	1.906325   
812.000000	2.016704   
812.500000	1.833227   
813.000000	1.431083   
813.500000	1.276151   
814.000000	1.271931   
814.500000	1.532143   
815.000000	1.797378   
815.500000	1.960439   
816.000000	1.840666   
816.500000	1.654742   
817.000000	1.644272   
817.500000	1.681151   
818.000000	1.543924   
818.500000	1.270507   
819.000000	1.218871   
819.500000	1.345848   
820.000000	1.621212   
820.500000	1.841212   
821.000000	2.062689   
821.500000	2.238484   
822.000000	2.352954   
822.500000	2.443659   
823.000000	2.544318   
823.500000	2.499666   
824.000000	2.391530   
824.500000	2.493946   
825.000000	2.740022   
825.500000	2.808174   
826.000000	2.478666   
826.500000	2.063628   
827.000000	1.916295   
827.500000	2.032916   
828.000000	1.943174   
828.500000	1.779393   
829.000000	1.530833   
829.500000	1.537007   
830.000000	1.601363   
830.500000	1.579886   
831.000000	1.469265   
831.500000	1.390469   
832.000000	1.417606   
832.500000	1.290068   
833.000000	1.138598   
833.500000	0.953090   
834.000000	1.006590   
834.500000	1.047037   
835.000000	1.154742   
835.500000	1.218856   
836.000000	1.163393   
836.500000	1.031128   
837.000000	0.900666   
837.500000	0.846431   
838.000000	0.810568   
838.500000	0.796113   
839.000000	0.719348   
839.500000	0.656007   
840.000000	0.623007   
840.500000	0.577492   
841.000000	0.486742   
841.500000	0.445825   
842.000000	0.619318   
842.500000	0.699318   
843.000000	0.620765   
843.500000	0.415803   
844.000000	0.461628   
844.500000	0.467348   
845.000000	0.387136   
845.500000	0.205204   
846.000000	0.193568   
846.500000	0.217295   
847.000000	0.149022   
847.500000	0.015583   
848.000000	0.005143   
848.500000	0.212848   
849.000000	0.435636   
849.500000	0.462590   
850.000000	0.312030   
850.500000	0.128765   
851.000000	0.102727   
851.500000	0.077795   
852.000000	0.080257   
852.500000	0.044924   
853.000000	0.093083   
853.500000	0.066378   
854.000000	0.126174   
854.500000	0.204409   
855.000000	0.285954   
855.500000	0.166227   
856.000000	0.055151   
856.500000	0.008901   
857.000000	0.085621   
857.500000	0.061325   
858.000000	-0.018666  
858.500000	-0.110416  
859.000000	-0.128522  
859.500000	-0.116560  
860.000000	-0.113757  
860.500000	-0.159424  
861.000000	-0.196515  
861.500000	-0.145333  
862.000000	-0.001363  
862.500000	0.082454   
863.000000	0.000515   
863.500000	-0.167166  
864.000000	-0.222462  
864.500000	-0.111757  
865.000000	-0.015250  
865.500000	0.033962   
866.000000	0.002651   
866.500000	-0.005833  
867.000000	-0.030181  
867.500000	-0.053106  
868.000000	-0.080780  
868.500000	-0.112750  
869.000000	-0.149946  
869.500000	-0.202143  
870.000000	-0.202803  
870.500000	-0.214659  
871.000000	-0.187621  
871.500000	-0.141507  
872.000000	-0.093325  
872.500000	-0.036257  
873.000000	0.001212   
873.500000	0.051651   
874.000000	0.031477   
874.500000	-0.019590  
875.000000	-0.000795  
875.500000	0.103840   
876.000000	0.172000   
876.500000	0.082045   
877.000000	-0.076810  
877.500000	-0.218356  
878.000000	-0.211712  
878.500000	-0.151515  
879.000000	-0.080999  
879.500000	-0.052454  
880.000000	-0.051666  
880.500000	-0.021878  
881.000000	0.006363   
881.500000	0.035787   
882.000000	0.021098   
882.500000	0.005121   
883.000000	0.009424   
883.500000	0.024984   
884.000000	-0.002272  
884.500000	-0.045416  
885.000000	-0.033196  
885.500000	0.000272   
886.000000	0.017386   
886.500000	-0.011939  
887.000000	-0.037340  
887.500000	-0.054181  
888.000000	-0.027765  
888.500000	0.014181   
889.000000	0.065310   
889.500000	0.041454   
890.000000	-0.000742  
890.500000	-0.007886  
891.000000	0.031939   
891.500000	0.002674   
892.000000	-0.015863  
892.500000	-0.021053  
893.000000	-0.032984  
893.500000	-0.080143  
894.000000	-0.072666  
894.500000	0.007068   
895.000000	0.031954   
895.500000	-0.019590  
896.000000	-0.035439  
896.500000	-0.079227  
897.000000	-0.184484  
897.500000	-0.290462  
898.000000	-0.226659  
898.500000	-0.141583  
899.000000	-0.113492  
899.500000	-0.185643  
900.000000	-0.200598  
900.500000	-0.200000  

