PE FL                   SPECTRUM    ASCII       PEDS        1.60        
  -1
S12R#03.SP
24/04/15
15:42:32.00
24/04/15
15:43:57.00
Jan

900.500000
1









LS55
405.00
5.00
5.00
SCAN
1
20
100
100
0
400
0
1
0
1
5
ON
900 405 
1 0 0
#HDR
-1
-1
#GR
NM

0.00002384185791015625
0.0
450.000000
0.500000
902
8
216.826053
-0.387196
#DATA
450.000000	1.066000   
450.500000	0.408545   
451.000000	0.029606   
451.500000	0.006189   
452.000000	0.135787   
452.500000	0.147954   
453.000000	0.026613   
453.500000	-0.067189  
454.000000	-0.051318  
454.500000	0.159962   
455.000000	0.310212   
455.500000	0.305075   
456.000000	0.187666   
456.500000	0.168393   
457.000000	0.241856   
457.500000	0.223727   
458.000000	0.118810   
458.500000	-0.113621  
459.000000	-0.240356  
459.500000	-0.362931  
460.000000	-0.244159  
460.500000	-0.068492  
461.000000	0.029234   
461.500000	-0.092568  
462.000000	-0.232992  
462.500000	-0.286128  
463.000000	-0.320878  
463.500000	-0.322946  
464.000000	-0.309159  
464.500000	-0.192219  
465.000000	0.042765   
465.500000	0.260734   
466.000000	0.350340   
466.500000	0.204166   
467.000000	-0.064083  
467.500000	-0.223492  
468.000000	-0.208227  
468.500000	-0.184212  
469.000000	-0.107439  
469.500000	-0.044234  
470.000000	0.045765   
470.500000	-0.002598  
471.000000	-0.051530  
471.500000	-0.088689  
472.000000	-0.039113  
472.500000	-0.048916  
473.000000	-0.046795  
473.500000	-0.002583  
474.000000	0.076492   
474.500000	0.174803   
475.000000	0.147931   
475.500000	0.040121   
476.000000	-0.177113  
476.500000	-0.287962  
477.000000	-0.222287  
477.500000	-0.125196  
478.000000	-0.120136  
478.500000	-0.002825  
479.000000	0.151371   
479.500000	0.266598   
480.000000	0.171765   
480.500000	0.077106   
481.000000	0.068030   
481.500000	0.220856   
482.000000	0.280227   
482.500000	0.236469   
483.000000	0.008053   
483.500000	-0.165196  
484.000000	-0.087189  
484.500000	0.093931   
485.000000	0.187969   
485.500000	0.142666   
486.000000	0.082000   
486.500000	0.035234   
487.000000	0.064030   
487.500000	0.076250   
488.000000	0.186113   
488.500000	0.255045   
489.000000	0.207780   
489.500000	0.032530   
490.000000	-0.124659  
490.500000	-0.108090  
491.000000	0.000151   
491.500000	0.092871   
492.000000	-0.034871  
492.500000	0.020674   
493.000000	0.194303   
493.500000	0.456265   
494.000000	0.366386   
494.500000	0.226030   
495.000000	0.117681   
495.500000	0.109204   
496.000000	0.031303   
496.500000	-0.027045  
497.000000	0.111621   
497.500000	0.280856   
498.000000	0.518704   
498.500000	0.602848   
499.000000	0.615227   
499.500000	0.479431   
500.000000	0.521318   
500.500000	0.619522   
501.000000	0.739545   
501.500000	0.712212   
502.000000	0.690856   
502.500000	0.674249   
503.000000	0.726446   
503.500000	0.788810   
504.000000	1.015643   
504.500000	1.257522   
505.000000	1.461416   
505.500000	1.472424   
506.000000	1.504545   
506.500000	1.695409   
507.000000	2.077780   
507.500000	2.254522   
508.000000	2.091272   
508.500000	1.975416   
509.000000	2.199696   
509.500000	2.617969   
510.000000	2.755196   
510.500000	2.727886   
511.000000	2.670750   
511.500000	2.683780   
512.000000	2.633742   
512.500000	2.625545   
513.000000	2.702568   
513.500000	2.743174   
514.000000	2.770287   
514.500000	2.758030   
515.000000	2.861553   
515.500000	2.952575   
516.000000	3.106280   
516.500000	3.143704   
517.000000	3.237363   
517.500000	3.330893   
518.000000	3.372242   
518.500000	3.262409   
519.000000	3.190106   
519.500000	3.283333   
520.000000	3.466560   
520.500000	3.502053   
521.000000	3.382121   
521.500000	3.343272   
522.000000	3.426954   
522.500000	3.448113   
523.000000	3.410007   
523.500000	3.416174   
524.000000	3.795795   
524.500000	4.031613   
525.000000	4.023287   
525.500000	3.817333   
526.000000	4.084530   
526.500000	4.400636   
527.000000	4.664075   
527.500000	4.686128   
528.000000	4.792628   
528.500000	4.864772   
529.000000	4.822333   
529.500000	4.891810   
530.000000	5.285454   
530.500000	5.889757   
531.000000	6.102909   
531.500000	5.999871   
532.000000	5.936909   
532.500000	6.300590   
533.000000	6.742151   
533.500000	7.021545   
534.000000	7.104265   
534.500000	7.407075   
535.000000	7.655272   
535.500000	7.968363   
536.000000	8.392159   
536.500000	9.004659   
537.000000	9.508401   
537.500000	10.090121  
538.000000	10.848113  
538.500000	11.397712  
539.000000	11.499765  
539.500000	11.546098  
540.000000	12.136727  
540.500000	13.083924  
541.000000	13.839590  
541.500000	14.175083  
542.000000	13.999053  
542.500000	13.801583  
543.000000	13.612212  
543.500000	13.488333  
544.000000	13.048189  
544.500000	12.484606  
545.000000	11.765681  
545.500000	10.880939  
546.000000	9.964393   
546.500000	9.467681   
547.000000	9.397431   
547.500000	9.117492   
548.000000	8.667348   
548.500000	8.030234   
549.000000	7.465280   
549.500000	6.868227   
550.000000	6.305575   
550.500000	5.716250   
551.000000	5.256598   
551.500000	4.865628   
552.000000	4.495818   
552.500000	4.164295   
553.000000	3.940340   
553.500000	3.909348   
554.000000	3.838030   
554.500000	3.569537   
555.000000	3.277174   
555.500000	3.077886   
556.000000	3.097196   
556.500000	3.182121   
557.000000	3.271000   
557.500000	3.254136   
558.000000	3.273810   
558.500000	3.300621   
559.000000	3.363825   
559.500000	3.331992   
560.000000	3.223742   
560.500000	3.128075   
561.000000	3.169886   
561.500000	3.212992   
562.000000	3.273696   
562.500000	3.291893   
563.000000	3.336492   
563.500000	3.310643   
564.000000	3.230212   
564.500000	3.034954   
565.000000	3.044113   
565.500000	3.205651   
566.000000	3.425621   
566.500000	3.339583   
567.000000	3.108250   
567.500000	2.914977   
568.000000	3.001575   
568.500000	3.125204   
569.000000	3.276628   
569.500000	3.377416   
570.000000	3.352303   
570.500000	3.335090   
571.000000	3.373553   
571.500000	3.643742   
572.000000	3.827871   
572.500000	3.837946   
573.000000	3.636159   
573.500000	3.520469   
574.000000	3.429560   
574.500000	3.366022   
575.000000	3.343113   
575.500000	3.341977   
576.000000	3.323068   
576.500000	3.130280   
577.000000	3.074734   
577.500000	3.264303   
578.000000	3.532083   
578.500000	3.432530   
579.000000	3.138492   
579.500000	2.983916   
580.000000	3.205621   
580.500000	3.361250   
581.000000	3.289340   
581.500000	3.136719   
582.000000	3.265333   
582.500000	3.442250   
583.000000	3.490772   
583.500000	3.324530   
584.000000	3.155636   
584.500000	3.251643   
585.000000	3.512409   
585.500000	3.727704   
586.000000	3.696310   
586.500000	3.637803   
587.000000	3.532015   
587.500000	3.517318   
588.000000	3.598181   
588.500000	3.907477   
589.000000	4.147878   
589.500000	4.113636   
590.000000	3.895765   
590.500000	3.612484   
591.000000	3.517446   
591.500000	3.672886   
592.000000	4.005431   
592.500000	4.254280   
593.000000	4.400560   
593.500000	4.417393   
594.000000	4.252280   
594.500000	4.181431   
595.000000	4.244818   
595.500000	4.604439   
596.000000	4.666045   
596.500000	4.679681   
597.000000	4.616492   
597.500000	4.709583   
598.000000	4.658560   
598.500000	4.695840   
599.000000	4.717613   
599.500000	4.744333   
600.000000	4.751363   
600.500000	4.873242   
601.000000	5.152954   
601.500000	5.412643   
602.000000	5.535787   
602.500000	5.477265   
603.000000	5.524992   
603.500000	5.702893   
604.000000	6.070227   
604.500000	6.278628   
605.000000	6.463893   
605.500000	6.503340   
606.000000	6.515757   
606.500000	6.675696   
607.000000	7.023106   
607.500000	7.495954   
608.000000	7.656507   
608.500000	7.690946   
609.000000	7.871159   
609.500000	8.469030   
610.000000	8.873749   
610.500000	8.826749   
611.000000	8.585696   
611.500000	8.680863   
612.000000	9.375522   
612.500000	9.829575   
613.000000	9.967303   
613.500000	9.973310   
614.000000	10.637015  
614.500000	11.220257  
615.000000	11.368583  
615.500000	10.893598  
616.000000	11.048636  
616.500000	11.739628  
617.000000	12.605931  
617.500000	12.910098  
618.000000	12.976227  
618.500000	13.429871  
619.000000	14.243666  
619.500000	15.053409  
620.000000	15.191068  
620.500000	15.290159  
621.000000	15.561886  
621.500000	16.553946  
622.000000	17.507424  
622.500000	18.480128  
623.000000	19.286151  
623.500000	20.065333  
624.000000	20.579439  
624.500000	20.750204  
625.000000	21.013583  
625.500000	21.759909  
626.000000	23.282704  
626.500000	24.395984  
627.000000	24.974984  
627.500000	24.873530  
628.000000	25.573651  
628.500000	26.935378  
629.000000	29.196454  
629.500000	30.765159  
630.000000	31.530416  
630.500000	31.714484  
631.000000	32.535431  
631.500000	34.120606  
632.000000	35.890833  
632.500000	37.438795  
633.000000	38.602424  
633.500000	39.892098  
634.000000	41.511022  
634.500000	43.128068  
635.000000	44.682409  
635.500000	45.733931  
636.000000	46.866613  
636.500000	47.830143  
637.000000	49.254272  
637.500000	50.876628  
638.000000	53.521250  
638.500000	55.799742  
639.000000	57.878583  
639.500000	59.425750  
640.000000	61.197537  
640.500000	63.083484  
641.000000	65.420303  
641.500000	67.508280  
642.000000	69.737484  
642.500000	71.766121  
643.000000	73.639553  
643.500000	75.117515  
644.000000	76.886704  
644.500000	79.288106  
645.000000	82.276477  
645.500000	84.698219  
646.000000	86.943227  
646.500000	89.292265  
647.000000	92.026492  
647.500000	94.432621  
648.000000	97.109030  
648.500000	99.759500  
649.000000	102.156984 
649.500000	104.092242 
650.000000	105.826068 
650.500000	108.374765 
651.000000	111.273007 
651.500000	114.812393 
652.000000	117.309734 
652.500000	120.124393 
653.000000	122.003666 
653.500000	124.530189 
654.000000	126.157098 
654.500000	129.343371 
655.000000	132.841280 
655.500000	136.969628 
656.000000	139.487757 
656.500000	142.391363 
657.000000	145.055871 
657.500000	148.189772 
658.000000	150.216007 
658.500000	152.229871 
659.000000	153.537401 
659.500000	155.362348 
660.000000	157.932787 
660.500000	161.289893 
661.000000	164.698803 
661.500000	167.907492 
662.000000	171.478780 
662.500000	174.386000 
663.000000	176.512303 
663.500000	178.145606 
664.000000	180.724037 
664.500000	183.439189 
665.000000	185.069151 
665.500000	186.550325 
666.000000	189.092946 
666.500000	193.119424 
667.000000	195.603333 
667.500000	196.155075 
668.000000	194.800742 
668.500000	195.078340 
669.000000	195.810462 
669.500000	197.352757 
670.000000	198.922901 
670.500000	201.663212 
671.000000	204.261795 
671.500000	207.353931 
672.000000	209.466386 
672.500000	210.246045 
673.000000	209.064250 
673.500000	207.396295 
674.000000	207.612681 
674.500000	209.298515 
675.000000	212.022333 
675.500000	213.902318 
676.000000	215.175931 
676.500000	215.165666 
677.000000	216.216863 
677.500000	216.695530 
678.000000	215.830356 
678.500000	214.699734 
679.000000	214.777810 
679.500000	216.621015 
680.000000	216.826053 
680.500000	215.533712 
681.000000	213.495265 
681.500000	212.498431 
682.000000	211.462128 
682.500000	208.267090 
683.000000	204.550227 
683.500000	202.094363 
684.000000	202.603431 
684.500000	201.617931 
685.000000	199.321659 
685.500000	196.593234 
686.000000	194.832303 
686.500000	192.587651 
687.000000	190.301931 
687.500000	189.009924 
688.000000	187.709924 
688.500000	185.354333 
689.000000	181.282856 
689.500000	178.042719 
690.000000	176.410310 
690.500000	174.644196 
691.000000	170.694825 
691.500000	164.864863 
692.000000	160.753969 
692.500000	157.726780 
693.000000	155.607772 
693.500000	152.541560 
694.000000	150.197250 
694.500000	146.657143 
695.000000	143.412250 
695.500000	140.897159 
696.000000	139.040613 
696.500000	135.791810 
697.000000	130.801462 
697.500000	125.966666 
698.000000	121.801522 
698.500000	118.727090 
699.000000	116.120363 
699.500000	113.441053 
700.000000	110.151363 
700.500000	106.943545 
701.000000	104.292333 
701.500000	102.345507 
702.000000	99.847666  
702.500000	96.585734  
703.000000	92.767568  
703.500000	89.424409  
704.000000	86.354765  
704.500000	84.512560  
705.000000	82.751348  
705.500000	80.968901  
706.000000	78.702462  
706.500000	76.035204  
707.000000	73.278295  
707.500000	70.743249  
708.000000	68.837227  
708.500000	67.534787  
709.000000	66.478606  
709.500000	64.467689  
710.000000	62.226871  
710.500000	60.331053  
711.000000	59.011893  
711.500000	57.683780  
712.000000	55.707196  
712.500000	54.013363  
713.000000	52.868075  
713.500000	52.211439  
714.000000	50.689106  
714.500000	49.159068  
715.000000	47.334325  
715.500000	46.037007  
716.000000	44.366681  
716.500000	42.193704  
717.000000	39.938037  
717.500000	38.849159  
718.000000	38.786946  
718.500000	37.793143  
719.000000	36.176333  
719.500000	34.518575  
720.000000	34.089568  
720.500000	33.481287  
721.000000	32.301628  
721.500000	30.905053  
722.000000	29.730204  
722.500000	29.405515  
723.000000	29.130000  
723.500000	28.623295  
724.000000	27.225825  
724.500000	26.229409  
725.000000	25.527401  
725.500000	25.008265  
726.000000	24.148030  
726.500000	23.482249  
727.000000	22.942431  
727.500000	21.975772  
728.000000	21.109431  
728.500000	20.807765  
729.000000	21.007212  
729.500000	20.865606  
730.000000	20.129287  
730.500000	19.356530  
731.000000	18.685318  
731.500000	17.965409  
732.000000	17.318196  
732.500000	16.901000  
733.000000	16.588689  
733.500000	16.190515  
734.000000	15.707030  
734.500000	15.652568  
735.000000	15.941053  
735.500000	16.075151  
736.000000	15.416681  
736.500000	14.361560  
737.000000	13.228613  
737.500000	12.787734  
738.000000	12.584863  
738.500000	12.368666  
739.000000	11.933530  
739.500000	11.429431  
740.000000	11.079121  
740.500000	10.860946  
741.000000	10.609795  
741.500000	10.334750  
742.000000	10.506575  
742.500000	10.884424  
743.000000	10.935909  
743.500000	10.318795  
744.000000	9.656969   
744.500000	9.320621   
745.000000	9.342250   
745.500000	9.175439   
746.000000	8.804378   
746.500000	8.360643   
747.000000	8.156674   
747.500000	8.173280   
748.000000	8.269893   
748.500000	8.079780   
749.000000	7.653227   
749.500000	7.356537   
750.000000	7.310409   
750.500000	7.277916   
751.000000	7.222515   
751.500000	7.051886   
752.000000	6.934636   
752.500000	6.822272   
753.000000	6.750257   
753.500000	6.664106   
754.000000	6.403598   
754.500000	6.069007   
755.000000	5.962810   
755.500000	6.229772   
756.000000	6.522749   
756.500000	6.368674   
757.000000	6.107833   
757.500000	6.099537   
758.000000	6.459477   
758.500000	6.489000   
759.000000	6.122545   
759.500000	5.588348   
760.000000	5.331515   
760.500000	5.185265   
761.000000	5.150719   
761.500000	5.262606   
762.000000	5.268962   
762.500000	5.192340   
763.000000	5.136492   
763.500000	5.232250   
764.000000	5.318522   
764.500000	5.263863   
765.000000	5.086681   
765.500000	4.865045   
766.000000	4.827431   
766.500000	4.788598   
767.000000	4.741075   
767.500000	4.411924   
768.000000	4.163363   
768.500000	4.079916   
769.000000	4.076128   
769.500000	3.873878   
770.000000	3.756416   
770.500000	3.898719   
771.000000	4.038484   
771.500000	3.927121   
772.000000	3.566651   
772.500000	3.401613   
773.000000	3.442636   
773.500000	3.469356   
774.000000	3.452931   
774.500000	3.475151   
775.000000	3.535939   
775.500000	3.480280   
776.000000	3.438909   
776.500000	3.422151   
777.000000	3.513219   
777.500000	3.426499   
778.000000	3.182386   
778.500000	2.979659   
779.000000	3.002303   
779.500000	3.239681   
780.000000	3.455825   
780.500000	3.541128   
781.000000	3.391522   
781.500000	3.217075   
782.000000	3.064833   
782.500000	3.100333   
783.000000	3.208719   
783.500000	3.329530   
784.000000	3.303772   
784.500000	3.188204   
785.000000	3.092242   
785.500000	3.033492   
786.000000	2.974454   
786.500000	2.839015   
787.000000	2.756765   
787.500000	2.735560   
788.000000	2.882833   
788.500000	2.979939   
789.000000	3.029022   
789.500000	2.899674   
790.000000	2.804098   
790.500000	2.826500   
791.000000	2.912053   
791.500000	2.860174   
792.000000	2.740590   
792.500000	2.624856   
793.000000	2.702522   
793.500000	2.819712   
794.000000	2.825280   
794.500000	2.769545   
795.000000	2.756030   
795.500000	2.729712   
796.000000	2.660681   
796.500000	2.641113   
797.000000	2.721962   
797.500000	2.796871   
798.000000	2.671553   
798.500000	2.525431   
799.000000	2.515848   
799.500000	2.476575   
800.000000	2.336696   
800.500000	2.282765   
801.000000	2.424075   
801.500000	2.569962   
802.000000	2.469931   
802.500000	2.312015   
803.000000	2.301992   
803.500000	2.338037   
804.000000	2.208734   
804.500000	1.977250   
805.000000	1.758924   
805.500000	1.759310   
806.000000	2.071128   
806.500000	2.434371   
807.000000	2.304083   
807.500000	1.728515   
808.000000	1.221772   
808.500000	1.247931   
809.000000	1.577303   
809.500000	1.903863   
810.000000	1.892136   
810.500000	1.804219   
811.000000	1.718492   
811.500000	1.932750   
812.000000	1.991590   
812.500000	1.984371   
813.000000	1.835401   
813.500000	1.762227   
814.000000	1.542234   
814.500000	1.374674   
815.000000	1.422598   
815.500000	1.643606   
816.000000	1.926560   
816.500000	1.996818   
817.000000	1.839416   
817.500000	1.430151   
818.000000	1.111348   
818.500000	1.106863   
819.000000	1.477613   
819.500000	1.964333   
820.000000	2.142053   
820.500000	2.150159   
821.000000	2.121954   
821.500000	2.380378   
822.000000	2.462143   
822.500000	2.492424   
823.000000	2.359909   
823.500000	2.485613   
824.000000	2.446568   
824.500000	2.349863   
825.000000	2.160681   
825.500000	2.252772   
826.000000	2.505810   
826.500000	2.680742   
827.000000	2.679803   
827.500000	2.566356   
828.000000	2.471492   
828.500000	2.321409   
829.000000	2.059310   
829.500000	1.672568   
830.000000	1.383856   
830.500000	1.266681   
831.000000	1.233962   
831.500000	1.164651   
832.000000	1.244204   
832.500000	1.439893   
833.000000	1.531409   
833.500000	1.297954   
834.000000	1.089257   
834.500000	1.025795   
835.000000	1.073787   
835.500000	1.062856   
836.000000	1.003992   
836.500000	0.943083   
837.000000	0.936553   
837.500000	1.002893   
838.000000	1.055825   
838.500000	1.018340   
839.000000	0.935803   
839.500000	0.890060   
840.000000	0.805530   
840.500000	0.709424   
841.000000	0.644946   
841.500000	0.727166   
842.000000	0.811795   
842.500000	0.801606   
843.000000	0.675575   
843.500000	0.569977   
844.000000	0.562083   
844.500000	0.547416   
845.000000	0.473363   
845.500000	0.292159   
846.000000	0.289893   
846.500000	0.465590   
847.000000	0.736787   
847.500000	0.756946   
848.000000	0.583121   
848.500000	0.365075   
849.000000	0.334196   
849.500000	0.457219   
850.000000	0.503598   
850.500000	0.415977   
851.000000	0.206363   
851.500000	0.028227   
852.000000	-0.067530  
852.500000	-0.058333  
853.000000	0.088606   
853.500000	0.287053   
854.000000	0.377340   
854.500000	0.187924   
855.000000	0.099234   
855.500000	0.097348   
856.000000	0.202409   
856.500000	0.097340   
857.000000	-0.012007  
857.500000	0.001499   
858.000000	0.126643   
858.500000	0.095750   
859.000000	-0.017530  
859.500000	-0.089136  
860.000000	-0.024666  
860.500000	0.079446   
861.000000	0.094939   
861.500000	-0.013939  
862.000000	-0.091295  
862.500000	0.007749   
863.000000	0.175643   
863.500000	0.210250   
864.000000	0.024704   
864.500000	-0.121242  
865.000000	-0.125939  
865.500000	-0.031250  
866.000000	-0.043045  
866.500000	-0.009128  
867.000000	0.114818   
867.500000	0.329727   
868.000000	0.374325   
868.500000	0.204310   
869.000000	-0.054280  
869.500000	-0.126000  
870.000000	-0.013204  
870.500000	0.064280   
871.000000	0.005204   
871.500000	-0.106159  
872.000000	-0.032969  
872.500000	0.086757   
873.000000	0.131348   
873.500000	0.016863   
874.000000	-0.073954  
874.500000	-0.083946  
875.000000	-0.039999  
875.500000	-0.094090  
876.000000	-0.215424  
876.500000	-0.346083  
877.000000	-0.387196  
877.500000	-0.337696  
878.000000	-0.166500  
878.500000	0.010545   
879.000000	0.098606   
879.500000	0.063159   
880.000000	0.028174   
880.500000	0.005060   
881.000000	0.019886   
881.500000	0.045787   
882.000000	0.109606   
882.500000	0.078795   
883.000000	0.011946   
883.500000	-0.064878  
884.000000	-0.040621  
884.500000	-0.051121  
885.000000	-0.054696  
885.500000	-0.054621  
886.000000	0.006287   
886.500000	0.065234   
887.000000	0.090651   
887.500000	0.093840   
888.000000	0.049757   
888.500000	0.045318   
889.000000	0.015848   
889.500000	0.027348   
890.000000	0.008242   
890.500000	-0.011606  
891.000000	-0.083166  
891.500000	-0.115780  
892.000000	-0.121325  
892.500000	-0.123242  
893.000000	-0.192492  
893.500000	-0.244492  
894.000000	-0.207530  
894.500000	-0.186265  
895.000000	-0.182606  
895.500000	-0.137772  
896.000000	0.001371   
896.500000	0.040909   
897.000000	-0.002878  
897.500000	-0.057977  
898.000000	-0.093704  
898.500000	-0.114659  
899.000000	-0.087424  
899.500000	0.017356   
900.000000	-0.014772  
900.500000	-0.266000  

