PE FL                   SPECTRUM    ASCII       PEDS        1.60        
  -1
S12R#06.SP
24/04/15
15:46:48.00
24/04/15
15:48:14.00
Jan

900.500000
1









LS55
405.00
5.00
5.00
SCAN
1
20
100
100
0
400
0
1
0
1
5
ON
900 405 
1 0 0
#HDR
-1
-1
#GR
NM

0.00002384185791015625
0.0
450.000000
0.500000
902
8
209.273143
-0.310719
#DATA
450.000000	-0.136000  
450.500000	-0.136462  
451.000000	-0.184121  
451.500000	-0.233780  
452.000000	-0.162833  
452.500000	-0.085856  
453.000000	0.019871   
453.500000	0.061068   
454.000000	0.056939   
454.500000	-0.017083  
455.000000	-0.082219  
455.500000	-0.019560  
456.000000	0.085825   
456.500000	0.140780   
457.000000	-0.024166  
457.500000	-0.214477  
458.000000	-0.310719  
458.500000	-0.132371  
459.000000	0.080568   
459.500000	0.161939   
460.000000	0.067659   
460.500000	-0.110128  
461.000000	-0.149946  
461.500000	-0.121977  
462.000000	-0.035234  
462.500000	-0.003068  
463.000000	0.202484   
463.500000	0.377310   
464.000000	0.477159   
464.500000	0.372651   
465.000000	0.191787   
465.500000	0.079795   
466.000000	0.138204   
466.500000	0.172810   
467.000000	0.139659   
467.500000	-0.029765  
468.000000	0.059492   
468.500000	0.134098   
469.000000	0.139825   
469.500000	-0.125681  
470.000000	-0.121242  
470.500000	-0.060250  
471.000000	0.054257   
471.500000	0.029083   
472.000000	0.072742   
472.500000	0.002727   
473.000000	-0.140886  
473.500000	-0.202507  
474.000000	-0.017696  
474.500000	0.198719   
475.000000	0.167530   
475.500000	-0.068871  
476.000000	-0.245810  
476.500000	-0.243992  
477.000000	-0.139219  
477.500000	-0.028174  
478.000000	0.018886   
478.500000	-0.029053  
479.000000	-0.024750  
479.500000	-0.002143  
480.000000	0.109795   
480.500000	0.166780   
481.000000	0.274446   
481.500000	0.312378   
482.000000	0.273734   
482.500000	0.144856   
483.000000	0.100537   
483.500000	0.109916   
484.000000	0.006765   
484.500000	-0.127992  
485.000000	-0.165075  
485.500000	-0.012439  
486.000000	0.121613   
486.500000	0.101568   
487.000000	0.022757   
487.500000	-0.077204  
488.000000	-0.145378  
488.500000	-0.184765  
489.000000	-0.024924  
489.500000	0.183803   
490.000000	0.372393   
490.500000	0.345893   
491.000000	0.239204   
491.500000	0.159159   
492.000000	0.101068   
492.500000	0.148121   
493.000000	0.305083   
493.500000	0.564984   
494.000000	0.671181   
494.500000	0.592803   
495.000000	0.278689   
495.500000	0.021121   
496.000000	-0.016037  
496.500000	0.175810   
497.000000	0.320227   
497.500000	0.310462   
498.000000	0.292340   
498.500000	0.393151   
499.000000	0.536189   
499.500000	0.572318   
500.000000	0.581613   
500.500000	0.614530   
501.000000	0.680166   
501.500000	0.838992   
502.000000	1.060159   
502.500000	1.166159   
503.000000	1.110825   
503.500000	0.992848   
504.000000	1.076000   
504.500000	1.160469   
505.000000	1.210962   
505.500000	1.178719   
506.000000	1.463053   
506.500000	1.785901   
507.000000	2.082666   
507.500000	2.088742   
508.000000	2.160621   
508.500000	2.125159   
509.000000	2.153977   
509.500000	2.122212   
510.000000	2.281795   
510.500000	2.361674   
511.000000	2.501901   
511.500000	2.493848   
512.000000	2.584454   
512.500000	2.595568   
513.000000	2.739886   
513.500000	2.870863   
514.000000	3.022287   
514.500000	3.048583   
515.000000	3.074553   
515.500000	3.053075   
516.000000	3.080840   
516.500000	3.145318   
517.000000	3.182818   
517.500000	3.159363   
518.000000	3.051068   
518.500000	3.038227   
519.000000	3.323166   
519.500000	3.703431   
520.000000	3.929151   
520.500000	3.761666   
521.000000	3.511560   
521.500000	3.374454   
522.000000	3.528280   
522.500000	3.564409   
523.000000	3.598136   
523.500000	3.561174   
524.000000	3.738469   
524.500000	3.871462   
525.000000	3.881022   
525.500000	3.751242   
526.000000	3.888083   
526.500000	4.246621   
527.000000	4.631659   
527.500000	4.710174   
528.000000	4.443401   
528.500000	4.312022   
529.000000	4.555704   
529.500000	4.928159   
530.000000	5.030007   
530.500000	5.207833   
531.000000	5.624924   
531.500000	6.092772   
532.000000	6.187507   
532.500000	6.099454   
533.000000	6.438234   
533.500000	7.188196   
534.000000	7.886742   
534.500000	8.132757   
535.000000	7.934166   
535.500000	7.591863   
536.000000	7.529674   
536.500000	8.110090   
537.000000	9.212424   
537.500000	10.307439  
538.000000	10.754992  
538.500000	10.880659  
539.000000	11.153477  
539.500000	11.897795  
540.000000	12.703659  
540.500000	13.819128  
541.000000	14.680393  
541.500000	15.118659  
542.000000	14.564515  
542.500000	13.916136  
543.000000	13.437280  
543.500000	13.403606  
544.000000	13.257984  
544.500000	12.926363  
545.000000	12.202825  
545.500000	11.239878  
546.000000	10.481424  
546.500000	10.114363  
547.000000	9.906931   
547.500000	9.420159   
548.000000	8.626371   
548.500000	7.850280   
549.000000	7.244704   
549.500000	6.853939   
550.000000	6.401598   
550.500000	5.912606   
551.000000	5.335333   
551.500000	4.882204   
552.000000	4.460446   
552.500000	4.275015   
553.000000	3.984871   
553.500000	3.649431   
554.000000	3.263568   
554.500000	3.239765   
555.000000	3.404628   
555.500000	3.423060   
556.000000	3.119886   
556.500000	2.945015   
557.000000	3.044939   
557.500000	3.236833   
558.000000	3.209121   
558.500000	3.160643   
559.000000	3.209295   
559.500000	3.406121   
560.000000	3.448696   
560.500000	3.428628   
561.000000	3.490181   
561.500000	3.554469   
562.000000	3.285727   
562.500000	2.905901   
563.000000	2.792507   
563.500000	3.015613   
564.000000	3.112189   
564.500000	3.056287   
565.000000	3.013371   
565.500000	3.207257   
566.000000	3.289083   
566.500000	3.242439   
567.000000	3.088295   
567.500000	3.016318   
568.000000	3.072166   
568.500000	3.140250   
569.000000	3.140560   
569.500000	3.090818   
570.000000	3.051348   
570.500000	3.193590   
571.000000	3.338477   
571.500000	3.484787   
572.000000	3.425030   
572.500000	3.393446   
573.000000	3.282212   
573.500000	3.233295   
574.000000	3.109795   
574.500000	3.133916   
575.000000	3.193303   
575.500000	3.278681   
576.000000	3.307439   
576.500000	3.319545   
577.000000	3.307204   
577.500000	3.305583   
578.000000	3.460674   
578.500000	3.629765   
579.000000	3.710772   
579.500000	3.501401   
580.000000	3.400674   
580.500000	3.375416   
581.000000	3.471810   
581.500000	3.385500   
582.000000	3.341037   
582.500000	3.277159   
583.000000	3.204242   
583.500000	3.184727   
584.000000	3.361068   
584.500000	3.588318   
585.000000	3.610181   
585.500000	3.486424   
586.000000	3.395272   
586.500000	3.482159   
587.000000	3.451795   
587.500000	3.370969   
588.000000	3.277560   
588.500000	3.387727   
589.000000	3.539340   
589.500000	3.631742   
590.000000	3.617909   
590.500000	3.748356   
591.000000	3.906712   
591.500000	3.951515   
592.000000	3.910454   
592.500000	3.854727   
593.000000	3.753522   
593.500000	3.628075   
594.000000	3.512780   
594.500000	3.836045   
595.000000	4.242886   
595.500000	4.704249   
596.000000	4.634022   
596.500000	4.550598   
597.000000	4.353462   
597.500000	4.545628   
598.000000	4.693075   
598.500000	4.852757   
599.000000	4.923462   
599.500000	5.128689   
600.000000	5.378113   
600.500000	5.660863   
601.000000	5.836590   
601.500000	5.892098   
602.000000	5.710984   
602.500000	5.484719   
603.000000	5.392348   
603.500000	5.713621   
604.000000	6.225757   
604.500000	6.426234   
605.000000	6.349803   
605.500000	6.150446   
606.000000	6.447651   
606.500000	7.023022   
607.000000	7.591409   
607.500000	7.720348   
608.000000	7.620833   
608.500000	7.579674   
609.000000	7.750378   
609.500000	8.217712   
610.000000	8.632954   
610.500000	8.972249   
611.000000	9.053871   
611.500000	9.117810   
612.000000	9.235636   
612.500000	9.309553   
613.000000	9.280477   
613.500000	9.443431   
614.000000	10.020734  
614.500000	10.798840  
615.000000	11.563356  
615.500000	12.061863  
616.000000	12.377780  
616.500000	12.385037  
617.000000	12.403469  
617.500000	12.726530  
618.000000	13.430757  
618.500000	13.968848  
619.000000	14.355227  
619.500000	14.868613  
620.000000	15.590318  
620.500000	16.301318  
621.000000	16.884795  
621.500000	17.454446  
622.000000	17.983871  
622.500000	18.263098  
623.000000	18.517750  
623.500000	19.281575  
624.000000	20.484643  
624.500000	21.436946  
625.000000	21.981613  
625.500000	22.329984  
626.000000	22.922174  
626.500000	23.510469  
627.000000	24.116280  
627.500000	25.033303  
628.000000	26.588924  
628.500000	28.016977  
629.000000	29.075022  
629.500000	29.752340  
630.000000	31.076454  
630.500000	32.798878  
631.000000	34.514651  
631.500000	35.319037  
632.000000	35.989401  
632.500000	36.478075  
633.000000	37.610446  
633.500000	39.088083  
634.000000	41.040681  
634.500000	42.366719  
635.000000	43.503719  
635.500000	44.371507  
636.000000	45.553659  
636.500000	46.994727  
637.000000	49.433590  
637.500000	52.217977  
638.000000	54.459477  
638.500000	55.380712  
639.000000	56.550393  
639.500000	58.208848  
640.000000	60.023424  
640.500000	60.996643  
641.000000	62.213015  
641.500000	64.648378  
642.000000	68.131325  
642.500000	71.100113  
643.000000	73.468469  
643.500000	76.009416  
644.000000	78.777106  
644.500000	81.086492  
645.000000	83.109787  
645.500000	85.251515  
646.000000	87.257053  
646.500000	88.398787  
647.000000	89.198984  
647.500000	90.882893  
648.000000	93.690234  
648.500000	96.848742  
649.000000	99.822303  
649.500000	102.815545 
650.000000	106.314727 
650.500000	109.362181 
651.000000	111.892053 
651.500000	113.176946 
652.000000	114.613083 
652.500000	116.162606 
653.000000	119.076992 
653.500000	122.896613 
654.000000	126.148378 
654.500000	129.124454 
655.000000	131.394492 
655.500000	133.962500 
656.000000	135.765409 
656.500000	138.469106 
657.000000	141.558484 
657.500000	144.946530 
658.000000	148.238939 
658.500000	151.365969 
659.000000	155.096106 
659.500000	157.481310 
660.000000	159.453515 
660.500000	161.559234 
661.000000	164.204924 
661.500000	166.287068 
662.000000	167.162030 
662.500000	168.954333 
663.000000	171.778545 
663.500000	175.482416 
664.000000	177.542969 
664.500000	179.108878 
665.000000	180.125030 
665.500000	181.481522 
666.000000	183.220113 
666.500000	185.150780 
667.000000	186.750757 
667.500000	187.780295 
668.000000	189.919401 
668.500000	193.055340 
669.000000	196.246780 
669.500000	198.133962 
670.000000	199.690651 
670.500000	200.782765 
671.000000	202.260469 
671.500000	203.605174 
672.000000	205.106181 
672.500000	206.005598 
673.000000	206.625651 
673.500000	207.284492 
674.000000	207.300492 
674.500000	206.743727 
675.000000	206.463022 
675.500000	207.369356 
676.000000	208.739856 
676.500000	209.273143 
677.000000	208.951416 
677.500000	208.061363 
678.000000	207.883242 
678.500000	205.908265 
679.000000	203.358583 
679.500000	201.447348 
680.000000	202.588977 
680.500000	204.668143 
681.000000	204.911621 
681.500000	203.421962 
682.000000	202.200348 
682.500000	202.044643 
683.000000	200.886128 
683.500000	199.176886 
684.000000	197.148787 
684.500000	195.820598 
685.000000	194.455143 
685.500000	192.140962 
686.000000	189.550636 
686.500000	187.093000 
687.000000	184.252022 
687.500000	180.474075 
688.000000	177.193386 
688.500000	175.412166 
689.000000	174.562159 
689.500000	172.467606 
690.000000	168.847946 
690.500000	165.631348 
691.000000	162.574136 
691.500000	160.054227 
692.000000	156.511007 
692.500000	152.724174 
693.000000	147.342143 
693.500000	143.181431 
694.000000	140.008181 
694.500000	138.844287 
695.000000	136.058553 
695.500000	132.548704 
696.000000	128.649696 
696.500000	125.076295 
697.000000	121.494227 
697.500000	118.287128 
698.000000	116.170946 
698.500000	113.788272 
699.000000	111.099416 
699.500000	107.129022 
700.000000	103.863863 
700.500000	100.679568 
701.000000	98.217787  
701.500000	96.019946  
702.000000	93.929871  
702.500000	91.780204  
703.000000	89.234628  
703.500000	86.783863  
704.000000	84.312689  
704.500000	82.032575  
705.000000	79.249386  
705.500000	76.338757  
706.000000	73.680515  
706.500000	71.921295  
707.000000	70.710234  
707.500000	69.326037  
708.000000	67.415000  
708.500000	65.342484  
709.000000	63.389893  
709.500000	61.701530  
710.000000	59.572363  
710.500000	57.103454  
711.000000	54.700977  
711.500000	53.163151  
712.000000	51.869325  
712.500000	50.753939  
713.000000	49.060356  
713.500000	47.448568  
714.000000	45.810098  
714.500000	44.270628  
715.000000	42.436530  
715.500000	41.093863  
716.000000	40.791166  
716.500000	40.831015  
717.000000	40.169113  
717.500000	38.353136  
718.000000	36.935878  
718.500000	36.102636  
719.000000	35.149787  
719.500000	33.684401  
720.000000	32.232871  
720.500000	31.359568  
721.000000	30.715325  
721.500000	30.143333  
722.000000	29.325522  
722.500000	28.379113  
723.000000	27.329113  
723.500000	26.329568  
724.000000	25.539113  
724.500000	24.560924  
725.000000	23.641803  
725.500000	22.771553  
726.000000	22.227159  
726.500000	22.093272  
727.000000	22.041106  
727.500000	21.769136  
728.000000	20.834757  
728.500000	19.738401  
729.000000	19.040901  
729.500000	18.985075  
730.000000	18.864136  
730.500000	18.444159  
731.000000	17.702901  
731.500000	16.976159  
732.000000	16.543613  
732.500000	16.386386  
733.000000	16.210227  
733.500000	15.758083  
734.000000	15.020068  
734.500000	14.538303  
735.000000	14.263696  
735.500000	13.807250  
736.000000	13.159204  
736.500000	12.597159  
737.000000	12.235098  
737.500000	12.033681  
738.000000	11.872348  
738.500000	11.917212  
739.000000	11.783507  
739.500000	11.492416  
740.000000	11.146083  
740.500000	11.168424  
741.000000	11.221696  
741.500000	11.085818  
742.000000	10.636871  
742.500000	10.096219  
743.000000	9.733871   
743.500000	9.507515   
744.000000	9.361803   
744.500000	9.125030   
745.000000	9.169924   
745.500000	9.293893   
746.000000	9.203249   
746.500000	9.086909   
747.000000	8.940863   
747.500000	8.794196   
748.000000	8.286886   
748.500000	7.857007   
749.000000	7.383689   
749.500000	7.045575   
750.000000	6.800545   
750.500000	7.013242   
751.000000	7.212712   
751.500000	6.980477   
752.000000	6.727159   
752.500000	6.585984   
753.000000	6.572356   
753.500000	6.239393   
754.000000	6.076068   
754.500000	5.919257   
755.000000	5.980803   
755.500000	5.880340   
756.000000	5.963098   
756.500000	6.007659   
757.000000	6.076356   
757.500000	5.930439   
758.000000	5.671000   
758.500000	5.443068   
759.000000	5.353727   
759.500000	5.455431   
760.000000	5.433075   
760.500000	5.149568   
761.000000	4.996840   
761.500000	5.241734   
762.000000	5.517257   
762.500000	5.257454   
763.000000	4.868196   
763.500000	4.772393   
764.000000	4.933424   
764.500000	4.815007   
765.000000	4.559416   
765.500000	4.340219   
766.000000	4.373818   
766.500000	4.460189   
767.000000	4.651174   
767.500000	4.716765   
768.000000	4.577674   
768.500000	4.281499   
769.000000	4.054022   
769.500000	3.821212   
770.000000	3.730886   
770.500000	3.635840   
771.000000	3.626659   
771.500000	3.657318   
772.000000	3.762530   
772.500000	3.648681   
773.000000	3.576386   
773.500000	3.588378   
774.000000	3.799681   
774.500000	3.663643   
775.000000	3.386356   
775.500000	3.232015   
776.000000	3.506553   
776.500000	3.695840   
777.000000	3.743840   
777.500000	3.600621   
778.000000	3.494174   
778.500000	3.346651   
779.000000	3.262749   
779.500000	3.184628   
780.000000	3.114863   
780.500000	3.080159   
781.000000	3.091810   
781.500000	3.161946   
782.000000	3.127439   
782.500000	3.157757   
783.000000	3.235075   
783.500000	3.331606   
784.000000	3.234666   
784.500000	3.099606   
785.000000	2.977280   
785.500000	2.891984   
786.000000	2.748507   
786.500000	2.677787   
787.000000	2.729818   
787.500000	2.832068   
788.000000	2.891825   
788.500000	2.990515   
789.000000	3.088871   
789.500000	3.191348   
790.000000	3.148545   
790.500000	2.900696   
791.000000	2.577257   
791.500000	2.478174   
792.000000	2.629272   
792.500000	2.780386   
793.000000	2.720712   
793.500000	2.594719   
794.000000	2.505590   
794.500000	2.515151   
795.000000	2.598340   
795.500000	2.815659   
796.000000	2.834537   
796.500000	2.694037   
797.000000	2.580257   
797.500000	2.638469   
798.000000	2.732621   
798.500000	2.496848   
799.000000	2.131750   
799.500000	1.825303   
800.000000	1.808477   
800.500000	1.970242   
801.000000	2.285787   
801.500000	2.453833   
802.000000	2.439780   
802.500000	2.323469   
803.000000	2.195363   
803.500000	2.133886   
804.000000	2.106500   
804.500000	2.079318   
805.000000	2.054098   
805.500000	1.905628   
806.000000	1.759174   
806.500000	1.705030   
807.000000	1.755545   
807.500000	1.808333   
808.000000	1.932484   
808.500000	2.043727   
809.000000	1.959750   
809.500000	1.677340   
810.000000	1.476568   
810.500000	1.705659   
811.000000	2.043606   
811.500000	2.233810   
812.000000	1.985090   
812.500000	1.750151   
813.000000	1.610318   
813.500000	1.749295   
814.000000	1.818022   
814.500000	1.776583   
815.000000	1.607242   
815.500000	1.464636   
816.000000	1.349340   
816.500000	1.240598   
817.000000	1.375151   
817.500000	1.603333   
818.000000	1.817007   
818.500000	1.712106   
819.000000	1.499060   
819.500000	1.509295   
820.000000	1.864606   
820.500000	2.101553   
821.000000	1.975696   
821.500000	1.778939   
822.000000	1.900803   
822.500000	2.318818   
823.000000	2.483621   
823.500000	2.453977   
824.000000	2.432590   
824.500000	2.631568   
825.000000	2.750689   
825.500000	2.661825   
826.000000	2.421909   
826.500000	2.292113   
827.000000	2.331310   
827.500000	2.313075   
828.000000	2.136530   
828.500000	1.885916   
829.000000	1.764446   
829.500000	1.705871   
830.000000	1.605378   
830.500000	1.447575   
831.000000	1.293924   
831.500000	1.157212   
832.000000	1.038931   
832.500000	1.004098   
833.000000	1.048575   
833.500000	1.034310   
834.000000	1.025492   
834.500000	1.085090   
835.000000	1.203181   
835.500000	1.174454   
836.000000	1.066022   
836.500000	0.974446   
837.000000	1.008075   
837.500000	0.980696   
838.000000	0.853196   
838.500000	0.704659   
839.000000	0.745643   
839.500000	0.891719   
840.000000	0.918795   
840.500000	0.849492   
841.000000	0.791174   
841.500000	0.790780   
842.000000	0.709643   
842.500000	0.556530   
843.000000	0.387583   
843.500000	0.275439   
844.000000	0.219007   
844.500000	0.291613   
845.000000	0.470340   
845.500000	0.648416   
846.000000	0.764416   
846.500000	0.712734   
847.000000	0.527500   
847.500000	0.334454   
848.000000	0.386878   
848.500000	0.546575   
849.000000	0.612954   
849.500000	0.464318   
850.000000	0.337121   
850.500000	0.201257   
851.000000	0.135121   
851.500000	0.089196   
852.000000	0.167340   
852.500000	0.220848   
853.000000	0.183507   
853.500000	0.044098   
854.000000	-0.124568  
854.500000	-0.094249  
855.000000	0.118181   
855.500000	0.362954   
856.000000	0.304090   
856.500000	0.101833   
857.000000	-0.037643  
857.500000	-0.040924  
858.000000	-0.005204  
858.500000	0.061242   
859.000000	0.116098   
859.500000	0.091977   
860.000000	0.063287   
860.500000	0.068265   
861.000000	0.066651   
861.500000	0.065098   
862.000000	0.012606   
862.500000	-0.021484  
863.000000	-0.117651  
863.500000	-0.177189  
864.000000	-0.215984  
864.500000	-0.065159  
865.000000	0.087666   
865.500000	0.246212   
866.000000	0.170484   
866.500000	0.029803   
867.000000	-0.162530  
867.500000	-0.187659  
868.000000	-0.143371  
868.500000	0.007106   
869.000000	-0.005696  
869.500000	-0.106840  
870.000000	-0.214833  
870.500000	-0.210030  
871.000000	-0.133863  
871.500000	-0.024840  
872.000000	0.105287   
872.500000	0.181242   
873.000000	0.172977   
873.500000	0.040833   
874.000000	-0.040689  
874.500000	-0.081704  
875.000000	-0.029287  
875.500000	-0.017674  
876.000000	-0.032333  
876.500000	-0.065424  
877.000000	-0.017606  
877.500000	0.056916   
878.000000	0.190893   
878.500000	0.246007   
879.000000	0.209424   
879.500000	0.029681   
880.000000	-0.082007  
880.500000	-0.051659  
881.000000	0.059962   
881.500000	0.150007   
882.000000	0.124553   
882.500000	0.130053   
883.000000	0.117962   
883.500000	0.135969   
884.000000	0.153022   
884.500000	0.168287   
885.000000	0.065689   
885.500000	-0.108787  
886.000000	-0.206295  
886.500000	-0.147765  
887.000000	-0.028121  
887.500000	-0.016962  
888.000000	-0.082159  
888.500000	-0.127560  
889.000000	-0.103909  
889.500000	-0.006666  
890.000000	0.072606   
890.500000	0.085280   
891.000000	0.028227   
891.500000	-0.030621  
892.000000	-0.063257  
892.500000	-0.024712  
893.000000	0.029075   
893.500000	0.069780   
894.000000	0.035318   
894.500000	0.004151   
895.000000	-0.009825  
895.500000	0.004787   
896.000000	0.004666   
896.500000	-0.002371  
897.000000	-0.005075  
897.500000	-0.036848  
898.000000	-0.074553  
898.500000	-0.095825  
899.000000	-0.062462  
899.500000	-0.027507  
900.000000	-0.023696  
900.500000	-0.064999  

