PE FL                   SPECTRUM    ASCII       PEDS        1.60        
  -1
S12R#61.SP
24/04/15
17:05:14.00
24/04/15
17:06:40.00
Jan

900.500000
1









LS55
405.00
5.00
5.00
SCAN
1
20
100
100
0
400
0
1
0
1
5
ON
900 405 
1 0 0
#HDR
-1
-1
#GR
NM

0.00002384185791015625
0.0
450.000000
0.500000
902
8
142.743507
-0.994000
#DATA
450.000000	-0.994000  
450.500000	-0.399666  
451.000000	-0.095984  
451.500000	-0.080530  
452.000000	-0.108931  
452.500000	-0.134916  
453.000000	-0.136189  
453.500000	-0.104401  
454.000000	-0.059787  
454.500000	-0.235143  
455.000000	-0.465219  
455.500000	-0.639477  
456.000000	-0.490045  
456.500000	-0.167363  
457.000000	-0.013454  
457.500000	-0.147606  
458.000000	-0.300750  
458.500000	-0.150803  
459.000000	0.033696   
459.500000	0.120022   
460.000000	-0.076303  
460.500000	-0.238462  
461.000000	-0.373045  
461.500000	-0.316795  
462.000000	-0.117810  
462.500000	-0.019583  
463.000000	-0.086499  
463.500000	-0.266636  
464.000000	-0.263250  
464.500000	-0.275500  
465.000000	-0.291401  
465.500000	-0.498621  
466.000000	-0.518166  
466.500000	-0.387462  
467.000000	-0.090727  
467.500000	0.064969   
468.000000	0.090704   
468.500000	0.062265   
469.000000	0.143431   
469.500000	0.155598   
470.000000	0.056522   
470.500000	-0.138621  
471.000000	-0.221871  
471.500000	-0.138000  
472.000000	-0.034916  
472.500000	0.054977   
473.000000	0.096121   
473.500000	0.166416   
474.000000	0.081583   
474.500000	-0.034825  
475.000000	-0.242628  
475.500000	-0.249106  
476.000000	-0.162053  
476.500000	0.001500   
477.000000	0.025227   
477.500000	-0.141750  
478.000000	-0.211621  
478.500000	-0.148106  
479.000000	-0.043750  
479.500000	0.021757   
480.000000	0.126386   
480.500000	0.115181   
481.000000	-0.084931  
481.500000	-0.277962  
482.000000	-0.232106  
482.500000	-0.005219  
483.000000	0.075113   
483.500000	-0.018431  
484.000000	-0.091189  
484.500000	-0.140992  
485.000000	-0.141840  
485.500000	-0.182772  
486.000000	-0.136219  
486.500000	-0.038901  
487.000000	0.103272   
487.500000	0.124113   
488.000000	0.091000   
488.500000	-0.126037  
489.000000	-0.377393  
489.500000	-0.488121  
490.000000	-0.156439  
490.500000	0.127128   
491.000000	0.200757   
491.500000	-0.060522  
492.000000	-0.119204  
492.500000	-0.099833  
493.000000	-0.016977  
493.500000	-0.034780  
494.000000	0.108916   
494.500000	0.243719   
495.000000	0.355431   
495.500000	0.322318   
496.000000	0.291401   
496.500000	0.323340   
497.000000	0.476598   
497.500000	0.567939   
498.000000	0.599916   
498.500000	0.446734   
499.000000	0.350037   
499.500000	0.404568   
500.000000	0.657636   
500.500000	0.878446   
501.000000	0.900848   
501.500000	0.737272   
502.000000	0.670295   
502.500000	0.773037   
503.000000	0.898393   
503.500000	0.969515   
504.000000	1.003401   
504.500000	0.942333   
505.000000	0.971181   
505.500000	1.033742   
506.000000	1.283393   
506.500000	1.371848   
507.000000	1.575750   
507.500000	1.673250   
508.000000	1.894151   
508.500000	1.850257   
509.000000	1.986037   
509.500000	2.019015   
510.000000	2.165553   
510.500000	2.045803   
511.000000	2.086818   
511.500000	2.170522   
512.000000	2.395439   
512.500000	2.587257   
513.000000	2.683704   
513.500000	2.698583   
514.000000	2.704674   
514.500000	2.801325   
515.000000	2.756924   
515.500000	2.727840   
516.000000	2.640795   
516.500000	2.724916   
517.000000	2.854681   
517.500000	3.015606   
518.000000	3.082030   
518.500000	3.177401   
519.000000	3.219803   
519.500000	3.361409   
520.000000	3.385765   
520.500000	3.412537   
521.000000	3.372075   
521.500000	3.409030   
522.000000	3.515393   
522.500000	3.537060   
523.000000	3.441545   
523.500000	3.263128   
524.000000	3.377121   
524.500000	3.637492   
525.000000	3.980204   
525.500000	4.067704   
526.000000	4.090143   
526.500000	4.129060   
527.000000	4.183969   
527.500000	4.208545   
528.000000	4.344818   
528.500000	4.655810   
529.000000	4.938681   
529.500000	4.887106   
530.000000	4.703500   
530.500000	4.865537   
531.000000	5.381431   
531.500000	5.818333   
532.000000	6.289621   
532.500000	6.708621   
533.000000	7.063992   
533.500000	7.143106   
534.000000	7.287340   
534.500000	7.533265   
535.000000	7.771015   
535.500000	7.878871   
536.000000	8.279696   
536.500000	8.822553   
537.000000	9.363174   
537.500000	10.050409  
538.000000	10.663431  
538.500000	11.248462  
539.000000	11.526371  
539.500000	12.071287  
540.000000	12.638613  
540.500000	13.052439  
541.000000	13.124196  
541.500000	13.544886  
542.000000	13.876416  
542.500000	14.021325  
543.000000	13.910969  
543.500000	13.617159  
544.000000	13.138325  
544.500000	12.516090  
545.000000	11.932272  
545.500000	11.386234  
546.000000	10.545893  
546.500000	9.760068   
547.000000	9.459363   
547.500000	9.349090   
548.000000	8.679719   
548.500000	7.753621   
549.000000	6.897348   
549.500000	6.512219   
550.000000	6.132750   
550.500000	5.841409   
551.000000	5.526477   
551.500000	5.123818   
552.000000	4.467212   
552.500000	3.844333   
553.000000	3.525159   
553.500000	3.558560   
554.000000	3.766848   
554.500000	3.770386   
555.000000	3.524537   
555.500000	3.200666   
556.000000	3.028075   
556.500000	3.053401   
557.000000	3.148454   
557.500000	3.252340   
558.000000	3.204356   
558.500000	3.112106   
559.000000	3.021727   
559.500000	3.054545   
560.000000	3.113250   
560.500000	3.238378   
561.000000	3.279128   
561.500000	3.223719   
562.000000	3.105848   
562.500000	3.220325   
563.000000	3.385204   
563.500000	3.432666   
564.000000	3.227272   
564.500000	3.072045   
565.000000	3.013219   
565.500000	3.097030   
566.000000	3.100469   
566.500000	3.133734   
567.000000	3.090272   
567.500000	3.055628   
568.000000	2.995886   
568.500000	3.104969   
569.000000	3.231530   
569.500000	3.409560   
570.000000	3.405409   
570.500000	3.357787   
571.000000	3.238909   
571.500000	3.185848   
572.000000	3.132242   
572.500000	3.186492   
573.000000	3.291757   
573.500000	3.447939   
574.000000	3.492090   
574.500000	3.447530   
575.000000	3.397727   
575.500000	3.375303   
576.000000	3.358068   
576.500000	3.424287   
577.000000	3.554007   
577.500000	3.550833   
578.000000	3.424053   
578.500000	3.296984   
579.000000	3.507234   
579.500000	3.698522   
580.000000	3.784863   
580.500000	3.650287   
581.000000	3.566295   
581.500000	3.442977   
582.000000	3.588227   
582.500000	3.605689   
583.000000	3.608765   
583.500000	3.411143   
584.000000	3.423795   
584.500000	3.795598   
585.000000	4.225310   
585.500000	4.282234   
586.000000	4.010500   
586.500000	3.705719   
587.000000	3.722500   
587.500000	3.981522   
588.000000	4.214901   
588.500000	4.063909   
589.000000	3.907272   
589.500000	3.781674   
590.000000	4.043871   
590.500000	4.270643   
591.000000	4.396257   
591.500000	4.375424   
592.000000	4.363719   
592.500000	4.393643   
593.000000	4.495734   
593.500000	4.659719   
594.000000	4.931378   
594.500000	5.110856   
595.000000	5.227621   
595.500000	5.095189   
596.000000	5.101772   
596.500000	5.073871   
597.000000	5.255401   
597.500000	5.407886   
598.000000	5.574886   
598.500000	5.711022   
599.000000	5.840439   
599.500000	6.002174   
600.000000	6.186553   
600.500000	6.375992   
601.000000	6.367287   
601.500000	6.329386   
602.000000	6.467507   
602.500000	6.762416   
603.000000	7.092386   
603.500000	7.228787   
604.000000	7.351090   
604.500000	7.448954   
605.000000	7.730704   
605.500000	8.232469   
606.000000	8.584303   
606.500000	8.708999   
607.000000	8.766666   
607.500000	9.158143   
608.000000	9.497174   
608.500000	9.823348   
609.000000	10.092257  
609.500000	10.787469  
610.000000	11.236159  
610.500000	11.569196  
611.000000	11.565393  
611.500000	11.942810  
612.000000	12.438696  
612.500000	12.900833  
613.000000	13.044030  
613.500000	13.216318  
614.000000	13.669893  
614.500000	14.312363  
615.000000	15.105318  
615.500000	15.747257  
616.000000	16.241454  
616.500000	16.915181  
617.000000	17.728060  
617.500000	18.638886  
618.000000	18.970287  
618.500000	19.434363  
619.000000	19.867674  
619.500000	20.617272  
620.000000	21.272174  
620.500000	21.825242  
621.000000	22.360840  
621.500000	23.063803  
622.000000	24.091613  
622.500000	25.029924  
623.000000	26.030446  
623.500000	26.714901  
624.000000	27.818166  
624.500000	29.190727  
625.000000	30.921242  
625.500000	32.348939  
626.000000	33.318606  
626.500000	33.799977  
627.000000	34.581606  
627.500000	35.502984  
628.000000	36.909121  
628.500000	38.578378  
629.000000	40.275098  
629.500000	41.235772  
630.000000	42.124772  
630.500000	42.915704  
631.000000	44.436424  
631.500000	45.938848  
632.000000	47.471106  
632.500000	48.808765  
633.000000	50.676068  
633.500000	52.947181  
634.000000	55.195174  
634.500000	56.276272  
635.000000	56.444621  
635.500000	57.272522  
636.000000	59.628886  
636.500000	62.257787  
637.000000	63.970053  
637.500000	64.776681  
638.000000	66.245787  
638.500000	68.354159  
639.000000	71.222007  
639.500000	73.690469  
640.000000	75.818606  
640.500000	76.518924  
641.000000	77.281454  
641.500000	78.023886  
642.000000	79.608818  
642.500000	81.117462  
643.000000	83.723590  
643.500000	86.752681  
644.000000	89.770439  
644.500000	90.884530  
645.000000	91.135310  
645.500000	91.648863  
646.000000	93.899787  
646.500000	96.313924  
647.000000	98.090825  
647.500000	99.163840  
648.000000	100.833318 
648.500000	102.480871 
649.000000	104.473303 
649.500000	106.911257 
650.000000	109.306962 
650.500000	110.967553 
651.000000	111.665545 
651.500000	113.016757 
652.000000	114.669704 
652.500000	116.335795 
653.000000	117.619393 
653.500000	119.617507 
654.000000	121.370363 
654.500000	121.922045 
655.000000	121.783318 
655.500000	122.395340 
656.000000	123.846757 
656.500000	125.442803 
657.000000	126.651598 
657.500000	127.786522 
658.000000	128.750204 
658.500000	130.111674 
659.000000	131.351712 
659.500000	133.244257 
660.000000	135.635962 
660.500000	137.579712 
661.000000	138.271401 
661.500000	137.685174 
662.000000	138.281250 
662.500000	139.273424 
663.000000	140.416075 
663.500000	140.617560 
664.000000	142.173742 
664.500000	142.743507 
665.000000	142.350166 
665.500000	141.019439 
666.000000	141.203893 
666.500000	141.402553 
667.000000	141.668810 
667.500000	140.960893 
668.000000	141.365545 
668.500000	141.813992 
669.000000	142.149992 
669.500000	141.193598 
670.000000	140.180393 
670.500000	138.602750 
671.000000	137.701378 
671.500000	137.746492 
672.000000	138.804439 
672.500000	138.654954 
673.000000	136.376825 
673.500000	133.932212 
674.000000	132.615500 
674.500000	132.599340 
675.000000	132.309795 
675.500000	132.131742 
676.000000	131.476393 
676.500000	129.456681 
677.000000	125.961666 
677.500000	123.081030 
678.000000	122.320863 
678.500000	122.797287 
679.000000	122.098492 
679.500000	119.130909 
680.000000	115.318143 
680.500000	112.354136 
681.000000	110.181272 
681.500000	108.395818 
682.000000	106.405272 
682.500000	104.398727 
683.000000	102.427242 
683.500000	100.691893 
684.000000	98.475696  
684.500000	96.145818  
685.000000	93.762613  
685.500000	92.007348  
686.000000	89.607606  
686.500000	88.269553  
687.000000	86.828166  
687.500000	85.954257  
688.000000	83.104484  
688.500000	80.232590  
689.000000	77.355643  
689.500000	75.369833  
690.000000	73.178901  
690.500000	71.107666  
691.000000	69.059356  
691.500000	67.171363  
692.000000	65.394719  
692.500000	63.635515  
693.000000	62.085113  
693.500000	60.696515  
694.000000	59.258628  
694.500000	56.755689  
695.000000	53.514159  
695.500000	50.809750  
696.000000	49.951280  
696.500000	49.564136  
697.000000	49.226848  
697.500000	47.917901  
698.000000	46.771113  
698.500000	44.970712  
699.000000	43.225848  
699.500000	41.539856  
700.000000	40.444984  
700.500000	39.375060  
701.000000	38.425825  
701.500000	37.187098  
702.000000	35.957871  
702.500000	34.153893  
703.000000	32.952893  
703.500000	31.843780  
704.000000	31.324477  
704.500000	30.409075  
705.000000	30.112772  
705.500000	29.569378  
706.000000	29.083818  
706.500000	28.217212  
707.000000	27.481469  
707.500000	26.910575  
708.000000	26.088128  
708.500000	25.041992  
709.000000	23.934068  
709.500000	22.896462  
710.000000	21.966310  
710.500000	21.330992  
711.000000	20.769204  
711.500000	20.388174  
712.000000	20.262007  
712.500000	20.224507  
713.000000	19.824522  
713.500000	19.140128  
714.000000	18.565378  
714.500000	17.940219  
715.000000	17.161560  
715.500000	16.429515  
716.000000	16.250871  
716.500000	16.197515  
717.000000	15.910484  
717.500000	15.372500  
718.000000	14.862825  
718.500000	14.280166  
719.000000	13.929181  
719.500000	13.977136  
720.000000	14.207439  
720.500000	13.848674  
721.000000	13.303015  
721.500000	12.920787  
722.000000	12.671598  
722.500000	12.101636  
723.000000	11.555780  
723.500000	11.346871  
724.000000	11.102719  
724.500000	10.746356  
725.000000	10.313651  
725.500000	10.239181  
726.000000	10.114265  
726.500000	9.820037   
727.000000	9.542643   
727.500000	9.328250   
728.000000	9.190924   
728.500000	8.713651   
729.000000	8.267462   
729.500000	8.086568   
730.000000	8.608568   
730.500000	8.867378   
731.000000	8.684803   
731.500000	7.999090   
732.000000	7.726371   
732.500000	7.392954   
733.000000	7.213969   
733.500000	6.984954   
734.000000	7.344984   
734.500000	7.605219   
735.000000	7.737515   
735.500000	7.465765   
736.000000	7.436159   
736.500000	7.555265   
737.000000	7.577166   
737.500000	7.109530   
738.000000	6.577727   
738.500000	6.424939   
739.000000	6.721886   
739.500000	6.905227   
740.000000	6.716818   
740.500000	6.413856   
741.000000	6.360545   
741.500000	6.288075   
742.000000	5.985848   
742.500000	5.436356   
743.000000	5.127189   
743.500000	5.323280   
744.000000	5.641393   
744.500000	5.633484   
745.000000	5.377901   
745.500000	5.311992   
746.000000	5.424098   
746.500000	5.586431   
747.000000	5.591560   
747.500000	5.349901   
748.000000	4.876871   
748.500000	4.380651   
749.000000	4.098280   
749.500000	4.073083   
750.000000	4.230856   
750.500000	4.375113   
751.000000	4.488060   
751.500000	4.478939   
752.000000	4.328386   
752.500000	4.275560   
753.000000	4.334310   
753.500000	4.459303   
754.000000	4.441409   
754.500000	4.235787   
755.000000	3.988522   
755.500000	3.864909   
756.000000	3.639159   
756.500000	3.650431   
757.000000	3.845477   
757.500000	4.169590   
758.000000	4.103174   
758.500000	3.915674   
759.000000	3.788999   
759.500000	3.954659   
760.000000	3.945954   
760.500000	3.720030   
761.000000	3.409659   
761.500000	3.374181   
762.000000	3.664227   
762.500000	3.862159   
763.000000	3.813545   
763.500000	3.660250   
764.000000	3.513833   
764.500000	3.559257   
765.000000	3.615810   
765.500000	3.671750   
766.000000	3.520318   
766.500000	3.263886   
767.000000	3.172621   
767.500000	3.412734   
768.000000	3.553969   
768.500000	3.430674   
769.000000	3.218409   
769.500000	3.165000   
770.000000	3.297401   
770.500000	3.237181   
771.000000	3.015257   
771.500000	2.852848   
772.000000	3.002174   
772.500000	3.169621   
773.000000	3.269522   
773.500000	3.120575   
774.000000	3.070401   
774.500000	3.030363   
775.000000	3.026628   
775.500000	2.991484   
776.000000	2.994810   
776.500000	3.041719   
777.000000	3.037689   
777.500000	3.061492   
778.000000	2.987515   
778.500000	2.976636   
779.000000	2.930659   
779.500000	2.870795   
780.000000	2.673098   
780.500000	2.571606   
781.000000	2.674969   
781.500000	2.895969   
782.000000	2.963378   
782.500000	2.881234   
783.000000	2.737659   
783.500000	2.666446   
784.000000	2.662106   
784.500000	2.701454   
785.000000	2.670598   
785.500000	2.652439   
786.000000	2.814136   
786.500000	2.937901   
787.000000	2.914916   
787.500000	2.681636   
788.000000	2.630386   
788.500000	2.611075   
789.000000	2.619628   
789.500000	2.530901   
790.000000	2.520954   
790.500000	2.640272   
791.000000	2.780886   
791.500000	2.919659   
792.000000	2.865681   
792.500000	2.806196   
793.000000	2.613204   
793.500000	2.530613   
794.000000	2.455583   
794.500000	2.574962   
795.000000	2.624924   
795.500000	2.570318   
796.000000	2.381446   
796.500000	2.107212   
797.000000	1.950704   
797.500000	1.923318   
798.000000	2.162318   
798.500000	2.208333   
799.000000	2.123371   
799.500000	1.775272   
800.000000	1.638098   
800.500000	1.758962   
801.000000	2.089295   
801.500000	2.278143   
802.000000	2.143500   
802.500000	1.851386   
803.000000	1.603515   
803.500000	1.567636   
804.000000	1.584151   
804.500000	1.605280   
805.000000	1.511545   
805.500000	1.390939   
806.000000	1.428409   
806.500000	1.560954   
807.000000	1.718750   
807.500000	1.864659   
808.000000	2.008484   
808.500000	1.939643   
809.000000	1.758037   
809.500000	1.567356   
810.000000	1.507674   
810.500000	1.295696   
811.000000	1.169696   
811.500000	1.203545   
812.000000	1.466553   
812.500000	1.560916   
813.000000	1.540977   
813.500000	1.388651   
814.000000	1.336113   
814.500000	1.218992   
815.000000	1.201719   
815.500000	1.221651   
816.000000	1.303886   
816.500000	1.385181   
817.000000	1.482742   
817.500000	1.657257   
818.000000	1.767204   
818.500000	1.766227   
819.000000	1.598750   
819.500000	1.641310   
820.000000	1.745333   
820.500000	1.943431   
821.000000	1.991984   
821.500000	2.076325   
822.000000	2.098356   
822.500000	2.185833   
823.000000	2.247825   
823.500000	2.341666   
824.000000	2.259333   
824.500000	2.182174   
825.000000	2.098931   
825.500000	2.240280   
826.000000	2.405772   
826.500000	2.500757   
827.000000	2.351704   
827.500000	2.100901   
828.000000	1.922636   
828.500000	1.870871   
829.000000	1.926204   
829.500000	1.940242   
830.000000	1.840060   
830.500000	1.610068   
831.000000	1.382356   
831.500000	1.288590   
832.000000	1.145962   
832.500000	0.965143   
833.000000	0.722659   
833.500000	0.710454   
834.000000	0.795666   
834.500000	0.981446   
835.000000	1.052128   
835.500000	1.044946   
836.000000	0.960757   
836.500000	0.883356   
837.000000	0.806780   
837.500000	0.809787   
838.000000	0.900287   
838.500000	0.958681   
839.000000	0.939931   
839.500000	0.931749   
840.000000	0.915916   
840.500000	0.808007   
841.000000	0.648333   
841.500000	0.635909   
842.000000	0.725886   
842.500000	0.782007   
843.000000	0.669772   
843.500000	0.549606   
844.000000	0.464878   
844.500000	0.412393   
845.000000	0.358734   
845.500000	0.267878   
846.000000	0.183969   
846.500000	0.203613   
847.000000	0.389810   
847.500000	0.511416   
848.000000	0.475931   
848.500000	0.442984   
849.000000	0.491409   
849.500000	0.486984   
850.000000	0.294553   
850.500000	0.149598   
851.000000	0.168287   
851.500000	0.293583   
852.000000	0.336719   
852.500000	0.398537   
853.000000	0.445113   
853.500000	0.385787   
854.000000	0.252689   
854.500000	0.177219   
855.000000	0.220439   
855.500000	0.238318   
856.000000	0.153931   
856.500000	0.047780   
857.000000	-0.042727  
857.500000	-0.114818  
858.000000	-0.174515  
858.500000	-0.101583  
859.000000	0.015992   
859.500000	0.028530   
860.000000	-0.119757  
860.500000	-0.210659  
861.000000	-0.143219  
861.500000	-0.057568  
862.000000	-0.080484  
862.500000	-0.156295  
863.000000	-0.161583  
863.500000	-0.120106  
864.000000	-0.093386  
864.500000	-0.104454  
865.000000	-0.105719  
865.500000	-0.122272  
866.000000	-0.124477  
866.500000	-0.134242  
867.000000	-0.065515  
867.500000	0.054181   
868.000000	0.200598   
868.500000	0.209037   
869.000000	0.105075   
869.500000	0.003204   
870.000000	-0.005613  
870.500000	-0.037098  
871.000000	-0.113151  
871.500000	-0.170015  
872.000000	-0.082295  
872.500000	-0.059219  
873.000000	-0.051007  
873.500000	-0.091696  
874.000000	-0.000196  
874.500000	0.032257   
875.000000	-0.002636  
875.500000	-0.119386  
876.000000	-0.114272  
876.500000	-0.049863  
877.000000	0.068409   
877.500000	0.157621   
878.000000	0.183613   
878.500000	0.192068   
879.000000	0.099454   
879.500000	-0.047621  
880.000000	-0.213689  
880.500000	-0.267530  
881.000000	-0.245878  
881.500000	-0.124348  
882.000000	-0.011969  
882.500000	0.003371   
883.000000	-0.092946  
883.500000	-0.243689  
884.000000	-0.253462  
884.500000	-0.197901  
885.000000	-0.065151  
885.500000	0.042136   
886.000000	0.143507   
886.500000	0.131931   
887.000000	0.056401   
887.500000	0.000454   
888.000000	0.024719   
888.500000	0.059765   
889.000000	-0.027151  
889.500000	-0.214333  
890.000000	-0.395053  
890.500000	-0.437946  
891.000000	-0.352484  
891.500000	-0.145257  
892.000000	0.071704   
892.500000	0.219681   
893.000000	0.179098   
893.500000	0.030318   
894.000000	-0.154287  
894.500000	-0.202977  
895.000000	-0.113106  
895.500000	0.047189   
896.000000	0.118409   
896.500000	0.062424   
897.000000	-0.067575  
897.500000	-0.159189  
898.000000	-0.145590  
898.500000	-0.092265  
899.000000	-0.056090  
899.500000	-0.064333  
900.000000	-0.004234  
900.500000	0.166000   

