PE FL                   SPECTRUM    ASCII       PEDS        1.60        
  -1
S12R#40.SP
24/04/15
16:35:17.00
24/04/15
16:36:43.00
Jan

900.500000
1









LS55
405.00
5.00
5.00
SCAN
1
20
100
100
0
400
0
1
0
1
5
ON
900 405 
1 0 0
#HDR
-1
-1
#GR
NM

0.00002384185791015625
0.0
450.000000
0.500000
902
8
160.421333
-0.493787
#DATA
450.000000	-0.034000  
450.500000	-0.242750  
451.000000	-0.398674  
451.500000	-0.493787  
452.000000	-0.471727  
452.500000	-0.382280  
453.000000	-0.233560  
453.500000	-0.069780  
454.000000	0.088825   
454.500000	0.249113   
455.000000	0.380356   
455.500000	0.317030   
456.000000	0.045053   
456.500000	-0.178234  
457.000000	-0.135340  
457.500000	0.063265   
458.000000	-0.002121  
458.500000	-0.252378  
459.000000	-0.333522  
459.500000	-0.057340  
460.000000	0.271477   
460.500000	0.231977   
461.000000	-0.097727  
461.500000	-0.375803  
462.000000	-0.388818  
462.500000	-0.283825  
463.000000	-0.186068  
463.500000	-0.182901  
464.000000	-0.167712  
464.500000	-0.093787  
465.000000	0.069871   
465.500000	0.233287   
466.000000	0.198439   
466.500000	0.135522   
467.000000	0.109250   
467.500000	0.143583   
468.000000	0.060931   
468.500000	-0.040053  
469.000000	-0.148128  
469.500000	-0.193439  
470.000000	-0.175992  
470.500000	-0.128257  
471.000000	-0.077765  
471.500000	-0.119560  
472.000000	-0.112181  
472.500000	-0.055462  
473.000000	-0.033621  
473.500000	-0.089651  
474.000000	-0.169992  
474.500000	-0.142250  
475.000000	-0.066431  
475.500000	0.097393   
476.000000	0.272333   
476.500000	0.374159   
477.000000	0.230840   
477.500000	-0.062757  
478.000000	-0.214356  
478.500000	-0.131212  
479.000000	0.040166   
479.500000	0.079015   
480.000000	0.079916   
480.500000	0.040166   
481.000000	0.018598   
481.500000	0.024386   
482.000000	0.099136   
482.500000	0.057386   
483.000000	-0.053469  
483.500000	-0.163045  
484.000000	-0.113772  
484.500000	-0.084371  
485.000000	-0.098287  
485.500000	-0.056378  
486.000000	0.053666   
486.500000	0.114446   
487.000000	0.024606   
487.500000	-0.138765  
488.000000	-0.283348  
488.500000	-0.219833  
489.000000	-0.072431  
489.500000	0.042181   
490.000000	0.005393   
490.500000	-0.064560  
491.000000	-0.112053  
491.500000	-0.150234  
492.000000	-0.124750  
492.500000	0.043159   
493.000000	0.234515   
493.500000	0.303568   
494.000000	0.294484   
494.500000	0.296742   
495.000000	0.323310   
495.500000	0.337750   
496.000000	0.352340   
496.500000	0.366348   
497.000000	0.333840   
497.500000	0.204507   
498.000000	0.175757   
498.500000	0.313446   
499.000000	0.555053   
499.500000	0.716386   
500.000000	0.819083   
500.500000	0.833856   
501.000000	0.762909   
501.500000	0.612696   
502.000000	0.630712   
502.500000	0.836098   
503.000000	1.028378   
503.500000	0.965863   
504.000000	0.934431   
504.500000	1.026037   
505.000000	1.248424   
505.500000	1.229621   
506.000000	1.213689   
506.500000	1.266416   
507.000000	1.660712   
507.500000	1.873356   
508.000000	1.862598   
508.500000	1.563022   
509.000000	1.630143   
509.500000	1.964446   
510.000000	2.506234   
510.500000	2.725780   
511.000000	2.727924   
511.500000	2.514681   
512.000000	2.382090   
512.500000	2.357181   
513.000000	2.519795   
513.500000	2.682871   
514.000000	2.805962   
514.500000	2.922166   
515.000000	3.082409   
515.500000	3.190871   
516.000000	3.167431   
516.500000	3.082886   
517.000000	3.028083   
517.500000	3.120363   
518.000000	3.238196   
518.500000	3.351227   
519.000000	3.461250   
519.500000	3.637037   
520.000000	3.705659   
520.500000	3.710136   
521.000000	3.603681   
521.500000	3.442924   
522.000000	3.228446   
522.500000	3.288742   
523.000000	3.489462   
523.500000	3.610878   
524.000000	3.556931   
524.500000	3.512121   
525.000000	3.592757   
525.500000	3.689575   
526.000000	4.003022   
526.500000	4.312666   
527.000000	4.437128   
527.500000	4.343954   
528.000000	4.460628   
528.500000	4.854560   
529.000000	5.078984   
529.500000	5.362416   
530.000000	5.360651   
530.500000	5.501045   
531.000000	5.341106   
531.500000	5.503492   
532.000000	5.809992   
532.500000	6.266833   
533.000000	6.486628   
533.500000	6.755780   
534.000000	7.221689   
534.500000	7.603545   
535.000000	7.797999   
535.500000	7.788454   
536.000000	8.038643   
536.500000	8.589007   
537.000000	9.423340   
537.500000	10.282446  
538.000000	10.766098  
538.500000	11.152969  
539.000000	11.734446  
539.500000	12.587075  
540.000000	13.057287  
540.500000	13.219674  
541.000000	13.042401  
541.500000	13.044636  
542.000000	12.981060  
542.500000	12.989121  
543.000000	12.822522  
543.500000	12.813856  
544.000000	12.770583  
544.500000	12.670734  
545.000000	12.034053  
545.500000	11.200522  
546.000000	10.313825  
546.500000	9.375166   
547.000000	8.544310   
547.500000	8.028499   
548.000000	7.923515   
548.500000	7.575628   
549.000000	6.816204   
549.500000	5.824439   
550.000000	5.399742   
550.500000	5.197371   
551.000000	4.910568   
551.500000	4.355378   
552.000000	4.144181   
552.500000	4.227386   
553.000000	4.309325   
553.500000	4.021257   
554.000000	3.703507   
554.500000	3.395378   
555.000000	3.338621   
555.500000	3.391984   
556.000000	3.515977   
556.500000	3.533795   
557.000000	3.406053   
557.500000	3.219310   
558.000000	3.168674   
558.500000	3.261977   
559.000000	3.265469   
559.500000	3.123606   
560.000000	2.984704   
560.500000	3.090196   
561.000000	3.327901   
561.500000	3.414121   
562.000000	3.443469   
562.500000	3.356727   
563.000000	3.250492   
563.500000	3.019666   
564.000000	3.018621   
564.500000	3.021992   
565.000000	3.196689   
565.500000	3.186037   
566.000000	3.176939   
566.500000	3.222363   
567.000000	3.517325   
567.500000	3.802696   
568.000000	3.749727   
568.500000	3.400242   
569.000000	3.056257   
569.500000	3.003401   
570.000000	3.049318   
570.500000	3.088333   
571.000000	3.116090   
571.500000	3.162651   
572.000000	3.379234   
572.500000	3.516272   
573.000000	3.499196   
573.500000	3.193636   
574.000000	3.109492   
574.500000	3.117712   
575.000000	3.314515   
575.500000	3.351090   
576.000000	3.468431   
576.500000	3.352272   
577.000000	3.157265   
577.500000	2.842530   
578.000000	2.893742   
578.500000	3.069916   
579.000000	3.242833   
579.500000	3.237734   
580.000000	3.265636   
580.500000	3.365954   
581.000000	3.476568   
581.500000	3.528189   
582.000000	3.484310   
582.500000	3.523454   
583.000000	3.626424   
583.500000	3.870068   
584.000000	4.056787   
584.500000	4.001090   
585.000000	3.841893   
585.500000	3.733181   
586.000000	3.741719   
586.500000	3.732590   
587.000000	3.710621   
587.500000	3.701446   
588.000000	3.743765   
588.500000	3.802916   
589.000000	3.809992   
589.500000	3.832825   
590.000000	3.735765   
590.500000	3.725643   
591.000000	3.882916   
591.500000	4.227371   
592.000000	4.388886   
592.500000	4.458545   
593.000000	4.421984   
593.500000	4.388234   
594.000000	4.171886   
594.500000	4.019772   
595.000000	4.123598   
595.500000	4.401174   
596.000000	4.696545   
596.500000	4.975121   
597.000000	5.283151   
597.500000	5.366424   
598.000000	5.327712   
598.500000	5.451439   
599.000000	5.724348   
599.500000	5.896863   
600.000000	5.752530   
600.500000	5.990022   
601.000000	6.263356   
601.500000	6.418159   
602.000000	6.061121   
602.500000	6.099113   
603.000000	6.449446   
603.500000	7.073174   
604.000000	7.381257   
604.500000	7.581431   
605.000000	7.589348   
605.500000	7.622401   
606.000000	7.807977   
606.500000	8.166424   
607.000000	8.535598   
607.500000	8.892954   
608.000000	9.117189   
608.500000	9.039492   
609.000000	9.002272   
609.500000	9.228492   
610.000000	9.664818   
610.500000	10.205212  
611.000000	10.638166  
611.500000	10.872386  
612.000000	10.973416  
612.500000	11.254287  
613.000000	11.576393  
613.500000	11.697446  
614.000000	11.543128  
614.500000	11.901553  
615.000000	12.919924  
615.500000	13.855378  
616.000000	14.381803  
616.500000	14.328462  
617.000000	14.542825  
617.500000	15.092507  
618.000000	16.219030  
618.500000	16.985636  
619.000000	17.699704  
619.500000	18.052606  
620.000000	18.504416  
620.500000	18.815409  
621.000000	19.535765  
621.500000	20.544136  
622.000000	21.605492  
622.500000	22.498462  
623.000000	23.381568  
623.500000	23.944333  
624.000000	24.363045  
624.500000	24.765045  
625.000000	25.467545  
625.500000	26.192818  
626.000000	27.368924  
626.500000	29.026590  
627.000000	30.543840  
627.500000	31.294424  
628.000000	32.101931  
628.500000	33.045689  
629.000000	34.092075  
629.500000	34.896416  
630.000000	36.500265  
630.500000	38.388939  
631.000000	40.154113  
631.500000	40.978553  
632.000000	41.838469  
632.500000	43.110893  
633.000000	44.733189  
633.500000	46.043212  
634.000000	46.874810  
634.500000	48.228780  
635.000000	50.392962  
635.500000	52.899984  
636.000000	54.566492  
636.500000	55.925204  
637.000000	57.470674  
637.500000	59.123749  
638.000000	60.461318  
638.500000	61.838393  
639.000000	63.571310  
639.500000	65.300393  
640.000000	66.538795  
640.500000	68.411363  
641.000000	71.270727  
641.500000	74.549712  
642.000000	76.423598  
642.500000	77.171257  
643.000000	78.123878  
643.500000	79.924742  
644.000000	81.929583  
644.500000	83.919651  
645.000000	86.857424  
645.500000	89.705606  
646.000000	91.618363  
646.500000	91.644583  
647.000000	93.088128  
647.500000	95.629515  
648.000000	98.090386  
648.500000	99.062568  
649.000000	100.642219 
649.500000	103.312204 
650.000000	106.677424 
650.500000	108.548946 
651.000000	109.245492 
651.500000	109.697242 
652.000000	111.356143 
652.500000	114.457742 
653.000000	117.820659 
653.500000	119.903628 
654.000000	121.233250 
654.500000	123.038931 
655.000000	125.709015 
655.500000	128.184719 
656.000000	130.020181 
656.500000	131.412757 
657.000000	132.765060 
657.500000	133.484621 
658.000000	133.954757 
658.500000	135.730939 
659.000000	138.851212 
659.500000	141.761712 
660.000000	142.853181 
660.500000	142.232606 
661.000000	141.505977 
661.500000	141.612833 
662.000000	142.838613 
662.500000	144.808583 
663.000000	147.552484 
663.500000	150.021954 
664.000000	151.674083 
664.500000	152.420803 
665.000000	153.739621 
665.500000	155.983189 
666.000000	158.164787 
666.500000	158.391628 
667.000000	157.355575 
667.500000	156.630719 
668.000000	157.385643 
668.500000	159.353219 
669.000000	160.421333 
669.500000	160.134719 
670.000000	158.965151 
670.500000	159.452068 
671.000000	159.690181 
671.500000	159.738946 
672.000000	158.562606 
672.500000	158.152522 
673.000000	158.142166 
673.500000	157.669787 
674.000000	157.285439 
674.500000	157.645409 
675.000000	158.725477 
675.500000	158.585090 
676.000000	157.049181 
676.500000	154.335060 
677.000000	152.604681 
677.500000	152.187295 
678.000000	152.162159 
678.500000	151.087356 
679.000000	149.467393 
679.500000	147.041530 
680.000000	143.696636 
680.500000	140.669280 
681.000000	139.362765 
681.500000	139.102068 
682.000000	137.551674 
682.500000	135.065227 
683.000000	132.899393 
683.500000	131.097674 
684.000000	128.029348 
684.500000	125.229848 
685.000000	122.906356 
685.500000	121.109212 
686.000000	118.832166 
686.500000	116.929560 
687.000000	114.722250 
687.500000	112.427303 
688.000000	109.799393 
688.500000	106.939613 
689.000000	103.896181 
689.500000	101.025719 
690.000000	99.751030  
690.500000	98.982984  
691.000000	97.227242  
691.500000	93.516795  
692.000000	89.929984  
692.500000	86.863696  
693.000000	84.850075  
693.500000	83.055318  
694.000000	81.685863  
694.500000	79.526295  
695.000000	76.917242  
695.500000	73.819007  
696.000000	71.910098  
696.500000	70.355250  
697.000000	69.409015  
697.500000	68.304333  
698.000000	66.301098  
698.500000	63.106757  
699.000000	60.103924  
699.500000	58.546590  
700.000000	57.608181  
700.500000	55.951280  
701.000000	53.582303  
701.500000	51.566886  
702.000000	50.135621  
702.500000	48.438742  
703.000000	46.799037  
703.500000	45.320280  
704.000000	44.764742  
704.500000	43.901840  
705.000000	42.702356  
705.500000	40.955795  
706.000000	39.646431  
706.500000	38.528356  
707.000000	37.705227  
707.500000	37.251265  
708.000000	36.191068  
708.500000	34.797712  
709.000000	32.910340  
709.500000	32.037196  
710.000000	31.346666  
710.500000	31.101909  
711.000000	30.432363  
711.500000	29.823984  
712.000000	28.968068  
712.500000	27.836287  
713.000000	26.624068  
713.500000	25.433378  
714.000000	24.860363  
714.500000	24.299219  
715.000000	23.516037  
715.500000	22.584151  
716.000000	22.368628  
716.500000	22.152734  
717.000000	21.472303  
717.500000	20.556136  
718.000000	20.406121  
718.500000	20.350113  
719.000000	20.097742  
719.500000	19.315083  
720.000000	18.858689  
720.500000	18.365227  
721.000000	18.082378  
721.500000	17.541462  
722.000000	16.817431  
722.500000	15.740962  
723.000000	14.821772  
723.500000	14.428871  
724.000000	14.472106  
724.500000	14.430553  
725.000000	14.138287  
725.500000	13.943590  
726.000000	13.875151  
726.500000	13.439833  
727.000000	12.469803  
727.500000	11.680060  
728.000000	11.709590  
728.500000	11.717500  
729.000000	11.206000  
729.500000	10.561280  
730.000000	10.568492  
730.500000	10.714378  
731.000000	10.452704  
731.500000	9.945840   
732.000000	9.903037   
732.500000	10.102803  
733.000000	10.096803  
733.500000	10.013083  
734.000000	9.910954   
734.500000	9.589704   
735.000000	9.035795   
735.500000	8.461931   
736.000000	8.306371   
736.500000	8.145416   
737.000000	8.065878   
737.500000	8.126037   
738.000000	8.324863   
738.500000	8.129015   
739.000000	7.679537   
739.500000	7.390393   
740.000000	7.409325   
740.500000	7.593219   
741.000000	7.335007   
741.500000	6.896257   
742.000000	6.476780   
742.500000	6.481045   
743.000000	6.724757   
743.500000	6.870265   
744.000000	6.669818   
744.500000	6.460128   
745.000000	6.421772   
745.500000	6.434303   
746.000000	6.337757   
746.500000	6.051174   
747.000000	5.694606   
747.500000	5.482128   
748.000000	5.446000   
748.500000	5.532901   
749.000000	5.452484   
749.500000	5.234765   
750.000000	5.185325   
750.500000	5.258386   
751.000000	5.209606   
751.500000	4.983712   
752.000000	4.875560   
752.500000	4.731015   
753.000000	4.651727   
753.500000	4.763212   
754.000000	5.090045   
754.500000	5.371848   
755.000000	5.283825   
755.500000	5.121825   
756.000000	4.880689   
756.500000	4.805446   
757.000000	4.636265   
757.500000	4.539787   
758.000000	4.306931   
758.500000	4.245181   
759.000000	4.248469   
759.500000	4.348530   
760.000000	4.374999   
760.500000	4.386651   
761.000000	4.137272   
761.500000	3.818757   
762.000000	3.512492   
762.500000	3.572378   
763.000000	3.726590   
763.500000	3.939696   
764.000000	3.920712   
764.500000	3.862909   
765.000000	3.702530   
765.500000	3.657598   
766.000000	3.513681   
766.500000	3.538674   
767.000000	3.564174   
767.500000	3.661386   
768.000000	3.616128   
768.500000	3.455818   
769.000000	3.246727   
769.500000	3.162727   
770.000000	3.230000   
770.500000	3.290674   
771.000000	3.343280   
771.500000	3.316401   
772.000000	3.350537   
772.500000	3.302272   
773.000000	3.186492   
773.500000	3.072696   
774.000000	2.986265   
774.500000	2.944522   
775.000000	3.034250   
775.500000	3.244825   
776.000000	3.506681   
776.500000	3.564015   
777.000000	3.325378   
777.500000	3.042886   
778.000000	3.024772   
778.500000	3.115106   
779.000000	3.088363   
779.500000	2.920113   
780.000000	2.828765   
780.500000	2.789909   
781.000000	2.773363   
781.500000	2.721946   
782.000000	2.755037   
782.500000	2.769931   
783.000000	2.852257   
783.500000	2.937886   
784.000000	2.911803   
784.500000	2.735007   
785.000000	2.612757   
785.500000	2.658628   
786.000000	2.760386   
786.500000	2.744250   
787.000000	2.643553   
787.500000	2.563250   
788.000000	2.557310   
788.500000	2.577643   
789.000000	2.601962   
789.500000	2.653992   
790.000000	2.733795   
790.500000	2.841000   
791.000000	2.829969   
791.500000	2.712583   
792.000000	2.580469   
792.500000	2.499553   
793.000000	2.423931   
793.500000	2.384856   
794.000000	2.469037   
794.500000	2.538507   
795.000000	2.614689   
795.500000	2.596780   
796.000000	2.578431   
796.500000	2.293204   
797.000000	1.950871   
797.500000	1.797636   
798.000000	2.091416   
798.500000	2.279893   
799.000000	2.209613   
799.500000	1.991818   
800.000000	2.034545   
800.500000	2.216765   
801.000000	2.272757   
801.500000	2.141530   
802.000000	1.910787   
802.500000	1.986522   
803.000000	2.145446   
803.500000	2.294825   
804.000000	2.099181   
804.500000	1.789128   
805.000000	1.500037   
805.500000	1.422045   
806.000000	1.314250   
806.500000	1.435280   
807.000000	1.745015   
807.500000	2.132424   
808.000000	2.261242   
808.500000	2.294765   
809.000000	2.094787   
809.500000	1.870651   
810.000000	1.427871   
810.500000	1.306424   
811.000000	1.374507   
811.500000	1.480303   
812.000000	1.575280   
812.500000	1.712757   
813.000000	1.718446   
813.500000	1.488954   
814.000000	1.468787   
814.500000	1.634628   
815.000000	1.756780   
815.500000	1.513719   
816.000000	1.279219   
816.500000	1.329250   
817.000000	1.476522   
817.500000	1.620613   
818.000000	1.753022   
818.500000	1.901848   
819.000000	1.867068   
819.500000	1.712393   
820.000000	1.678272   
820.500000	1.887666   
821.000000	2.197030   
821.500000	2.255181   
822.000000	2.038803   
822.500000	1.797530   
823.000000	1.893492   
823.500000	2.218606   
824.000000	2.442613   
824.500000	2.352166   
825.000000	2.171492   
825.500000	2.118219   
826.000000	2.214568   
826.500000	2.207969   
827.000000	2.111431   
827.500000	1.961946   
828.000000	1.893446   
828.500000	1.833280   
829.000000	1.671424   
829.500000	1.398128   
830.000000	1.183727   
830.500000	1.052151   
831.000000	1.112234   
831.500000	1.257477   
832.000000	1.423962   
832.500000	1.412303   
833.000000	1.344462   
833.500000	1.173121   
834.000000	1.044128   
834.500000	0.931598   
835.000000	0.882348   
835.500000	0.829424   
836.000000	0.786734   
836.500000	0.805537   
837.000000	0.852446   
837.500000	0.928840   
838.000000	0.969053   
838.500000	0.956575   
839.000000	0.940530   
839.500000	0.963984   
840.000000	0.945204   
840.500000	0.900886   
841.000000	0.829954   
841.500000	0.804075   
842.000000	0.780712   
842.500000	0.758787   
843.000000	0.721765   
843.500000	0.665522   
844.000000	0.509318   
844.500000	0.370068   
845.000000	0.400219   
845.500000	0.526515   
846.000000	0.655818   
846.500000	0.623022   
847.000000	0.471090   
847.500000	0.408022   
848.000000	0.452628   
848.500000	0.485984   
849.000000	0.389946   
849.500000	0.222053   
850.000000	0.080500   
850.500000	0.153871   
851.000000	0.319530   
851.500000	0.473515   
852.000000	0.420515   
852.500000	0.256113   
853.000000	0.071242   
853.500000	-0.019393  
854.000000	-0.021310  
854.500000	0.053969   
855.000000	0.121098   
855.500000	0.133909   
856.000000	0.219295   
856.500000	0.245727   
857.000000	0.195363   
857.500000	0.044356   
858.000000	-0.022106  
858.500000	-0.060106  
859.000000	-0.069196  
859.500000	0.007886   
860.000000	0.167204   
860.500000	0.263060   
861.000000	0.188500   
861.500000	0.162871   
862.000000	0.080689   
862.500000	-0.037348  
863.000000	-0.207704  
863.500000	-0.166227  
864.000000	-0.033401  
864.500000	0.011621   
865.000000	-0.097795  
865.500000	-0.127424  
866.000000	-0.124401  
866.500000	-0.137613  
867.000000	-0.139219  
867.500000	-0.101643  
868.000000	-0.049174  
868.500000	-0.011810  
869.000000	0.045757   
869.500000	0.158113   
870.000000	0.205068   
870.500000	0.202174   
871.000000	0.090318   
871.500000	-0.051568  
872.000000	-0.209022  
872.500000	-0.117583  
873.000000	-0.020704  
873.500000	0.052280   
874.000000	-0.053704  
874.500000	-0.044583  
875.000000	-0.065833  
875.500000	-0.091886  
876.000000	-0.155083  
876.500000	-0.142575  
877.000000	-0.107393  
877.500000	-0.133515  
878.000000	-0.078401  
878.500000	0.076393   
879.000000	0.150204   
879.500000	-0.009530  
880.000000	-0.238075  
880.500000	-0.255136  
881.000000	-0.120750  
881.500000	0.003636   
882.000000	-0.060212  
882.500000	-0.124181  
883.000000	-0.152053  
883.500000	-0.081674  
884.000000	-0.037537  
884.500000	-0.044742  
885.000000	-0.084113  
885.500000	-0.057939  
886.000000	-0.011393  
886.500000	0.047106   
887.000000	0.071583   
887.500000	0.076818   
888.000000	-0.023462  
888.500000	-0.076734  
889.000000	-0.047431  
889.500000	0.090931   
890.000000	0.087954   
890.500000	0.091265   
891.000000	0.135090   
891.500000	0.222742   
892.000000	0.141931   
892.500000	-0.098780  
893.000000	-0.279477  
893.500000	-0.268545  
894.000000	-0.069280  
894.500000	-0.007787  
895.000000	-0.015719  
895.500000	-0.080560  
896.000000	0.001969   
896.500000	0.045833   
897.000000	0.038196   
897.500000	-0.067765  
898.000000	-0.145037  
898.500000	-0.277984  
899.000000	-0.334696  
899.500000	-0.230136  
900.000000	0.147242   
900.500000	0.733000   

