PE FL                   SPECTRUM    ASCII       PEDS        1.60        
  -1
S12R#28.SP
24/04/15
16:18:11.00
24/04/15
16:19:36.00
Jan

900.500000
1









LS55
405.00
5.00
5.00
SCAN
1
20
100
100
0
400
0
1
0
1
5
ON
900 405 
1 0 0
#HDR
-1
-1
#GR
NM

0.00002384185791015625
0.0
450.000000
0.500000
902
8
176.872371
-0.477484
#DATA
450.000000	-0.167000  
450.500000	0.105363   
451.000000	0.159098   
451.500000	0.062227   
452.000000	-0.147439  
452.500000	-0.238946  
453.000000	-0.275000  
453.500000	-0.185893  
454.000000	-0.092545  
454.500000	0.014219   
455.000000	0.027909   
455.500000	0.079909   
456.000000	0.150825   
456.500000	0.210977   
457.000000	0.169666   
457.500000	0.078780   
458.000000	0.010977   
458.500000	0.058363   
459.000000	0.123303   
459.500000	0.155787   
460.000000	0.065310   
460.500000	-0.119166  
461.000000	-0.261742  
461.500000	-0.342212  
462.000000	-0.327787  
462.500000	-0.280871  
463.000000	-0.153439  
463.500000	-0.037977  
464.000000	0.104416   
464.500000	0.188893   
465.000000	0.213378   
465.500000	0.098257   
466.000000	0.052545   
466.500000	-0.039340  
467.000000	-0.071053  
467.500000	-0.117674  
468.000000	-0.026651  
468.500000	-0.014606  
469.000000	0.049333   
469.500000	0.068121   
470.000000	0.161128   
470.500000	0.100454   
471.000000	-0.018310  
471.500000	-0.068825  
472.000000	0.045772   
472.500000	0.178113   
473.000000	0.275196   
473.500000	0.273265   
474.000000	0.165272   
474.500000	-0.044484  
475.000000	-0.193924  
475.500000	-0.226303  
476.000000	-0.127348  
476.500000	0.016871   
477.000000	0.101886   
477.500000	0.015825   
478.000000	-0.192219  
478.500000	-0.250484  
479.000000	-0.117613  
479.500000	-0.061393  
480.000000	-0.105477  
480.500000	-0.106878  
481.000000	-0.057416  
481.500000	-0.142969  
482.000000	-0.209075  
482.500000	-0.221856  
483.000000	-0.101568  
483.500000	-0.136560  
484.000000	-0.180659  
484.500000	-0.105295  
485.000000	0.125363   
485.500000	0.251280   
486.000000	0.189712   
486.500000	0.002227   
487.000000	-0.209287  
487.500000	-0.348378  
488.000000	-0.403628  
488.500000	-0.204515  
489.000000	0.158598   
489.500000	0.374628   
490.000000	0.199439   
490.500000	-0.023083  
491.000000	0.026492   
491.500000	0.301583   
492.000000	0.337356   
492.500000	0.139977   
493.000000	0.019553   
493.500000	0.167704   
494.000000	0.310727   
494.500000	0.242212   
495.000000	0.221303   
495.500000	0.317772   
496.000000	0.543340   
496.500000	0.698280   
497.000000	0.707984   
497.500000	0.606772   
498.000000	0.540734   
498.500000	0.583969   
499.000000	0.685628   
499.500000	0.824075   
500.000000	0.925098   
500.500000	1.034750   
501.000000	0.972507   
501.500000	0.740030   
502.000000	0.573916   
502.500000	0.642363   
503.000000	0.840515   
503.500000	0.968507   
504.000000	0.988621   
504.500000	1.110439   
505.000000	1.239340   
505.500000	1.280787   
506.000000	1.295363   
506.500000	1.420939   
507.000000	1.520121   
507.500000	1.618992   
508.000000	1.698666   
508.500000	2.128719   
509.000000	2.429780   
509.500000	2.507977   
510.000000	2.149484   
510.500000	2.099446   
511.000000	2.174840   
511.500000	2.515015   
512.000000	2.677689   
512.500000	2.885992   
513.000000	2.890060   
513.500000	2.793083   
514.000000	2.651659   
514.500000	2.709280   
515.000000	2.914333   
515.500000	3.159575   
516.000000	3.338287   
516.500000	3.450840   
517.000000	3.470219   
517.500000	3.338704   
518.000000	3.094613   
518.500000	2.898916   
519.000000	2.931954   
519.500000	3.101431   
520.000000	3.217121   
520.500000	3.216666   
521.000000	3.254393   
521.500000	3.243340   
522.000000	3.267484   
522.500000	3.382303   
523.000000	3.570734   
523.500000	3.596469   
524.000000	3.529568   
524.500000	3.615734   
525.000000	4.024666   
525.500000	4.460856   
526.000000	4.621878   
526.500000	4.601818   
527.000000	4.655560   
527.500000	4.821446   
528.000000	4.781356   
528.500000	4.694401   
529.000000	4.567734   
529.500000	4.642659   
530.000000	4.651250   
530.500000	5.146242   
531.000000	5.792393   
531.500000	6.473696   
532.000000	6.474371   
532.500000	6.340568   
533.000000	6.171893   
533.500000	6.366212   
534.000000	6.816378   
534.500000	7.379621   
535.000000	7.804121   
535.500000	8.001719   
536.000000	8.423613   
536.500000	9.050757   
537.000000	9.631363   
537.500000	9.863348   
538.000000	10.107053  
538.500000	10.380568  
539.000000	10.941598  
539.500000	11.761984  
540.000000	12.944287  
540.500000	13.827166  
541.000000	14.124310  
541.500000	13.809250  
542.000000	13.393643  
542.500000	13.107356  
543.000000	13.128257  
543.500000	13.334083  
544.000000	13.162621  
544.500000	12.562325  
545.000000	11.761431  
545.500000	11.218795  
546.000000	10.684750  
546.500000	10.126424  
547.000000	9.529674   
547.500000	8.924696   
548.000000	8.315462   
548.500000	7.734159   
549.000000	7.174363   
549.500000	6.635848   
550.000000	6.202568   
550.500000	5.836977   
551.000000	5.457295   
551.500000	5.084128   
552.000000	4.854272   
552.500000	4.658901   
553.000000	4.285386   
553.500000	3.778249   
554.000000	3.499045   
554.500000	3.480530   
555.000000	3.487287   
555.500000	3.278234   
556.000000	3.013886   
556.500000	2.906075   
557.000000	3.168166   
557.500000	3.399000   
558.000000	3.501068   
558.500000	3.370333   
559.000000	3.470772   
559.500000	3.690795   
560.000000	3.861840   
560.500000	3.677446   
561.000000	3.385022   
561.500000	3.148287   
562.000000	3.010810   
562.500000	3.024590   
563.000000	3.132704   
563.500000	3.270507   
564.000000	3.244272   
564.500000	3.099856   
565.000000	3.076530   
565.500000	3.135128   
566.000000	3.222939   
566.500000	3.336166   
567.000000	3.492424   
567.500000	3.579007   
568.000000	3.476643   
568.500000	3.300954   
569.000000	3.204833   
569.500000	3.262909   
570.000000	3.314886   
570.500000	3.356507   
571.000000	3.384477   
571.500000	3.380522   
572.000000	3.291416   
572.500000	3.106416   
573.000000	3.061931   
573.500000	3.149848   
574.000000	3.274598   
574.500000	3.442598   
575.000000	3.750810   
575.500000	3.798189   
576.000000	3.604181   
576.500000	3.315893   
577.000000	3.317856   
577.500000	3.348257   
578.000000	3.368174   
578.500000	3.482477   
579.000000	3.653848   
579.500000	3.680303   
580.000000	3.563689   
580.500000	3.622401   
581.000000	3.661712   
581.500000	3.539378   
582.000000	3.212045   
582.500000	3.148712   
583.000000	3.367946   
583.500000	3.544098   
584.000000	3.442621   
584.500000	3.333030   
585.000000	3.386636   
585.500000	3.521939   
586.000000	3.507704   
586.500000	3.457553   
587.000000	3.599522   
587.500000	3.772840   
588.000000	3.770371   
588.500000	3.528977   
589.000000	3.422106   
589.500000	3.675083   
590.000000	4.188000   
590.500000	4.313136   
591.000000	4.185393   
591.500000	3.975053   
592.000000	3.956848   
592.500000	4.064424   
593.000000	4.240333   
593.500000	4.404348   
594.000000	4.485166   
594.500000	4.420280   
595.000000	4.306257   
595.500000	4.338075   
596.000000	4.461030   
596.500000	4.624393   
597.000000	4.823734   
597.500000	4.991787   
598.000000	5.092348   
598.500000	5.079446   
599.000000	5.112606   
599.500000	5.229068   
600.000000	5.530583   
600.500000	5.674734   
601.000000	5.568803   
601.500000	5.413310   
602.000000	5.637856   
602.500000	6.109818   
603.000000	6.548924   
603.500000	6.463893   
604.000000	6.291287   
604.500000	6.152204   
605.000000	6.316166   
605.500000	6.519303   
606.000000	6.857583   
606.500000	7.062378   
607.000000	7.368840   
607.500000	7.583462   
608.000000	8.127128   
608.500000	8.836772   
609.000000	9.266712   
609.500000	9.084659   
610.000000	8.747803   
610.500000	8.920674   
611.000000	9.491962   
611.500000	10.096568  
612.000000	10.244659  
612.500000	10.116507  
613.000000	10.157916  
613.500000	10.657234  
614.000000	11.489878  
614.500000	11.781075  
615.000000	11.999310  
615.500000	12.344454  
616.000000	13.091522  
616.500000	13.352689  
617.000000	13.639507  
617.500000	14.017424  
618.000000	14.715628  
618.500000	15.571742  
619.000000	16.369181  
619.500000	17.108446  
620.000000	17.511007  
620.500000	17.852757  
621.000000	18.066098  
621.500000	18.464219  
622.000000	18.889098  
622.500000	19.939181  
623.000000	21.101280  
623.500000	22.095689  
624.000000	22.802477  
624.500000	23.766681  
625.000000	24.739053  
625.500000	25.364840  
626.000000	25.460621  
626.500000	25.915439  
627.000000	26.710196  
627.500000	27.806083  
628.000000	28.709681  
628.500000	29.838818  
629.000000	31.187878  
629.500000	32.623787  
630.000000	33.827522  
630.500000	35.058310  
631.000000	36.427030  
631.500000	37.555537  
632.000000	38.686954  
632.500000	40.094901  
633.000000	42.133787  
633.500000	43.809886  
634.000000	45.027386  
634.500000	45.958166  
635.000000	47.449977  
635.500000	48.953848  
636.000000	50.486416  
636.500000	51.730454  
637.000000	53.340446  
637.500000	55.672901  
638.000000	58.686765  
638.500000	60.942280  
639.000000	61.792803  
639.500000	62.226643  
640.000000	63.652053  
640.500000	65.645924  
641.000000	67.557128  
641.500000	69.983007  
642.000000	72.949007  
642.500000	75.872522  
643.000000	78.135393  
643.500000	80.887553  
644.000000	83.085795  
644.500000	85.562492  
645.000000	87.041575  
645.500000	88.412371  
646.000000	88.617272  
646.500000	89.231712  
647.000000	90.864553  
647.500000	93.516962  
648.000000	96.343916  
648.500000	98.443749  
649.000000	100.871659 
649.500000	102.762924 
650.000000	105.079477 
650.500000	107.390174 
651.000000	109.348340 
651.500000	110.532462 
652.000000	111.926340 
652.500000	114.490765 
653.000000	118.058780 
653.500000	121.990780 
654.000000	125.051166 
654.500000	126.731189 
655.000000	127.187219 
655.500000	127.390833 
656.000000	129.538212 
656.500000	133.258734 
657.000000	137.524166 
657.500000	140.085750 
658.000000	141.266431 
658.500000	141.426621 
659.000000	142.282568 
659.500000	144.037734 
660.000000	146.888439 
660.500000	148.639628 
661.000000	149.891454 
661.500000	151.576424 
662.000000	154.520234 
662.500000	157.474416 
663.000000	159.119833 
663.500000	159.988227 
664.000000	161.373446 
664.500000	162.935030 
665.000000	163.382893 
665.500000	163.380083 
666.000000	163.536545 
666.500000	164.673553 
667.000000	165.519765 
667.500000	166.225007 
668.000000	168.197840 
668.500000	170.233113 
669.000000	170.178545 
669.500000	168.999901 
670.000000	170.108803 
670.500000	173.194613 
671.000000	176.176818 
671.500000	176.562803 
672.000000	175.996590 
672.500000	176.196333 
673.000000	176.782818 
673.500000	176.872371 
674.000000	175.992037 
674.500000	174.744939 
675.000000	173.971689 
675.500000	173.371454 
676.000000	172.588386 
676.500000	171.072128 
677.000000	170.323931 
677.500000	169.959477 
678.000000	170.734674 
678.500000	169.534545 
679.000000	167.480515 
679.500000	165.309507 
680.000000	164.773409 
680.500000	164.159431 
681.000000	163.356068 
681.500000	161.286651 
682.000000	158.818106 
682.500000	156.243333 
683.000000	154.946734 
683.500000	154.227159 
684.000000	152.359386 
684.500000	149.085537 
685.000000	145.882265 
685.500000	143.611128 
686.000000	142.134000 
686.500000	138.967234 
687.000000	134.786727 
687.500000	130.573795 
688.000000	128.422909 
688.500000	127.215303 
689.000000	126.806272 
689.500000	124.694469 
690.000000	122.089856 
690.500000	119.175681 
691.000000	116.242393 
691.500000	112.921219 
692.000000	109.108833 
692.500000	105.220439 
693.000000	101.812037 
693.500000	98.943030  
694.000000	96.979537  
694.500000	95.441318  
695.000000	93.496303  
695.500000	91.031712  
696.000000	88.970795  
696.500000	86.112106  
697.000000	82.883378  
697.500000	79.776265  
698.000000	77.824962  
698.500000	76.715151  
699.000000	75.934545  
699.500000	74.004348  
700.000000	70.697242  
700.500000	67.651856  
701.000000	66.153477  
701.500000	65.282833  
702.000000	63.530431  
702.500000	60.940030  
703.000000	58.620090  
703.500000	56.238522  
704.000000	54.258969  
704.500000	52.303636  
705.000000	50.973143  
705.500000	49.548946  
706.000000	48.656090  
706.500000	47.684659  
707.000000	46.654643  
707.500000	45.106484  
708.000000	43.752204  
708.500000	42.204712  
709.000000	40.814189  
709.500000	39.327772  
710.000000	38.281590  
710.500000	37.658189  
711.000000	37.284757  
711.500000	36.382780  
712.000000	34.780000  
712.500000	33.317825  
713.000000	32.526583  
713.500000	32.445287  
714.000000	31.965143  
714.500000	30.866159  
715.000000	29.509250  
715.500000	28.904068  
716.000000	28.554060  
716.500000	27.907969  
717.000000	26.924871  
717.500000	26.164818  
718.000000	25.260386  
718.500000	24.196984  
719.000000	23.309257  
719.500000	22.957916  
720.000000	22.665727  
720.500000	21.431446  
721.000000	20.007333  
721.500000	18.868439  
722.000000	18.556553  
722.500000	18.361825  
723.000000	18.405454  
723.500000	18.391227  
724.000000	18.329984  
724.500000	17.796651  
725.000000	17.103295  
725.500000	16.592856  
726.000000	16.183651  
726.500000	15.938674  
727.000000	15.700030  
727.500000	15.250068  
728.000000	14.564484  
728.500000	13.627795  
729.000000	12.971643  
729.500000	12.728803  
730.000000	12.913848  
730.500000	12.977969  
731.000000	12.840272  
731.500000	12.316196  
732.000000	12.265378  
732.500000	11.946825  
733.000000	11.430053  
733.500000	10.652310  
734.000000	10.764621  
734.500000	11.013439  
735.000000	10.924280  
735.500000	9.840863   
736.000000	8.909492   
736.500000	8.617765   
737.000000	8.901522   
737.500000	9.348356   
738.000000	9.487090   
738.500000	9.526863   
739.000000	9.196424   
739.500000	8.964689   
740.000000	8.642196   
740.500000	8.658909   
741.000000	8.532439   
741.500000	8.457469   
742.000000	8.310840   
742.500000	8.279962   
743.000000	7.991901   
743.500000	7.507621   
744.000000	7.111090   
744.500000	7.061863   
745.000000	6.951295   
745.500000	6.768499   
746.000000	6.613234   
746.500000	6.758265   
747.000000	6.851060   
747.500000	6.879037   
748.000000	6.784825   
748.500000	6.653583   
749.000000	6.363454   
749.500000	6.004674   
750.000000	5.703280   
750.500000	5.766515   
751.000000	5.792606   
751.500000	5.628098   
752.000000	5.218068   
752.500000	5.135621   
753.000000	5.175257   
753.500000	5.347530   
754.000000	5.305128   
754.500000	5.345848   
755.000000	5.240219   
755.500000	5.146340   
756.000000	4.981590   
756.500000	4.742939   
757.000000	4.358060   
757.500000	4.206143   
758.000000	4.528280   
758.500000	4.740765   
759.000000	4.722348   
759.500000	4.363515   
760.000000	4.295386   
760.500000	4.157568   
761.000000	4.125098   
761.500000	4.180787   
762.000000	4.397946   
762.500000	4.566250   
763.000000	4.423742   
763.500000	4.242492   
764.000000	3.927871   
764.500000	3.856083   
765.000000	3.807121   
765.500000	3.910136   
766.000000	3.701234   
766.500000	3.602053   
767.000000	3.612424   
767.500000	3.863840   
768.000000	3.754250   
768.500000	3.710136   
769.000000	3.605742   
769.500000	3.645106   
770.000000	3.378924   
770.500000	3.224401   
771.000000	3.156227   
771.500000	3.187393   
772.000000	3.051363   
772.500000	2.960712   
773.000000	2.983280   
773.500000	3.047825   
774.000000	3.006212   
774.500000	2.964083   
775.000000	3.017151   
775.500000	3.175295   
776.000000	3.229787   
776.500000	3.179401   
777.000000	3.093219   
777.500000	3.036303   
778.000000	2.982189   
778.500000	2.884257   
779.000000	2.874659   
779.500000	2.928424   
780.000000	2.988901   
780.500000	3.023500   
781.000000	3.050886   
781.500000	3.094893   
782.000000	3.039659   
782.500000	2.965606   
783.000000	2.903068   
783.500000	2.966916   
784.000000	2.998204   
784.500000	2.971878   
785.000000	2.854840   
785.500000	2.770386   
786.000000	2.781401   
786.500000	2.927159   
787.000000	2.990825   
787.500000	2.945340   
788.000000	2.747053   
788.500000	2.673265   
789.000000	2.716530   
789.500000	2.854553   
790.000000	2.799265   
790.500000	2.718409   
791.000000	2.707522   
791.500000	2.779083   
792.000000	2.849734   
792.500000	2.740439   
793.000000	2.669492   
793.500000	2.654545   
794.000000	2.661984   
794.500000	2.520954   
795.000000	2.398030   
795.500000	2.356348   
796.000000	2.340325   
796.500000	2.243575   
797.000000	2.076272   
797.500000	2.107734   
798.000000	2.169560   
798.500000	2.242712   
799.000000	2.198310   
799.500000	2.154242   
800.000000	2.113227   
800.500000	2.301340   
801.000000	2.547719   
801.500000	2.615939   
802.000000	2.348901   
802.500000	2.023492   
803.000000	1.905431   
803.500000	2.096250   
804.000000	2.341931   
804.500000	2.348015   
805.000000	2.008371   
805.500000	1.615090   
806.000000	1.566545   
806.500000	1.808462   
807.000000	1.844621   
807.500000	1.607143   
808.000000	1.392636   
808.500000	1.434356   
809.000000	1.539863   
809.500000	1.701045   
810.000000	1.867962   
810.500000	1.953825   
811.000000	1.699075   
811.500000	1.364143   
812.000000	1.199712   
812.500000	1.474977   
813.000000	1.713053   
813.500000	1.754492   
814.000000	1.399446   
814.500000	1.259378   
815.000000	1.310219   
815.500000	1.516037   
816.000000	1.522151   
816.500000	1.586621   
817.000000	1.786280   
817.500000	2.012143   
818.000000	2.055780   
818.500000	1.904689   
819.000000	1.709969   
819.500000	1.620772   
820.000000	1.581234   
820.500000	1.683363   
821.000000	1.784053   
821.500000	1.962719   
822.000000	1.991931   
822.500000	1.940083   
823.000000	1.903250   
823.500000	2.123666   
824.000000	2.317712   
824.500000	2.368507   
825.000000	2.321696   
825.500000	2.398287   
826.000000	2.459053   
826.500000	2.515287   
827.000000	2.432037   
827.500000	2.419893   
828.000000	2.287681   
828.500000	2.044795   
829.000000	1.744340   
829.500000	1.569045   
830.000000	1.471931   
830.500000	1.421909   
831.000000	1.395992   
831.500000	1.447075   
832.000000	1.537068   
832.500000	1.399909   
833.000000	1.093234   
833.500000	0.900628   
834.000000	1.027446   
834.500000	1.204189   
835.000000	1.264704   
835.500000	1.143348   
836.000000	1.033878   
836.500000	0.950704   
837.000000	0.903098   
837.500000	0.864734   
838.000000	0.895628   
838.500000	0.926500   
839.000000	0.869030   
839.500000	0.744840   
840.000000	0.712598   
840.500000	0.840166   
841.000000	0.988431   
841.500000	0.982590   
842.000000	0.855893   
842.500000	0.692575   
843.000000	0.580189   
843.500000	0.573227   
844.000000	0.596189   
844.500000	0.561219   
845.000000	0.459484   
845.500000	0.417386   
846.000000	0.392689   
846.500000	0.351560   
847.000000	0.316462   
847.500000	0.388689   
848.000000	0.466803   
848.500000	0.452984   
849.000000	0.351174   
849.500000	0.203371   
850.000000	0.091825   
850.500000	0.031848   
851.000000	0.141340   
851.500000	0.245143   
852.000000	0.284371   
852.500000	0.138765   
853.000000	0.086121   
853.500000	0.146212   
854.000000	0.308250   
854.500000	0.196750   
855.000000	-0.004068  
855.500000	-0.129621  
856.000000	0.040833   
856.500000	0.195000   
857.000000	0.217924   
857.500000	0.089015   
858.000000	-0.012325  
858.500000	0.079772   
859.000000	0.222333   
859.500000	0.274772   
860.000000	0.095189   
860.500000	-0.135636  
861.000000	-0.164136  
861.500000	0.012848   
862.000000	0.210931   
862.500000	0.132818   
863.000000	-0.158856  
863.500000	-0.477484  
864.000000	-0.448666  
864.500000	-0.230098  
865.000000	0.042446   
865.500000	0.134871   
866.000000	0.105401   
866.500000	-0.018196  
867.000000	-0.126674  
867.500000	-0.217810  
868.000000	-0.235280  
868.500000	-0.207227  
869.000000	-0.168424  
869.500000	-0.193166  
870.000000	-0.217871  
870.500000	-0.103189  
871.000000	0.083598   
871.500000	0.139712   
872.000000	-0.020287  
872.500000	-0.254833  
873.000000	-0.349643  
873.500000	-0.302068  
874.000000	-0.214628  
874.500000	-0.183545  
875.000000	-0.181666  
875.500000	-0.221318  
876.000000	-0.240007  
876.500000	-0.218787  
877.000000	-0.122537  
877.500000	-0.048257  
878.000000	0.028696   
878.500000	0.062022   
879.000000	0.104257   
879.500000	0.052431   
880.000000	0.026553   
880.500000	0.052265   
881.000000	0.099431   
881.500000	0.059401   
882.000000	0.010106   
882.500000	-0.007090  
883.000000	-0.019674  
883.500000	-0.065742  
884.000000	-0.070174  
884.500000	-0.104659  
885.000000	-0.161719  
885.500000	-0.261378  
886.000000	-0.192166  
886.500000	-0.126121  
887.000000	-0.036287  
887.500000	-0.077863  
888.000000	-0.066901  
888.500000	-0.140848  
889.000000	-0.161045  
889.500000	-0.177545  
890.000000	-0.177772  
890.500000	-0.072416  
891.000000	0.117560   
891.500000	0.298348   
892.000000	0.227431   
892.500000	0.032363   
893.000000	-0.135189  
893.500000	-0.115022  
894.000000	-0.008363  
894.500000	0.103166   
895.000000	0.131651   
895.500000	0.015681   
896.000000	-0.052136  
896.500000	-0.043446  
897.000000	0.034000   
897.500000	0.017856   
898.000000	0.027863   
898.500000	-0.099772  
899.000000	-0.255909  
899.500000	-0.341840  
900.000000	0.036803   
900.500000	0.876999   

