PE FL                   SPECTRUM    ASCII       PEDS        1.60        
  -1
S12R#11.SP
24/04/15
15:53:56.00
24/04/15
15:55:21.00
Jan

900.500000
1









LS55
405.00
5.00
5.00
SCAN
1
20
100
100
0
400
0
1
0
1
5
ON
900 405 
1 0 0
#HDR
-1
-1
#GR
NM

0.00002384185791015625
0.0
450.000000
0.500000
902
8
199.079295
-0.405659
#DATA
450.000000	0.164000   
450.500000	0.189924   
451.000000	0.149568   
451.500000	0.009439   
452.000000	-0.111174  
452.500000	-0.031363  
453.000000	0.175174   
453.500000	0.239719   
454.000000	0.071537   
454.500000	-0.147878  
455.000000	-0.257696  
455.500000	-0.256787  
456.000000	-0.239840  
456.500000	-0.228984  
457.000000	-0.095371  
457.500000	0.007098   
458.000000	0.034689   
458.500000	-0.094151  
459.000000	-0.171977  
459.500000	-0.154878  
460.000000	0.005765   
460.500000	0.055909   
461.000000	0.018954   
461.500000	-0.147007  
462.000000	-0.123795  
462.500000	-0.139234  
463.000000	-0.078651  
463.500000	-0.195719  
464.000000	-0.129712  
464.500000	-0.171500  
465.000000	-0.096992  
465.500000	-0.154090  
466.000000	-0.116992  
466.500000	-0.170181  
467.000000	-0.081742  
467.500000	-0.035212  
468.000000	0.093946   
468.500000	0.121416   
469.000000	0.183500   
469.500000	0.169803   
470.000000	0.228000   
470.500000	0.277848   
471.000000	0.277484   
471.500000	0.080272   
472.000000	0.038765   
472.500000	0.049401   
473.000000	0.043613   
473.500000	-0.213848  
474.000000	-0.405659  
474.500000	-0.337439  
475.000000	-0.002499  
475.500000	0.208037   
476.000000	0.088606   
476.500000	-0.156712  
477.000000	-0.301037  
477.500000	-0.068075  
478.000000	0.120727   
478.500000	0.221530   
479.000000	0.113856   
479.500000	0.067651   
480.000000	-0.018204  
480.500000	-0.100484  
481.000000	-0.217015  
481.500000	-0.126818  
482.000000	-0.025545  
482.500000	0.084469   
483.000000	0.151393   
483.500000	0.332098   
484.000000	0.461765   
484.500000	0.530704   
485.000000	0.322037   
485.500000	0.117522   
486.000000	-0.005280  
486.500000	-0.007719  
487.000000	-0.016212  
487.500000	-0.025416  
488.000000	0.060613   
488.500000	0.233712   
489.000000	0.394348   
489.500000	0.371522   
490.000000	0.209242   
490.500000	0.016712   
491.000000	-0.026303  
491.500000	0.017212   
492.000000	0.085954   
492.500000	0.117000   
493.000000	0.180515   
493.500000	0.193871   
494.000000	0.233765   
494.500000	0.243515   
495.000000	0.254196   
495.500000	0.089742   
496.000000	0.007310   
496.500000	0.161545   
497.000000	0.472196   
497.500000	0.682303   
498.000000	0.738742   
498.500000	0.665515   
499.000000	0.603469   
499.500000	0.597409   
500.000000	0.653113   
500.500000	0.792053   
501.000000	0.898401   
501.500000	0.920022   
502.000000	0.927371   
502.500000	1.000325   
503.000000	1.035022   
503.500000	1.119545   
504.000000	1.147992   
504.500000	1.256810   
505.000000	1.345575   
505.500000	1.369977   
506.000000	1.447825   
506.500000	1.680045   
507.000000	1.956462   
507.500000	1.957696   
508.000000	1.849303   
508.500000	1.857530   
509.000000	2.059681   
509.500000	2.237477   
510.000000	2.308818   
510.500000	2.514287   
511.000000	2.725931   
511.500000	2.852772   
512.000000	2.778212   
512.500000	2.765151   
513.000000	2.837696   
513.500000	2.976742   
514.000000	3.097090   
514.500000	3.083310   
515.000000	3.047090   
515.500000	2.994318   
516.000000	3.043742   
516.500000	3.087484   
517.000000	3.032431   
517.500000	2.980886   
518.000000	2.998409   
518.500000	3.149515   
519.000000	3.229681   
519.500000	3.350462   
520.000000	3.322681   
520.500000	3.170651   
521.000000	2.934568   
521.500000	2.976969   
522.000000	3.117431   
522.500000	3.135280   
523.000000	3.098507   
523.500000	3.345446   
524.000000	3.740492   
524.500000	3.993106   
525.000000	3.962439   
525.500000	3.984143   
526.000000	4.061416   
526.500000	3.931371   
527.000000	3.778772   
527.500000	3.837015   
528.000000	4.279204   
528.500000	4.743037   
529.000000	4.949000   
529.500000	5.010545   
530.000000	5.235325   
530.500000	5.771803   
531.000000	6.105628   
531.500000	6.159787   
532.000000	5.939787   
532.500000	6.091348   
533.000000	6.513833   
533.500000	6.972280   
534.000000	7.227863   
534.500000	7.504984   
535.000000	7.925825   
535.500000	8.421128   
536.000000	8.961651   
536.500000	9.632340   
537.000000	10.313424  
537.500000	10.945090  
538.000000	11.292946  
538.500000	11.564659  
539.000000	11.832151  
539.500000	12.199553  
540.000000	12.715757  
540.500000	13.192484  
541.000000	13.623575  
541.500000	13.717871  
542.000000	13.582075  
542.500000	13.119977  
543.000000	12.867659  
543.500000	12.581068  
544.000000	12.511659  
544.500000	12.251636  
545.000000	11.938500  
545.500000	11.261090  
546.000000	10.547659  
546.500000	9.864840   
547.000000	9.421477   
547.500000	8.943643   
548.000000	8.534318   
548.500000	8.083954   
549.000000	7.551371   
549.500000	6.811204   
550.000000	6.047310   
550.500000	5.442068   
551.000000	5.096568   
551.500000	4.874250   
552.000000	4.671227   
552.500000	4.437590   
553.000000	4.153674   
553.500000	3.873621   
554.000000	3.603977   
554.500000	3.475856   
555.000000	3.437469   
555.500000	3.396666   
556.000000	3.454628   
556.500000	3.530946   
557.000000	3.554787   
557.500000	3.390962   
558.000000	3.202416   
558.500000	3.020621   
559.000000	3.029015   
559.500000	3.130666   
560.000000	3.313689   
560.500000	3.297469   
561.000000	3.195946   
561.500000	3.087522   
562.000000	3.181909   
562.500000	3.330787   
563.000000	3.469318   
563.500000	3.443681   
564.000000	3.234863   
564.500000	3.066750   
565.000000	3.125924   
565.500000	3.451037   
566.000000	3.545287   
566.500000	3.542166   
567.000000	3.442727   
567.500000	3.484356   
568.000000	3.429765   
568.500000	3.412500   
569.000000	3.374818   
569.500000	3.317537   
570.000000	3.288424   
570.500000	3.307113   
571.000000	3.388954   
571.500000	3.290568   
572.000000	3.339636   
572.500000	3.313863   
573.000000	3.257689   
573.500000	3.089681   
574.000000	3.293363   
574.500000	3.592143   
575.000000	3.616015   
575.500000	3.357363   
576.000000	3.289340   
576.500000	3.387719   
577.000000	3.446234   
577.500000	3.457969   
578.000000	3.447416   
578.500000	3.387401   
579.000000	3.377045   
579.500000	3.499674   
580.000000	3.657901   
580.500000	3.557484   
581.000000	3.299136   
581.500000	3.165416   
582.000000	3.194704   
582.500000	3.445734   
583.000000	3.782287   
583.500000	3.999499   
584.000000	3.885492   
584.500000	3.619757   
585.000000	3.469863   
585.500000	3.464696   
586.000000	3.632143   
586.500000	3.703719   
587.000000	3.830833   
587.500000	3.733734   
588.000000	3.768030   
588.500000	3.918166   
589.000000	4.165219   
589.500000	4.236454   
590.000000	4.051007   
590.500000	3.888386   
591.000000	3.659166   
591.500000	3.498787   
592.000000	3.325628   
592.500000	3.579045   
593.000000	4.115037   
593.500000	4.469249   
594.000000	4.454242   
594.500000	4.236409   
595.000000	4.259803   
595.500000	4.382106   
596.000000	4.746401   
596.500000	5.052916   
597.000000	5.297727   
597.500000	5.266234   
598.000000	5.323303   
598.500000	5.068393   
599.000000	4.822992   
599.500000	4.841227   
600.000000	5.518227   
600.500000	6.018219   
601.000000	6.013181   
601.500000	5.680893   
602.000000	5.521803   
602.500000	5.674022   
603.000000	5.886250   
603.500000	6.163772   
604.000000	6.203174   
604.500000	6.264325   
605.000000	6.443628   
605.500000	6.644053   
606.000000	6.703636   
606.500000	6.771227   
607.000000	7.056507   
607.500000	7.328568   
608.000000	7.545446   
608.500000	7.486234   
609.000000	7.598924   
609.500000	8.016477   
610.000000	8.640454   
610.500000	8.828416   
611.000000	8.725454   
611.500000	8.787484   
612.000000	9.570143   
612.500000	10.172075  
613.000000	10.159636  
613.500000	9.797931   
614.000000	10.003348  
614.500000	10.818712  
615.000000	11.631310  
615.500000	11.999651  
616.000000	11.827295  
616.500000	11.837931  
617.000000	12.112007  
617.500000	13.152500  
618.000000	13.892189  
618.500000	14.417780  
619.000000	14.564007  
619.500000	15.102234  
620.000000	15.527772  
620.500000	15.978598  
621.000000	16.386128  
621.500000	16.960583  
622.000000	17.763189  
622.500000	18.389492  
623.000000	18.983628  
623.500000	19.474340  
624.000000	20.407522  
624.500000	21.126121  
625.000000	21.972712  
625.500000	22.634734  
626.000000	23.756568  
626.500000	24.964242  
627.000000	26.015553  
627.500000	26.747378  
628.000000	27.449537  
628.500000	28.388098  
629.000000	29.424053  
629.500000	30.565462  
630.000000	31.872098  
630.500000	33.031196  
631.000000	34.153939  
631.500000	34.840712  
632.000000	36.333484  
632.500000	38.078000  
633.000000	39.894674  
633.500000	40.537121  
634.000000	41.325666  
634.500000	42.322022  
635.000000	44.603901  
635.500000	47.031772  
636.000000	49.070484  
636.500000	50.390386  
637.000000	51.528681  
637.500000	52.289371  
638.000000	53.081916  
638.500000	54.367613  
639.000000	56.544606  
639.500000	59.255219  
640.000000	61.657840  
640.500000	63.803249  
641.000000	65.604098  
641.500000	66.921833  
642.000000	68.244060  
642.500000	70.862840  
643.000000	73.889818  
643.500000	76.719325  
644.000000	77.758787  
644.500000	78.396303  
645.000000	79.485787  
645.500000	81.802962  
646.000000	84.485621  
646.500000	87.255454  
647.000000	90.024507  
647.500000	93.087371  
648.000000	96.560886  
648.500000	98.802969  
649.000000	99.932318  
649.500000	100.833757 
650.000000	102.592651 
650.500000	105.192409 
651.000000	107.948984 
651.500000	110.547469 
652.000000	113.186310 
652.500000	116.198121 
653.000000	119.183083 
653.500000	121.935196 
654.000000	124.200522 
654.500000	126.202659 
655.000000	128.982901 
655.500000	131.917787 
656.000000	134.722507 
656.500000	136.742007 
657.000000	138.555712 
657.500000	141.028537 
658.000000	144.781393 
658.500000	148.611280 
659.000000	151.269909 
659.500000	152.834507 
660.000000	153.052333 
660.500000	154.013159 
661.000000	155.670393 
661.500000	159.270219 
662.000000	162.908840 
662.500000	166.845098 
663.000000	169.811795 
663.500000	172.570090 
664.000000	174.329037 
664.500000	175.970424 
665.000000	176.750265 
665.500000	177.956287 
666.000000	178.995909 
666.500000	180.133598 
667.000000	180.729977 
667.500000	182.035250 
668.000000	183.229727 
668.500000	184.112886 
669.000000	184.774643 
669.500000	186.757098 
670.000000	189.711174 
670.500000	191.585015 
671.000000	192.470916 
671.500000	193.488643 
672.000000	195.213083 
672.500000	196.223515 
673.000000	196.164189 
673.500000	195.417492 
674.000000	195.628522 
674.500000	195.721318 
675.000000	196.253242 
675.500000	196.834606 
676.000000	197.720227 
676.500000	197.407469 
677.000000	196.941022 
677.500000	197.460613 
678.000000	199.079295 
678.500000	198.677000 
679.000000	196.957893 
679.500000	195.648484 
680.000000	195.373818 
680.500000	195.626378 
681.000000	195.771704 
681.500000	195.493469 
682.000000	192.966924 
682.500000	189.853886 
683.000000	186.744787 
683.500000	185.971719 
684.000000	184.458818 
684.500000	182.828954 
685.000000	179.979363 
685.500000	177.030310 
686.000000	174.134128 
686.500000	172.453628 
687.000000	171.085515 
687.500000	169.495386 
688.000000	167.308106 
688.500000	164.428946 
689.000000	160.759954 
689.500000	156.477492 
690.000000	151.491371 
690.500000	147.358795 
691.000000	145.505325 
691.500000	145.304424 
692.000000	144.081750 
692.500000	139.386015 
693.000000	134.250333 
693.500000	131.255636 
694.000000	130.046553 
694.500000	127.110303 
695.000000	122.914818 
695.500000	119.042196 
696.000000	117.112257 
696.500000	115.390219 
697.000000	113.042128 
697.500000	109.506598 
698.000000	105.986840 
698.500000	102.623734 
699.000000	100.332363 
699.500000	98.198583  
700.000000	95.961507  
700.500000	92.841795  
701.000000	89.192924  
701.500000	85.750803  
702.000000	82.919469  
702.500000	80.784810  
703.000000	78.141227  
703.500000	75.800492  
704.000000	73.743053  
704.500000	72.453159  
705.000000	70.643515  
705.500000	68.338833  
706.000000	65.844098  
706.500000	64.037492  
707.000000	62.653234  
707.500000	61.324886  
708.000000	59.786628  
708.500000	58.382121  
709.000000	56.854310  
709.500000	55.168462  
710.000000	53.393219  
710.500000	51.961484  
711.000000	50.687674  
711.500000	49.173181  
712.000000	47.226159  
712.500000	45.387909  
713.000000	44.030053  
713.500000	42.789492  
714.000000	41.460000  
714.500000	40.036795  
715.000000	39.103969  
715.500000	38.465212  
716.000000	37.715000  
716.500000	36.590174  
717.000000	35.432401  
717.500000	34.347348  
718.000000	33.288886  
718.500000	32.665234  
719.000000	32.034159  
719.500000	31.182189  
720.000000	29.800393  
720.500000	28.625750  
721.000000	27.667250  
721.500000	26.717780  
722.000000	25.709818  
722.500000	25.134696  
723.000000	25.004704  
723.500000	24.859666  
724.000000	23.963704  
724.500000	22.648499  
725.000000	21.404515  
725.500000	20.778878  
726.000000	20.248871  
726.500000	20.052992  
727.000000	19.878250  
727.500000	19.709924  
728.000000	18.947583  
728.500000	17.802590  
729.000000	16.791189  
729.500000	16.341287  
730.000000	16.327348  
730.500000	16.357204  
731.000000	16.095810  
731.500000	15.595568  
732.000000	15.272537  
732.500000	15.081712  
733.000000	14.700825  
733.500000	14.188484  
734.000000	13.846696  
734.500000	13.669378  
735.000000	13.129598  
735.500000	12.451507  
736.000000	11.881424  
736.500000	11.960340  
737.000000	12.134303  
737.500000	12.333272  
738.000000	11.944545  
738.500000	11.454734  
739.000000	10.835863  
739.500000	10.619000  
740.000000	10.394227  
740.500000	10.200189  
741.000000	10.061734  
741.500000	10.016060  
742.000000	9.767484   
742.500000	9.201469   
743.000000	8.909515   
743.500000	9.092348   
744.000000	9.374378   
744.500000	8.979280   
745.000000	8.205159   
745.500000	7.749969   
746.000000	7.824681   
746.500000	7.924227   
747.000000	7.752954   
747.500000	7.628318   
748.000000	7.480621   
748.500000	7.341227   
749.000000	7.302234   
749.500000	7.556696   
750.000000	7.663106   
750.500000	7.418477   
751.000000	6.912431   
751.500000	6.671757   
752.000000	6.711378   
752.500000	6.638371   
753.000000	6.244227   
753.500000	5.832999   
754.000000	5.628212   
754.500000	5.522098   
755.000000	5.375128   
755.500000	5.373992   
756.000000	5.611946   
756.500000	5.697537   
757.000000	5.449454   
757.500000	5.208431   
758.000000	5.190583   
758.500000	5.317333   
759.000000	5.259075   
759.500000	5.151893   
760.000000	5.008295   
760.500000	5.036492   
761.000000	5.038015   
761.500000	5.077553   
762.000000	5.119333   
762.500000	5.152356   
763.000000	5.045469   
763.500000	4.781984   
764.000000	4.435325   
764.500000	4.193090   
765.000000	4.115431   
765.500000	4.260757   
766.000000	4.413378   
766.500000	4.629530   
767.000000	4.524136   
767.500000	4.339348   
768.000000	4.034393   
768.500000	3.962689   
769.000000	3.864000   
769.500000	3.660916   
770.000000	3.272075   
770.500000	3.320075   
771.000000	3.657924   
771.500000	3.934196   
772.000000	3.874000   
772.500000	3.702515   
773.000000	3.572818   
773.500000	3.479818   
774.000000	3.361522   
774.500000	3.283583   
775.000000	3.250484   
775.500000	3.165613   
776.000000	3.231310   
776.500000	3.417136   
777.000000	3.568454   
777.500000	3.543636   
778.000000	3.488954   
778.500000	3.383946   
779.000000	3.270371   
779.500000	3.144212   
780.000000	3.227628   
780.500000	3.155287   
781.000000	2.942515   
781.500000	2.637825   
782.000000	2.715992   
782.500000	2.916643   
783.000000	3.103393   
783.500000	3.083856   
784.000000	3.148113   
784.500000	3.200340   
785.000000	3.268318   
785.500000	3.124022   
786.000000	2.910962   
786.500000	2.637840   
787.000000	2.620590   
787.500000	2.725946   
788.000000	2.959492   
788.500000	3.046340   
789.000000	3.053303   
789.500000	2.972893   
790.000000	2.855886   
790.500000	2.741378   
791.000000	2.654181   
791.500000	2.659765   
792.000000	2.610500   
792.500000	2.666378   
793.000000	2.750181   
793.500000	2.805757   
794.000000	2.706242   
794.500000	2.660340   
795.000000	2.702015   
795.500000	2.658113   
796.000000	2.391931   
796.500000	2.104439   
797.000000	2.072340   
797.500000	2.163719   
798.000000	2.269151   
798.500000	2.345962   
799.000000	2.520886   
799.500000	2.629681   
800.000000	2.562454   
800.500000	2.230901   
801.000000	1.904515   
801.500000	1.680757   
802.000000	1.777780   
802.500000	1.882878   
803.000000	1.875310   
803.500000	1.626409   
804.000000	1.593416   
804.500000	1.730500   
805.000000	1.934325   
805.500000	1.931393   
806.000000	1.876318   
806.500000	1.700621   
807.000000	1.584431   
807.500000	1.609977   
808.000000	1.778242   
808.500000	1.904174   
809.000000	1.783984   
809.500000	1.615575   
810.000000	1.531825   
810.500000	1.648295   
811.000000	1.643651   
811.500000	1.670371   
812.000000	1.591878   
812.500000	1.523977   
813.000000	1.246992   
813.500000	1.057613   
814.000000	1.079681   
814.500000	1.337234   
815.000000	1.518545   
815.500000	1.626719   
816.000000	1.684424   
816.500000	1.652712   
817.000000	1.643886   
817.500000	1.605000   
818.000000	1.655659   
818.500000	1.629734   
819.000000	1.726424   
819.500000	1.845090   
820.000000	1.921083   
820.500000	1.893568   
821.000000	1.978893   
821.500000	2.287795   
822.000000	2.567431   
822.500000	2.745469   
823.000000	2.682651   
823.500000	2.635022   
824.000000	2.599121   
824.500000	2.654310   
825.000000	2.631537   
825.500000	2.559098   
826.000000	2.552212   
826.500000	2.768840   
827.000000	2.752636   
827.500000	2.392477   
828.000000	1.861212   
828.500000	1.602840   
829.000000	1.609340   
829.500000	1.676189   
830.000000	1.566098   
830.500000	1.248689   
831.000000	0.993507   
831.500000	0.933515   
832.000000	1.160757   
832.500000	1.301446   
833.000000	1.305757   
833.500000	1.174424   
834.000000	1.137590   
834.500000	1.065090   
835.000000	0.957484   
835.500000	0.789681   
836.000000	0.798060   
836.500000	0.967174   
837.000000	1.061590   
837.500000	1.035242   
838.000000	1.028462   
838.500000	1.139257   
839.000000	1.146022   
839.500000	1.022000   
840.000000	0.864280   
840.500000	0.791962   
841.000000	0.777136   
841.500000	0.751780   
842.000000	0.759030   
842.500000	0.744393   
843.000000	0.780575   
843.500000	0.759371   
844.000000	0.713530   
844.500000	0.570901   
845.000000	0.492295   
845.500000	0.543666   
846.000000	0.680477   
846.500000	0.681871   
847.000000	0.507613   
847.500000	0.277280   
848.000000	0.174409   
848.500000	0.128681   
849.000000	0.149803   
849.500000	0.250545   
850.000000	0.312704   
850.500000	0.217795   
851.000000	0.089053   
851.500000	0.149393   
852.000000	0.369181   
852.500000	0.400416   
853.000000	0.329530   
853.500000	0.308416   
854.000000	0.403606   
854.500000	0.395234   
855.000000	0.403333   
855.500000	0.327795   
856.000000	0.265431   
856.500000	0.044984   
857.000000	-0.066462  
857.500000	-0.030871  
858.000000	0.049303   
858.500000	-0.045022  
859.000000	-0.139204  
859.500000	-0.150484  
860.000000	-0.028780  
860.500000	-0.015174  
861.000000	-0.070984  
861.500000	-0.101000  
862.000000	0.005666   
862.500000	0.038689   
863.000000	-0.034962  
863.500000	-0.119871  
864.000000	-0.006310  
864.500000	0.108984   
865.000000	0.059984   
865.500000	-0.085181  
866.000000	-0.057431  
866.500000	0.032886   
867.000000	0.049840   
867.500000	-0.069022  
868.000000	-0.112712  
868.500000	-0.100780  
869.000000	-0.000545  
869.500000	0.080371   
870.000000	0.120787   
870.500000	0.048462   
871.000000	-0.003325  
871.500000	-0.016189  
872.000000	-0.059954  
872.500000	-0.163045  
873.000000	-0.183378  
873.500000	-0.085666  
874.000000	0.014212   
874.500000	0.012840   
875.000000	-0.040416  
875.500000	-0.036469  
876.000000	-0.022931  
876.500000	-0.067075  
877.000000	-0.137613  
877.500000	-0.137083  
878.000000	-0.065954  
878.500000	0.008681   
879.000000	-0.015484  
879.500000	-0.058113  
880.000000	-0.085742  
880.500000	-0.138507  
881.000000	-0.193303  
881.500000	-0.209522  
882.000000	-0.122613  
882.500000	-0.030340  
883.000000	0.026765   
883.500000	0.022969   
884.000000	0.029484   
884.500000	0.022500   
885.000000	0.024560   
885.500000	0.025030   
886.000000	-0.019477  
886.500000	-0.069386  
887.000000	-0.123462  
887.500000	-0.072196  
888.000000	-0.101901  
888.500000	-0.090833  
889.000000	-0.072454  
889.500000	0.030810   
890.000000	0.034696   
890.500000	-0.009742  
891.000000	-0.079416  
891.500000	-0.056598  
892.000000	0.000537   
892.500000	0.060068   
893.000000	0.048742   
893.500000	-0.030022  
894.000000	-0.153045  
894.500000	-0.126643  
895.000000	-0.059318  
895.500000	0.044909   
896.000000	0.027272   
896.500000	0.017984   
897.000000	0.009909   
897.500000	0.051507   
898.000000	0.024537   
898.500000	-0.010477  
899.000000	0.004287   
899.500000	0.086340   
900.000000	0.160340   
900.500000	0.169000   

