PE FL                   SPECTRUM    ASCII       PEDS        1.60        
  -1
S12R#38.SP
24/04/15
16:32:26.00
24/04/15
16:33:52.00
Jan

900.500000
1









LS55
405.00
5.00
5.00
SCAN
1
20
100
100
0
400
0
1
0
1
5
ON
900 405 
1 0 0
#HDR
-1
-1
#GR
NM

0.00002384185791015625
0.0
450.000000
0.500000
902
8
167.073037
-0.410333
#DATA
450.000000	-0.000000  
450.500000	0.218568   
451.000000	0.226977   
451.500000	0.041151   
452.000000	-0.267242  
452.500000	-0.263674  
453.000000	-0.048719  
453.500000	0.229787   
454.000000	0.263250   
454.500000	0.167727   
455.000000	0.067295   
455.500000	0.090022   
456.000000	0.157575   
456.500000	0.114795   
457.000000	-0.037280  
457.500000	-0.328386  
458.000000	-0.410333  
458.500000	-0.346181  
459.000000	-0.183068  
459.500000	-0.175606  
460.000000	-0.262439  
460.500000	-0.330431  
461.000000	-0.180984  
461.500000	-0.009613  
462.000000	0.067234   
462.500000	-0.023196  
463.000000	-0.162750  
463.500000	-0.244439  
464.000000	-0.187560  
464.500000	-0.089871  
465.000000	-0.044833  
465.500000	-0.112750  
466.000000	-0.129757  
466.500000	-0.063227  
467.000000	0.059772   
467.500000	0.102946   
468.000000	0.091386   
468.500000	-0.061606  
469.000000	-0.199090  
469.500000	-0.273174  
470.000000	-0.176454  
470.500000	0.000431   
471.000000	0.181553   
471.500000	0.212340   
472.000000	0.109537   
472.500000	-0.042992  
473.000000	-0.109833  
473.500000	-0.109128  
474.000000	-0.101848  
474.500000	-0.110734  
475.000000	-0.111848  
475.500000	-0.090848  
476.000000	0.016295   
476.500000	0.120969   
477.000000	0.140462   
477.500000	0.029803   
478.000000	-0.201643  
478.500000	-0.245310  
479.000000	-0.103121  
479.500000	0.184803   
480.000000	0.231265   
480.500000	0.231977   
481.000000	0.187946   
481.500000	0.269757   
482.000000	0.146075   
482.500000	-0.026227  
483.000000	-0.211606  
483.500000	-0.290984  
484.000000	-0.306181  
484.500000	-0.140083  
485.000000	0.042181   
485.500000	0.076500   
486.000000	-0.115189  
486.500000	-0.259636  
487.000000	-0.200060  
487.500000	-0.020000  
488.000000	-0.081348  
488.500000	-0.158393  
489.000000	-0.100575  
489.500000	0.046984   
490.000000	-0.121477  
490.500000	-0.318560  
491.000000	-0.272500  
491.500000	0.068159   
492.000000	0.189219   
492.500000	0.026348   
493.000000	-0.157530  
493.500000	-0.120636  
494.000000	0.019181   
494.500000	0.139916   
495.000000	0.143537   
495.500000	0.058318   
496.000000	0.025590   
496.500000	0.095462   
497.000000	0.201409   
497.500000	0.267992   
498.000000	0.296068   
498.500000	0.342522   
499.000000	0.472015   
499.500000	0.558613   
500.000000	0.611848   
500.500000	0.629863   
501.000000	0.797287   
501.500000	0.893446   
502.000000	0.982924   
502.500000	0.916583   
503.000000	0.944090   
503.500000	0.864939   
504.000000	0.894674   
504.500000	0.912795   
505.000000	1.106598   
505.500000	1.408484   
506.000000	1.694825   
506.500000	1.872477   
507.000000	1.866689   
507.500000	1.919015   
508.000000	1.851227   
508.500000	1.950840   
509.000000	2.001916   
509.500000	2.286037   
510.000000	2.309250   
510.500000	2.445833   
511.000000	2.520189   
511.500000	2.740015   
512.000000	2.679962   
512.500000	2.652348   
513.000000	2.631901   
513.500000	2.750878   
514.000000	2.881863   
514.500000	3.041000   
515.000000	3.121022   
515.500000	3.057886   
516.000000	2.998363   
516.500000	3.041174   
517.000000	3.174613   
517.500000	3.240689   
518.000000	3.166765   
518.500000	3.060734   
519.000000	3.033250   
519.500000	3.130356   
520.000000	3.088454   
520.500000	3.213856   
521.000000	3.502772   
521.500000	3.919810   
522.000000	3.902696   
522.500000	3.548000   
523.000000	3.240325   
523.500000	3.163492   
524.000000	3.335999   
524.500000	3.490613   
525.000000	3.806825   
525.500000	3.941068   
526.000000	4.170121   
526.500000	4.305598   
527.000000	4.526196   
527.500000	4.507681   
528.000000	4.517568   
528.500000	4.564045   
529.000000	4.698000   
529.500000	4.785325   
530.000000	4.877363   
530.500000	4.921522   
531.000000	5.087499   
531.500000	5.492356   
532.000000	6.028803   
532.500000	6.429340   
533.000000	6.473325   
533.500000	6.503522   
534.000000	6.719590   
534.500000	7.037598   
535.000000	7.475090   
535.500000	7.907704   
536.000000	8.255030   
536.500000	8.398287   
537.000000	8.838780   
537.500000	9.494674   
538.000000	10.359772  
538.500000	10.635257  
539.000000	10.914272  
539.500000	11.160007  
540.000000	11.819840  
540.500000	12.575522  
541.000000	13.477409  
541.500000	13.782795  
542.000000	13.779613  
542.500000	13.485500  
543.000000	13.575469  
543.500000	13.446734  
544.000000	13.063189  
544.500000	12.194871  
545.000000	11.639606  
545.500000	11.064325  
546.000000	10.806181  
546.500000	10.190310  
547.000000	9.496833   
547.500000	8.705962   
548.000000	8.168575   
548.500000	7.651545   
549.000000	7.103068   
549.500000	6.592227   
550.000000	6.133909   
550.500000	5.660022   
551.000000	4.926666   
551.500000	4.218053   
552.000000	3.780939   
552.500000	3.752090   
553.000000	3.745856   
553.500000	3.583901   
554.000000	3.281803   
554.500000	3.075151   
555.000000	3.030750   
555.500000	2.982848   
556.000000	2.918984   
556.500000	2.870037   
557.000000	2.917863   
557.500000	2.972939   
558.000000	3.153015   
558.500000	3.292424   
559.000000	3.363803   
559.500000	3.249840   
560.000000	3.140280   
560.500000	3.075219   
561.000000	3.042378   
561.500000	3.055757   
562.000000	3.132909   
562.500000	3.223863   
563.000000	3.247106   
563.500000	3.251143   
564.000000	3.266712   
564.500000	3.226909   
565.000000	3.127727   
565.500000	3.052083   
566.000000	3.107787   
566.500000	3.180219   
567.000000	3.244704   
567.500000	3.306174   
568.000000	3.357878   
568.500000	3.361348   
569.000000	3.203000   
569.500000	3.157280   
570.000000	3.160522   
570.500000	3.247371   
571.000000	3.091954   
571.500000	2.951674   
572.000000	2.948992   
572.500000	3.186924   
573.000000	3.325628   
573.500000	3.314022   
574.000000	3.163242   
574.500000	3.088037   
575.000000	3.139643   
575.500000	3.238060   
576.000000	3.205803   
576.500000	3.134416   
577.000000	3.066143   
577.500000	3.219075   
578.000000	3.324696   
578.500000	3.403598   
579.000000	3.482674   
579.500000	3.715689   
580.000000	3.958840   
580.500000	3.982310   
581.000000	3.748143   
581.500000	3.421590   
582.000000	3.378590   
582.500000	3.512651   
583.000000	3.707909   
583.500000	3.695363   
584.000000	3.611598   
584.500000	3.453969   
585.000000	3.379416   
585.500000	3.387416   
586.000000	3.524969   
586.500000	3.558022   
587.000000	3.523272   
587.500000	3.537378   
588.000000	3.583446   
588.500000	3.737424   
589.000000	3.903757   
589.500000	4.086431   
590.000000	4.070727   
590.500000	4.133719   
591.000000	4.125810   
591.500000	4.124492   
592.000000	3.908143   
592.500000	3.797053   
593.000000	4.027265   
593.500000	4.399098   
594.000000	4.467840   
594.500000	4.367931   
595.000000	4.441893   
595.500000	4.801893   
596.000000	4.918053   
596.500000	4.865840   
597.000000	4.882015   
597.500000	5.380636   
598.000000	5.609780   
598.500000	5.547507   
599.000000	5.243583   
599.500000	5.378621   
600.000000	5.629734   
600.500000	5.974242   
601.000000	6.005068   
601.500000	5.995840   
602.000000	5.902363   
602.500000	6.055878   
603.000000	6.129363   
603.500000	6.336537   
604.000000	6.555371   
604.500000	6.955075   
605.000000	7.132636   
605.500000	7.054454   
606.000000	6.888348   
606.500000	7.054522   
607.000000	7.371287   
607.500000	7.579825   
608.000000	8.134931   
608.500000	8.802840   
609.000000	9.459969   
609.500000	9.594333   
610.000000	9.783727   
610.500000	10.043196  
611.000000	10.445825  
611.500000	10.563962  
612.000000	10.869409  
612.500000	11.291242  
613.000000	11.738651  
613.500000	11.905818  
614.000000	12.078356  
614.500000	12.287340  
615.000000	12.676318  
615.500000	13.030151  
616.000000	13.570621  
616.500000	14.151674  
617.000000	14.952204  
617.500000	15.734045  
618.000000	16.557916  
618.500000	17.026371  
619.000000	17.536666  
619.500000	18.100484  
620.000000	18.738446  
620.500000	19.037439  
621.000000	19.084598  
621.500000	19.291545  
622.000000	20.016121  
622.500000	21.801280  
623.000000	23.577825  
623.500000	24.455878  
624.000000	24.175560  
624.500000	24.205212  
625.000000	25.358772  
625.500000	26.813098  
626.000000	27.833257  
626.500000	28.523886  
627.000000	29.201787  
627.500000	29.823121  
628.000000	30.645219  
628.500000	32.041159  
629.000000	33.727083  
629.500000	35.617787  
630.000000	36.898757  
630.500000	38.229439  
631.000000	39.667674  
631.500000	41.603037  
632.000000	42.980310  
632.500000	43.727083  
633.000000	44.464393  
633.500000	46.329530  
634.000000	48.492575  
634.500000	50.621704  
635.000000	52.279734  
635.500000	53.657083  
636.000000	54.698628  
636.500000	55.818492  
637.000000	57.478924  
637.500000	59.662325  
638.000000	61.916712  
638.500000	63.640909  
639.000000	64.992340  
639.500000	66.355515  
640.000000	68.269310  
640.500000	70.236545  
641.000000	72.073431  
641.500000	73.972113  
642.000000	75.838909  
642.500000	78.204984  
643.000000	80.377606  
643.500000	82.854727  
644.000000	84.558121  
644.500000	85.744340  
645.000000	86.252106  
645.500000	87.684431  
646.000000	90.350840  
646.500000	93.713113  
647.000000	96.503931  
647.500000	98.654818  
648.000000	100.378969 
648.500000	101.468363 
649.000000	102.853696 
649.500000	105.275757 
650.000000	107.861939 
650.500000	109.381363 
651.000000	110.384674 
651.500000	112.743280 
652.000000	116.549833 
652.500000	119.309583 
653.000000	120.632909 
653.500000	121.505931 
654.000000	123.693651 
654.500000	126.193719 
655.000000	128.556363 
655.500000	130.529446 
656.000000	132.686287 
656.500000	134.965424 
657.000000	137.678045 
657.500000	140.008318 
658.000000	141.509704 
658.500000	141.399280 
659.000000	142.308098 
659.500000	143.968530 
660.000000	146.417416 
660.500000	148.313719 
661.000000	151.308424 
661.500000	153.351446 
662.000000	154.838696 
662.500000	155.243924 
663.000000	155.959954 
663.500000	157.059909 
664.000000	158.991227 
664.500000	160.929674 
665.000000	161.869121 
665.500000	161.454878 
666.000000	161.518234 
666.500000	161.222553 
667.000000	160.984734 
667.500000	160.675893 
668.000000	162.006803 
668.500000	164.445189 
669.000000	166.314507 
669.500000	166.634636 
670.000000	165.922916 
670.500000	165.776507 
671.000000	166.274045 
671.500000	167.073037 
672.000000	166.175795 
672.500000	165.526969 
673.000000	165.319621 
673.500000	165.540689 
674.000000	164.839636 
674.500000	164.691439 
675.000000	164.539060 
675.500000	164.924401 
676.000000	163.734325 
676.500000	162.583083 
677.000000	160.821242 
677.500000	159.154886 
678.000000	156.872053 
678.500000	154.801045 
679.000000	153.289143 
679.500000	152.419901 
680.000000	152.154583 
680.500000	150.843977 
681.000000	148.372893 
681.500000	144.952734 
682.000000	142.202371 
682.500000	140.280598 
683.000000	138.858075 
683.500000	137.529666 
684.000000	136.095598 
684.500000	134.511886 
685.000000	132.085287 
685.500000	129.358871 
686.000000	126.717371 
686.500000	124.387795 
687.000000	121.691015 
687.500000	118.828772 
688.000000	116.644151 
688.500000	114.993250 
689.000000	112.919795 
689.500000	109.654181 
690.000000	105.832393 
690.500000	102.727219 
691.000000	100.318962 
691.500000	98.264507  
692.000000	95.722500  
692.500000	93.618249  
693.000000	91.515106  
693.500000	89.531098  
694.000000	86.962803  
694.500000	84.828469  
695.000000	82.830363  
695.500000	81.105666  
696.000000	78.576856  
696.500000	75.562825  
697.000000	72.160204  
697.500000	69.969613  
698.000000	68.764742  
698.500000	67.632689  
699.000000	65.792128  
699.500000	63.503446  
700.000000	61.108151  
700.500000	59.008159  
701.000000	57.101856  
701.500000	55.622151  
702.000000	54.833696  
702.500000	53.709295  
703.000000	51.891393  
703.500000	49.718969  
704.000000	48.238424  
704.500000	47.341916  
705.000000	45.836060  
705.500000	43.493522  
706.000000	41.706750  
706.500000	40.442462  
707.000000	39.144393  
707.500000	37.867704  
708.000000	37.009098  
708.500000	36.715174  
709.000000	36.266363  
709.500000	35.160909  
710.000000	33.851583  
710.500000	32.627348  
711.000000	31.827780  
711.500000	31.142704  
712.000000	30.311833  
712.500000	28.959696  
713.000000	27.711984  
713.500000	26.799212  
714.000000	26.700477  
714.500000	26.648537  
715.000000	26.201719  
715.500000	25.083446  
716.000000	24.515916  
716.500000	23.997818  
717.000000	23.171992  
717.500000	21.478606  
718.000000	20.390219  
718.500000	20.023780  
719.000000	20.154840  
719.500000	19.759446  
720.000000	19.234189  
720.500000	18.360333  
721.000000	17.457560  
721.500000	16.878348  
722.000000	17.148325  
722.500000	17.547924  
723.000000	17.473371  
723.500000	16.714007  
724.000000	16.092462  
724.500000	15.499318  
725.000000	15.173280  
725.500000	14.762795  
726.000000	14.373909  
726.500000	13.776151  
727.000000	13.437583  
727.500000	13.210333  
728.000000	13.131893  
728.500000	12.642431  
729.000000	12.255393  
729.500000	11.994159  
730.000000	11.881681  
730.500000	11.466825  
731.000000	11.103446  
731.500000	10.953909  
732.000000	11.248393  
732.500000	11.266962  
733.000000	10.911795  
733.500000	10.298893  
734.000000	9.960015   
734.500000	9.942712   
735.000000	10.054984  
735.500000	9.837204   
736.000000	9.307848   
736.500000	8.780159   
737.000000	8.585507   
737.500000	8.540856   
738.000000	8.260992   
738.500000	8.015083   
739.000000	7.984780   
739.500000	8.010204   
740.000000	7.763704   
740.500000	7.329719   
741.000000	7.008280   
741.500000	6.967287   
742.000000	7.099787   
742.500000	7.085878   
743.000000	6.888674   
743.500000	6.559121   
744.000000	6.454750   
744.500000	6.411106   
745.000000	6.310977   
745.500000	6.213348   
746.000000	6.229575   
746.500000	6.378340   
747.000000	6.493431   
747.500000	6.602757   
748.000000	6.446818   
748.500000	6.086340   
749.000000	5.697060   
749.500000	5.491795   
750.000000	5.455946   
750.500000	5.464128   
751.000000	5.379666   
751.500000	5.124424   
752.000000	4.936606   
752.500000	5.006136   
753.000000	5.230560   
753.500000	5.296886   
754.000000	5.050265   
754.500000	4.700537   
755.000000	4.467303   
755.500000	4.457007   
756.000000	4.690484   
756.500000	4.696378   
757.000000	4.586090   
757.500000	4.345719   
758.000000	4.288477   
758.500000	4.051075   
759.000000	3.999856   
759.500000	4.027136   
760.000000	4.167075   
760.500000	4.070530   
761.000000	3.898939   
761.500000	3.846303   
762.000000	3.882878   
762.500000	3.882621   
763.000000	3.861848   
763.500000	3.813848   
764.000000	3.790507   
764.500000	3.798871   
765.000000	3.781045   
765.500000	3.604492   
766.000000	3.446674   
766.500000	3.477909   
767.000000	3.523742   
767.500000	3.445393   
768.000000	3.307393   
768.500000	3.384825   
769.000000	3.530090   
769.500000	3.559219   
770.000000	3.474462   
770.500000	3.445780   
771.000000	3.402742   
771.500000	3.325053   
772.000000	3.280727   
772.500000	3.352045   
773.000000	3.315242   
773.500000	3.229810   
774.000000	3.145015   
774.500000	3.231234   
775.000000	3.163545   
775.500000	2.975704   
776.000000	2.950371   
776.500000	3.147106   
777.000000	3.303060   
777.500000	3.212257   
778.000000	3.090924   
778.500000	3.021219   
779.000000	2.970757   
779.500000	2.706598   
780.000000	2.519780   
780.500000	2.431742   
781.000000	2.604931   
781.500000	2.743090   
782.000000	2.754969   
782.500000	2.524939   
783.000000	2.468022   
783.500000	2.548371   
784.000000	2.781265   
784.500000	2.801787   
785.000000	2.628810   
785.500000	2.404484   
786.000000	2.407734   
786.500000	2.558189   
787.000000	2.793742   
787.500000	2.838272   
788.000000	2.779121   
788.500000	2.708492   
789.000000	2.590931   
789.500000	2.507840   
790.000000	2.477848   
790.500000	2.655507   
791.000000	2.803734   
791.500000	2.914151   
792.000000	2.749795   
792.500000	2.616560   
793.000000	2.387280   
793.500000	2.338242   
794.000000	2.371628   
794.500000	2.337643   
795.000000	2.085219   
795.500000	1.936378   
796.000000	2.097901   
796.500000	2.315643   
797.000000	2.323674   
797.500000	2.179060   
798.000000	2.211840   
798.500000	2.305515   
799.000000	2.356090   
799.500000	2.354378   
800.000000	2.330363   
800.500000	2.229916   
801.000000	2.133583   
801.500000	2.152083   
802.000000	2.230924   
802.500000	2.398803   
803.000000	2.502030   
803.500000	2.538825   
804.000000	2.262340   
804.500000	2.156931   
805.000000	2.185704   
805.500000	2.337219   
806.000000	2.070227   
806.500000	1.832363   
807.000000	1.703083   
807.500000	1.839446   
808.000000	1.862659   
808.500000	1.793348   
809.000000	1.646121   
809.500000	1.474916   
810.000000	1.327674   
810.500000	1.213734   
811.000000	1.155515   
811.500000	1.225227   
812.000000	1.424159   
812.500000	1.549939   
813.000000	1.577803   
813.500000	1.571522   
814.000000	1.547939   
814.500000	1.429136   
815.000000	1.384454   
815.500000	1.543886   
816.000000	1.775795   
816.500000	1.662378   
817.000000	1.407409   
817.500000	1.289454   
818.000000	1.401681   
818.500000	1.568075   
819.000000	1.738909   
819.500000	1.943628   
820.000000	2.042454   
820.500000	1.943015   
821.000000	1.697651   
821.500000	1.685636   
822.000000	1.902651   
822.500000	2.267477   
823.000000	2.516159   
823.500000	2.650780   
824.000000	2.749151   
824.500000	2.640181   
825.000000	2.305757   
825.500000	1.952992   
826.000000	2.047280   
826.500000	2.164583   
827.000000	2.053015   
827.500000	1.697113   
828.000000	1.546840   
828.500000	1.597166   
829.000000	1.753333   
829.500000	1.851674   
830.000000	1.789477   
830.500000	1.604757   
831.000000	1.399371   
831.500000	1.316234   
832.000000	1.209878   
832.500000	1.088727   
833.000000	1.061651   
833.500000	1.116090   
834.000000	1.145333   
834.500000	1.152651   
835.000000	1.140181   
835.500000	1.082037   
836.000000	1.031454   
836.500000	0.995462   
837.000000	0.970151   
837.500000	0.837962   
838.000000	0.685257   
838.500000	0.587325   
839.000000	0.684636   
839.500000	0.802757   
840.000000	0.889893   
840.500000	0.784977   
841.000000	0.573249   
841.500000	0.399651   
842.000000	0.435477   
842.500000	0.676242   
843.000000	0.898030   
843.500000	0.932636   
844.000000	0.823628   
844.500000	0.615734   
845.000000	0.422075   
845.500000	0.341204   
846.000000	0.483598   
846.500000	0.665196   
847.000000	0.658454   
847.500000	0.434166   
848.000000	0.139113   
848.500000	0.072060   
849.000000	0.097795   
849.500000	0.285295   
850.000000	0.325401   
850.500000	0.438674   
851.000000	0.440962   
851.500000	0.354431   
852.000000	0.124022   
852.500000	-0.015333  
853.000000	0.013106   
853.500000	0.033393   
854.000000	0.036439   
854.500000	0.013856   
855.000000	0.096545   
855.500000	0.071068   
856.000000	-0.036507  
856.500000	-0.184030  
857.000000	-0.214030  
857.500000	-0.125295  
858.000000	-0.019015  
858.500000	-0.019590  
859.000000	-0.014878  
859.500000	0.062818   
860.000000	0.196750   
860.500000	0.158272   
861.000000	0.026204   
861.500000	-0.043212  
862.000000	0.099257   
862.500000	0.224068   
863.000000	0.233007   
863.500000	0.119174   
864.000000	-0.084780  
864.500000	-0.261643  
865.000000	-0.324045  
865.500000	-0.180628  
866.000000	-0.016901  
866.500000	0.011060   
867.000000	-0.059439  
867.500000	0.011704   
868.000000	0.150886   
868.500000	0.200628   
869.000000	0.100386   
869.500000	-0.040962  
870.000000	-0.061833  
870.500000	0.015128   
871.000000	0.044954   
871.500000	0.039333   
872.000000	-0.005553  
872.500000	-0.016416  
873.000000	-0.030530  
873.500000	-0.089159  
874.000000	-0.186712  
874.500000	-0.209318  
875.000000	-0.193916  
875.500000	-0.128060  
876.000000	-0.075272  
876.500000	-0.034340  
877.000000	-0.033477  
877.500000	-0.036613  
878.000000	-0.068265  
878.500000	-0.003227  
879.000000	-0.027045  
879.500000	-0.028818  
880.000000	-0.083340  
880.500000	-0.050833  
881.000000	-0.081257  
881.500000	-0.052871  
882.000000	-0.015022  
882.500000	0.074954   
883.000000	0.076621   
883.500000	-0.021378  
884.000000	-0.082909  
884.500000	-0.159143  
885.000000	-0.146113  
885.500000	-0.123810  
886.000000	-0.027159  
886.500000	0.052393   
887.000000	0.126356   
887.500000	0.155128   
888.000000	0.047765   
888.500000	-0.099674  
889.000000	-0.233946  
889.500000	-0.110522  
890.000000	-0.037409  
890.500000	0.000734   
891.000000	-0.099280  
891.500000	-0.107469  
892.000000	-0.160325  
892.500000	-0.261825  
893.000000	-0.368515  
893.500000	-0.320416  
894.000000	-0.153371  
894.500000	-0.005636  
895.000000	0.008439   
895.500000	-0.117310  
896.000000	-0.281045  
896.500000	-0.326106  
897.000000	-0.210393  
897.500000	-0.091613  
898.000000	-0.070704  
898.500000	-0.153196  
899.000000	-0.225287  
899.500000	-0.301401  
900.000000	-0.288984  
900.500000	-0.201000  

