PE FL                   SPECTRUM    ASCII       PEDS        1.60        
  -1
S12R#58.SP
24/04/15
17:00:58.00
24/04/15
17:02:23.00
Jan

900.500000
1









LS55
405.00
5.00
5.00
SCAN
1
20
100
100
0
400
0
1
0
1
5
ON
900 405 
1 0 0
#HDR
-1
-1
#GR
NM

0.00002384185791015625
0.0
450.000000
0.500000
902
8
144.571106
-0.658999
#DATA
450.000000	-0.658999  
450.500000	-0.352287  
451.000000	-0.049719  
451.500000	0.120401   
452.000000	0.008242   
452.500000	-0.148075  
453.000000	-0.169318  
453.500000	-0.000818  
454.000000	0.127803   
454.500000	-0.015856  
455.000000	-0.290886  
455.500000	-0.524446  
456.000000	-0.440719  
456.500000	-0.219477  
457.000000	-0.068409  
457.500000	-0.049356  
458.000000	-0.096378  
458.500000	-0.030742  
459.000000	0.027174   
459.500000	0.033643   
460.000000	-0.014310  
460.500000	-0.037628  
461.000000	-0.050742  
461.500000	-0.103439  
462.000000	-0.102674  
462.500000	-0.032287  
463.000000	0.067174   
463.500000	0.089765   
464.000000	0.098219   
464.500000	0.121356   
465.000000	0.092901   
465.500000	0.056484   
466.000000	0.112037   
466.500000	0.175856   
467.000000	0.120015   
467.500000	0.011893   
468.000000	0.077621   
468.500000	0.173803   
469.000000	0.069583   
469.500000	-0.128568  
470.000000	-0.180174  
470.500000	0.003962   
471.000000	0.115825   
471.500000	0.126053   
472.000000	0.149310   
472.500000	0.198969   
473.000000	0.099189   
473.500000	-0.161598  
474.000000	-0.372378  
474.500000	-0.381121  
475.000000	-0.190454  
475.500000	-0.027143  
476.000000	0.157068   
476.500000	0.153901   
477.000000	0.062681   
477.500000	-0.095416  
478.000000	-0.095484  
478.500000	-0.103962  
479.000000	-0.080734  
479.500000	0.020795   
480.000000	0.186560   
480.500000	0.368363   
481.000000	0.332909   
481.500000	0.261818   
482.000000	0.047659   
482.500000	-0.027803  
483.000000	-0.021181  
483.500000	0.048151   
484.000000	-0.026098  
484.500000	-0.097628  
485.000000	-0.015416  
485.500000	0.128734   
486.000000	0.135878   
486.500000	0.090946   
487.000000	0.132553   
487.500000	0.222522   
488.000000	0.133257   
488.500000	-0.057219  
489.000000	-0.096590  
489.500000	-0.014568  
490.000000	0.111121   
490.500000	0.182022   
491.000000	0.291901   
491.500000	0.344030   
492.000000	0.325924   
492.500000	0.146356   
493.000000	-0.006674  
493.500000	-0.079340  
494.000000	0.055280   
494.500000	0.282537   
495.000000	0.455219   
495.500000	0.392590   
496.000000	0.275030   
496.500000	0.176545   
497.000000	0.268840   
497.500000	0.371962   
498.000000	0.388522   
498.500000	0.273128   
499.000000	0.297681   
499.500000	0.496136   
500.000000	0.700333   
500.500000	0.751734   
501.000000	0.721053   
501.500000	0.728818   
502.000000	0.741386   
502.500000	0.820878   
503.000000	0.882318   
503.500000	0.939863   
504.000000	0.947386   
504.500000	0.947916   
505.000000	1.066583   
505.500000	1.244068   
506.000000	1.413962   
506.500000	1.544765   
507.000000	1.691992   
507.500000	1.807401   
508.000000	1.971219   
508.500000	2.063037   
509.000000	2.063878   
509.500000	2.051810   
510.000000	2.105871   
510.500000	2.270856   
511.000000	2.397287   
511.500000	2.454060   
512.000000	2.472212   
512.500000	2.548128   
513.000000	2.597530   
513.500000	2.634045   
514.000000	2.726750   
514.500000	2.854719   
515.000000	3.073090   
515.500000	3.147234   
516.000000	3.125848   
516.500000	2.906431   
517.000000	2.822446   
517.500000	2.864401   
518.000000	3.084939   
518.500000	3.157030   
519.000000	3.157833   
519.500000	3.085477   
520.000000	3.194303   
520.500000	3.315295   
521.000000	3.408128   
521.500000	3.348469   
522.000000	3.323416   
522.500000	3.217454   
523.000000	3.163151   
523.500000	3.186151   
524.000000	3.389727   
524.500000	3.724363   
525.000000	4.011530   
525.500000	4.130522   
526.000000	4.050954   
526.500000	4.081795   
527.000000	4.253651   
527.500000	4.616030   
528.000000	4.674780   
528.500000	4.804477   
529.000000	5.032803   
529.500000	5.480674   
530.000000	5.640462   
530.500000	5.977749   
531.000000	6.049613   
531.500000	6.057439   
532.000000	5.607659   
532.500000	5.702000   
533.000000	6.093212   
533.500000	6.723401   
534.000000	6.853522   
534.500000	7.038795   
535.000000	7.293060   
535.500000	7.846272   
536.000000	8.434772   
536.500000	8.975143   
537.000000	9.455416   
537.500000	10.035712  
538.000000	10.593106  
538.500000	10.891227  
539.000000	11.137439  
539.500000	11.703250  
540.000000	12.496598  
540.500000	12.965121  
541.000000	13.269098  
541.500000	13.675022  
542.000000	14.365060  
542.500000	14.540431  
543.000000	14.287340  
543.500000	13.678636  
544.000000	13.131977  
544.500000	12.370659  
545.000000	11.560090  
545.500000	10.609371  
546.000000	9.685325   
546.500000	9.025250   
547.000000	8.656787   
547.500000	8.495121   
548.000000	8.177159   
548.500000	7.903393   
549.000000	7.456810   
549.500000	7.010219   
550.000000	6.342916   
550.500000	5.683477   
551.000000	5.108257   
551.500000	4.761931   
552.000000	4.614454   
552.500000	4.309257   
553.000000	3.920712   
553.500000	3.433742   
554.000000	3.257674   
554.500000	3.123643   
555.000000	3.237689   
555.500000	3.333848   
556.000000	3.353045   
556.500000	3.187242   
557.000000	3.103181   
557.500000	3.170795   
558.000000	3.256583   
558.500000	3.217742   
559.000000	3.136909   
559.500000	3.108265   
560.000000	3.168522   
560.500000	3.125477   
561.000000	3.053606   
561.500000	2.937363   
562.000000	2.917560   
562.500000	2.993886   
563.000000	3.092196   
563.500000	3.143113   
564.000000	3.101712   
564.500000	3.103674   
565.000000	3.110272   
565.500000	3.138242   
566.000000	3.100856   
566.500000	3.079522   
567.000000	3.081765   
567.500000	3.043931   
568.000000	3.087969   
568.500000	3.186598   
569.000000	3.255128   
569.500000	3.193106   
570.000000	3.048590   
570.500000	2.944219   
571.000000	3.021901   
571.500000	3.227553   
572.000000	3.357272   
572.500000	3.542196   
573.000000	3.681227   
573.500000	3.804712   
574.000000	3.599598   
574.500000	3.367507   
575.000000	3.198227   
575.500000	3.353803   
576.000000	3.408977   
576.500000	3.404734   
577.000000	3.238492   
577.500000	3.170833   
578.000000	3.195946   
578.500000	3.288068   
579.000000	3.372674   
579.500000	3.389666   
580.000000	3.499931   
580.500000	3.484007   
581.000000	3.456242   
581.500000	3.436015   
582.000000	3.606825   
582.500000	3.753719   
583.000000	3.789962   
583.500000	3.739636   
584.000000	3.703500   
584.500000	3.855492   
585.000000	3.845159   
585.500000	3.830878   
586.000000	3.757477   
586.500000	3.818500   
587.000000	3.743219   
587.500000	3.583560   
588.000000	3.560750   
588.500000	3.745939   
589.000000	3.988166   
589.500000	4.052803   
590.000000	4.238454   
590.500000	4.210469   
591.000000	4.103037   
591.500000	3.904227   
592.000000	4.071234   
592.500000	4.317257   
593.000000	4.612909   
593.500000	4.743333   
594.000000	4.891159   
594.500000	5.042553   
595.000000	5.098628   
595.500000	5.128613   
596.000000	5.094030   
596.500000	5.351598   
597.000000	5.658825   
597.500000	6.054204   
598.000000	6.043909   
598.500000	6.034628   
599.000000	5.858053   
599.500000	5.850969   
600.000000	5.818340   
600.500000	6.012340   
601.000000	6.147128   
601.500000	6.225666   
602.000000	6.430424   
602.500000	6.830151   
603.000000	7.273204   
603.500000	7.310893   
604.000000	7.346424   
604.500000	7.553560   
605.000000	8.093431   
605.500000	8.304977   
606.000000	8.461053   
606.500000	8.433098   
607.000000	8.835598   
607.500000	9.303727   
608.000000	9.985878   
608.500000	10.160204  
609.000000	10.125863  
609.500000	9.921227   
610.000000	10.102954  
610.500000	10.691477  
611.000000	11.079348  
611.500000	11.221121  
612.000000	11.167621  
612.500000	11.871000  
613.000000	12.923984  
613.500000	14.006303  
614.000000	14.301545  
614.500000	14.154401  
615.000000	14.250856  
615.500000	14.871704  
616.000000	15.758363  
616.500000	16.395318  
617.000000	17.052181  
617.500000	17.739636  
618.000000	18.499363  
618.500000	18.933310  
619.000000	19.366750  
619.500000	20.038901  
620.000000	20.929553  
620.500000	21.787992  
621.000000	22.430757  
621.500000	23.126871  
622.000000	24.086553  
622.500000	25.153356  
623.000000	25.802818  
623.500000	26.147818  
624.000000	26.686878  
624.500000	27.720825  
625.000000	29.265681  
625.500000	30.833310  
626.000000	32.058083  
626.500000	33.101901  
627.000000	34.025719  
627.500000	35.150106  
628.000000	35.885924  
628.500000	37.151477  
629.000000	38.266598  
629.500000	39.825583  
630.000000	40.653106  
630.500000	42.060015  
631.000000	43.480575  
631.500000	45.609553  
632.000000	47.041636  
632.500000	48.443727  
633.000000	49.792015  
633.500000	51.630871  
634.000000	53.448893  
634.500000	54.748818  
635.000000	55.949606  
635.500000	57.658833  
636.000000	60.010795  
636.500000	61.424303  
637.000000	62.759765  
637.500000	64.220310  
638.000000	66.642772  
638.500000	68.416840  
639.000000	69.754234  
639.500000	71.012750  
640.000000	73.221878  
640.500000	75.430371  
641.000000	77.700954  
641.500000	79.911727  
642.000000	81.613757  
642.500000	82.370916  
643.000000	82.571363  
643.500000	84.003727  
644.000000	86.291560  
644.500000	88.842159  
645.000000	90.565037  
645.500000	92.085409  
646.000000	93.780659  
646.500000	95.930522  
647.000000	98.197143  
647.500000	100.186287 
648.000000	101.478416 
648.500000	102.191901 
649.000000	103.922356 
649.500000	106.423159 
650.000000	109.323901 
650.500000	109.941068 
651.000000	109.328878 
651.500000	109.729060 
652.000000	113.020871 
652.500000	116.220803 
653.000000	117.905136 
653.500000	118.245500 
654.000000	119.668424 
654.500000	122.080113 
655.000000	124.859159 
655.500000	126.810666 
656.000000	127.996090 
656.500000	127.723651 
657.000000	127.741030 
657.500000	128.604522 
658.000000	131.366136 
658.500000	133.952280 
659.000000	135.696280 
659.500000	136.136681 
660.000000	136.632712 
660.500000	137.539878 
661.000000	138.733371 
661.500000	139.739174 
662.000000	140.912439 
662.500000	141.131515 
663.000000	140.972265 
663.500000	140.651522 
664.000000	142.369340 
664.500000	143.829530 
665.000000	144.446515 
665.500000	143.298431 
666.000000	142.396636 
666.500000	142.538984 
667.000000	143.986000 
667.500000	144.571106 
668.000000	143.326833 
668.500000	140.855340 
669.000000	139.735886 
669.500000	140.660931 
670.000000	142.130068 
670.500000	142.599916 
671.000000	143.265553 
671.500000	143.836507 
672.000000	143.275515 
672.500000	140.622719 
673.000000	137.223856 
673.500000	134.861772 
674.000000	134.355848 
674.500000	133.183431 
675.000000	131.911560 
675.500000	131.385924 
676.000000	132.672757 
676.500000	132.417734 
677.000000	130.320265 
677.500000	127.061507 
678.000000	125.478742 
678.500000	123.525954 
679.000000	121.009939 
679.500000	118.079030 
680.000000	115.913553 
680.500000	114.000469 
681.000000	112.587924 
681.500000	111.538719 
682.000000	110.684856 
682.500000	109.508765 
683.000000	107.498159 
683.500000	104.438053 
684.000000	101.233401 
684.500000	98.577189  
685.000000	97.063393  
685.500000	94.631196  
686.000000	92.163053  
686.500000	89.532666  
687.000000	87.348659  
687.500000	84.346424  
688.000000	81.446045  
688.500000	79.733363  
689.000000	79.576651  
689.500000	79.363333  
690.000000	77.749681  
690.500000	74.934416  
691.000000	72.142795  
691.500000	69.930015  
692.000000	67.979295  
692.500000	66.092795  
693.000000	64.208446  
693.500000	62.879795  
694.000000	61.678962  
694.500000	60.301583  
695.000000	57.892386  
695.500000	55.289757  
696.000000	53.216560  
696.500000	52.309507  
697.000000	51.546492  
697.500000	50.297492  
698.000000	48.257863  
698.500000	45.519825  
699.000000	43.099181  
699.500000	41.817454  
700.000000	41.423340  
700.500000	40.708833  
701.000000	39.450007  
701.500000	37.970106  
702.000000	36.745818  
702.500000	35.583742  
703.000000	34.852181  
703.500000	34.367356  
704.000000	33.484356  
704.500000	32.242113  
705.000000	31.141818  
705.500000	30.698348  
706.000000	30.007628  
706.500000	28.940840  
707.000000	27.837333  
707.500000	27.384219  
708.000000	27.246977  
708.500000	26.654446  
709.000000	25.189431  
709.500000	23.676689  
710.000000	22.879606  
710.500000	22.643681  
711.000000	22.270704  
711.500000	21.548750  
712.000000	21.079015  
712.500000	21.031424  
713.000000	20.858159  
713.500000	20.223674  
714.000000	19.522060  
714.500000	19.162401  
715.000000	18.831871  
715.500000	18.106840  
716.000000	17.016666  
716.500000	16.429643  
717.000000	16.262454  
717.500000	16.477121  
718.000000	16.215151  
718.500000	15.722166  
719.000000	14.994492  
719.500000	14.473689  
720.000000	13.773651  
720.500000	13.672598  
721.000000	13.685537  
721.500000	13.634333  
722.000000	12.810727  
722.500000	12.127901  
723.000000	11.970189  
723.500000	12.281227  
724.000000	12.181219  
724.500000	11.826689  
725.000000	11.428651  
725.500000	10.877090  
726.000000	10.153704  
726.500000	9.551128   
727.000000	9.343378   
727.500000	9.481886   
728.000000	9.342522   
728.500000	8.985227   
729.000000	8.573242   
729.500000	8.556287   
730.000000	8.608795   
730.500000	8.691045   
731.000000	8.584946   
731.500000	8.612515   
732.000000	8.377606   
732.500000	8.147795   
733.000000	7.894431   
733.500000	7.824598   
734.000000	7.767780   
734.500000	7.646962   
735.000000	7.581560   
735.500000	7.509477   
736.000000	7.285757   
736.500000	6.801803   
737.000000	6.680303   
737.500000	6.893954   
738.000000	6.990356   
738.500000	6.513765   
739.000000	5.986280   
739.500000	6.015621   
740.000000	6.360787   
740.500000	6.470166   
741.000000	6.258356   
741.500000	6.037280   
742.000000	5.910651   
742.500000	5.793500   
743.000000	5.684674   
743.500000	5.644189   
744.000000	5.679378   
744.500000	5.663871   
745.000000	5.498621   
745.500000	5.279666   
746.000000	5.189636   
746.500000	5.230704   
747.000000	5.242378   
747.500000	5.120007   
748.000000	4.837568   
748.500000	4.679098   
749.000000	4.626704   
749.500000	4.690560   
750.000000	4.683750   
750.500000	4.784886   
751.000000	4.713734   
751.500000	4.517871   
752.000000	4.124810   
752.500000	3.958462   
753.000000	4.117537   
753.500000	4.529060   
754.000000	4.792007   
754.500000	4.698765   
755.000000	4.276484   
755.500000	3.824159   
756.000000	3.744348   
756.500000	3.745121   
757.000000	3.721696   
757.500000	3.559159   
758.000000	3.689393   
758.500000	3.985348   
759.000000	4.214303   
759.500000	3.988030   
760.000000	3.690946   
760.500000	3.600181   
761.000000	3.651068   
761.500000	3.702242   
762.000000	3.867636   
762.500000	4.156621   
763.000000	4.320916   
763.500000	4.220621   
764.000000	3.954742   
764.500000	3.692954   
765.000000	3.500462   
765.500000	3.323545   
766.000000	3.255643   
766.500000	3.370946   
767.000000	3.462825   
767.500000	3.452825   
768.000000	3.363674   
768.500000	3.294136   
769.000000	3.277196   
769.500000	3.262204   
770.000000	3.260522   
770.500000	3.184757   
771.000000	2.991219   
771.500000	2.756416   
772.000000	2.770522   
772.500000	2.964371   
773.000000	3.153022   
773.500000	3.230492   
774.000000	3.210090   
774.500000	3.115484   
775.000000	3.008386   
775.500000	2.988265   
776.000000	3.040431   
776.500000	3.089689   
777.000000	3.126878   
777.500000	3.128871   
778.000000	3.046212   
778.500000	2.830803   
779.000000	2.677560   
779.500000	2.716765   
780.000000	2.877560   
780.500000	2.841507   
781.000000	2.620492   
781.500000	2.468893   
782.000000	2.507280   
782.500000	2.613666   
783.000000	2.672553   
783.500000	2.727893   
784.000000	2.750015   
784.500000	2.753265   
785.000000	2.726265   
785.500000	2.817007   
786.000000	2.806303   
786.500000	2.634772   
787.000000	2.379477   
787.500000	2.329977   
788.000000	2.556969   
788.500000	2.758143   
789.000000	2.670848   
789.500000	2.320689   
790.000000	2.069977   
790.500000	2.056136   
791.000000	2.261818   
791.500000	2.406598   
792.000000	2.512704   
792.500000	2.545825   
793.000000	2.439174   
793.500000	2.309234   
794.000000	2.262371   
794.500000	2.321348   
795.000000	2.406742   
795.500000	2.438568   
796.000000	2.396696   
796.500000	2.463159   
797.000000	2.520219   
797.500000	2.444242   
798.000000	2.199469   
798.500000	2.053409   
799.000000	2.060280   
799.500000	2.114727   
800.000000	1.886704   
800.500000	1.660242   
801.000000	1.645484   
801.500000	1.980954   
802.000000	2.202424   
802.500000	2.203674   
803.000000	1.998750   
803.500000	1.943939   
804.000000	1.825363   
804.500000	1.781386   
805.000000	1.728787   
805.500000	1.838477   
806.000000	1.940651   
806.500000	2.027204   
807.000000	2.007598   
807.500000	1.856598   
808.000000	1.792886   
808.500000	1.680280   
809.000000	1.587439   
809.500000	1.324977   
810.000000	1.548000   
810.500000	1.666250   
811.000000	1.576893   
811.500000	1.175310   
812.000000	1.187803   
812.500000	1.441000   
813.000000	1.764356   
813.500000	1.788651   
814.000000	1.696356   
814.500000	1.579772   
815.000000	1.623696   
815.500000	1.729143   
816.000000	1.653272   
816.500000	1.519477   
817.000000	1.523590   
817.500000	1.659015   
818.000000	1.700628   
818.500000	1.661295   
819.000000	1.483378   
819.500000	1.361325   
820.000000	1.383643   
820.500000	1.691696   
821.000000	1.969765   
821.500000	2.063606   
822.000000	2.088833   
822.500000	2.289212   
823.000000	2.453757   
823.500000	2.472106   
824.000000	2.363825   
824.500000	2.296598   
825.000000	2.302689   
825.500000	2.299507   
826.000000	2.337924   
826.500000	2.350818   
827.000000	2.285939   
827.500000	2.002242   
828.000000	1.775303   
828.500000	1.776386   
829.000000	1.867946   
829.500000	1.704401   
830.000000	1.330674   
830.500000	1.096454   
831.000000	1.140484   
831.500000	1.215962   
832.000000	1.126075   
832.500000	1.087651   
833.000000	1.148090   
833.500000	1.201030   
834.000000	1.105469   
834.500000	0.966136   
835.000000	0.871409   
835.500000	0.883575   
836.000000	0.913613   
836.500000	0.964075   
837.000000	1.004568   
837.500000	1.033469   
838.000000	1.074545   
838.500000	1.086750   
839.000000	1.063234   
839.500000	0.945833   
840.000000	0.712295   
840.500000	0.556560   
841.000000	0.608962   
841.500000	0.754916   
842.000000	0.757583   
842.500000	0.698159   
843.000000	0.683045   
843.500000	0.740424   
844.000000	0.712356   
844.500000	0.633045   
845.000000	0.452886   
845.500000	0.294522   
846.000000	0.273159   
846.500000	0.394181   
847.000000	0.448803   
847.500000	0.326083   
848.000000	0.206128   
848.500000	0.210681   
849.000000	0.283053   
849.500000	0.306522   
850.000000	0.289469   
850.500000	0.211765   
851.000000	0.124575   
851.500000	0.081166   
852.000000	0.090303   
852.500000	0.146909   
853.000000	0.175742   
853.500000	0.195590   
854.000000	0.193772   
854.500000	0.086090   
855.000000	-0.017143  
855.500000	-0.040446  
856.000000	0.086219   
856.500000	0.156477   
857.000000	0.182916   
857.500000	0.117174   
858.000000	0.186984   
858.500000	0.258795   
859.000000	0.227234   
859.500000	0.012954   
860.000000	-0.163106  
860.500000	-0.121946  
861.000000	0.025022   
861.500000	0.051666   
862.000000	-0.027772  
862.500000	-0.030492  
863.000000	0.006174   
863.500000	0.003113   
864.000000	-0.058037  
864.500000	-0.069363  
865.000000	-0.091272  
865.500000	-0.198401  
866.000000	-0.333992  
866.500000	-0.284962  
867.000000	-0.185522  
867.500000	-0.135924  
868.000000	-0.138621  
868.500000	-0.105765  
869.000000	-0.062742  
869.500000	-0.077863  
870.000000	-0.068454  
870.500000	-0.047287  
871.000000	-0.035416  
871.500000	-0.079318  
872.000000	-0.119537  
872.500000	-0.045568  
873.000000	0.080212   
873.500000	0.198916   
874.000000	0.135901   
874.500000	0.102022   
875.000000	0.076583   
875.500000	0.141810   
876.000000	0.105590   
876.500000	0.124106   
877.000000	0.128424   
877.500000	0.111825   
878.000000	0.031401   
878.500000	0.012666   
879.000000	-0.044325  
879.500000	-0.123446  
880.000000	-0.117500  
880.500000	-0.049651  
881.000000	-0.061007  
881.500000	-0.157007  
882.000000	-0.206106  
882.500000	-0.159621  
883.000000	-0.056946  
883.500000	0.027234   
884.000000	0.062946   
884.500000	0.014340   
885.000000	-0.063272  
885.500000	-0.042909  
886.000000	-0.010181  
886.500000	-0.026606  
887.000000	-0.070378  
887.500000	-0.081734  
888.000000	-0.016484  
888.500000	-0.000090  
889.000000	0.015515   
889.500000	-0.045500  
890.000000	0.009636   
890.500000	0.040924   
891.000000	0.120030   
891.500000	0.072234   
892.000000	0.059090   
892.500000	-0.032530  
893.000000	-0.096946  
893.500000	-0.226833  
894.000000	-0.286409  
894.500000	-0.288939  
895.000000	-0.165681  
895.500000	-0.037174  
896.000000	0.086545   
896.500000	0.035151   
897.000000	-0.016212  
897.500000	-0.071454  
898.000000	-0.040583  
898.500000	-0.069257  
899.000000	-0.085189  
899.500000	-0.109053  
900.000000	-0.061613  
900.500000	-0.065999  

