PE FL                   SPECTRUM    ASCII       PEDS        1.60        
  -1
S12R#32.SP
24/04/15
16:23:53.00
24/04/15
16:25:18.00
Jan

900.500000
1









LS55
405.00
5.00
5.00
SCAN
1
20
100
100
0
400
0
1
0
1
5
ON
900 405 
1 0 0
#HDR
-1
-1
#GR
NM

0.00002384185791015625
0.0
450.000000
0.500000
902
8
174.922984
-0.447954
#DATA
450.000000	-0.034000  
450.500000	0.073848   
451.000000	0.040416   
451.500000	-0.137553  
452.000000	-0.295159  
452.500000	-0.341272  
453.000000	-0.288053  
453.500000	-0.199356  
454.000000	0.028787   
454.500000	0.170734   
455.000000	0.073803   
455.500000	-0.139454  
456.000000	-0.111636  
456.500000	0.053795   
457.000000	0.062666   
457.500000	-0.011522  
458.000000	-0.005780  
458.500000	0.118545   
459.000000	0.105931   
459.500000	0.104833   
460.000000	0.057765   
460.500000	0.035075   
461.000000	-0.062984  
461.500000	-0.154333  
462.000000	-0.070234  
462.500000	0.074204   
463.000000	0.184636   
463.500000	0.076462   
464.000000	-0.070772  
464.500000	-0.097492  
465.000000	-0.056386  
465.500000	-0.060363  
466.000000	-0.103310  
466.500000	0.030689   
467.000000	0.094189   
467.500000	-0.031628  
468.000000	-0.331242  
468.500000	-0.447954  
469.000000	-0.409992  
469.500000	-0.357901  
470.000000	-0.256598  
470.500000	-0.087090  
471.000000	0.080363   
471.500000	0.051340   
472.000000	-0.116166  
472.500000	-0.237492  
473.000000	-0.133583  
473.500000	0.031909   
474.000000	0.138863   
474.500000	0.034590   
475.000000	-0.055734  
475.500000	-0.036060  
476.000000	0.116606   
476.500000	0.143810   
477.000000	0.092772   
477.500000	-0.034772  
478.000000	-0.152068  
478.500000	-0.191075  
479.000000	-0.144196  
479.500000	-0.007840  
480.000000	0.060878   
480.500000	0.090939   
481.000000	0.067719   
481.500000	0.085613   
482.000000	0.030712   
482.500000	-0.165803  
483.000000	-0.279068  
483.500000	-0.190507  
484.000000	0.064310   
484.500000	0.155545   
485.000000	0.043560   
485.500000	-0.196000  
486.000000	-0.228575  
486.500000	-0.213393  
487.000000	-0.234750  
487.500000	-0.290560  
488.000000	-0.210734  
488.500000	0.023181   
489.000000	0.160613   
489.500000	0.132772   
490.000000	0.010469   
490.500000	0.047606   
491.000000	0.034977   
491.500000	0.048234   
492.000000	-0.003878  
492.500000	0.054924   
493.000000	0.130151   
493.500000	0.157393   
494.000000	0.181015   
494.500000	0.255795   
495.000000	0.399992   
495.500000	0.413848   
496.000000	0.291803   
496.500000	0.215863   
497.000000	0.320863   
497.500000	0.489606   
498.000000	0.445909   
498.500000	0.395484   
499.000000	0.454053   
499.500000	0.733416   
500.000000	0.812977   
500.500000	0.692196   
501.000000	0.519666   
501.500000	0.563121   
502.000000	0.682113   
502.500000	0.815757   
503.000000	0.884681   
503.500000	1.035636   
504.000000	1.189704   
504.500000	1.409712   
505.000000	1.491333   
505.500000	1.581848   
506.000000	1.607439   
506.500000	1.862272   
507.000000	1.959477   
507.500000	1.926689   
508.000000	1.608560   
508.500000	1.440242   
509.000000	1.407878   
509.500000	1.625628   
510.000000	1.893939   
510.500000	2.291348   
511.000000	2.615856   
511.500000	2.815219   
512.000000	2.829628   
512.500000	2.744916   
513.000000	2.721265   
513.500000	2.808977   
514.000000	2.915621   
514.500000	2.959416   
515.000000	2.925734   
515.500000	2.858969   
516.000000	2.828265   
516.500000	2.918083   
517.000000	3.006628   
517.500000	3.028219   
518.000000	2.949651   
518.500000	2.975901   
519.000000	3.033022   
519.500000	3.164363   
520.000000	3.231386   
520.500000	3.293303   
521.000000	3.268151   
521.500000	3.249272   
522.000000	3.269696   
522.500000	3.497280   
523.000000	3.665992   
523.500000	3.703530   
524.000000	3.667121   
524.500000	3.687022   
525.000000	3.786136   
525.500000	3.812977   
526.000000	3.860749   
526.500000	4.016803   
527.000000	4.272863   
527.500000	4.399106   
528.000000	4.632219   
528.500000	4.775272   
529.000000	5.059242   
529.500000	5.355696   
530.000000	5.883484   
530.500000	6.073250   
531.000000	6.121666   
531.500000	5.831250   
532.000000	5.782242   
532.500000	5.729840   
533.000000	6.029977   
533.500000	6.513318   
534.000000	6.985780   
534.500000	7.334053   
535.000000	7.584272   
535.500000	7.998818   
536.000000	8.109393   
536.500000	8.291954   
537.000000	8.469916   
537.500000	9.199515   
538.000000	10.061356  
538.500000	11.209909  
539.000000	11.970151  
539.500000	12.535757  
540.000000	12.759878  
540.500000	13.076212  
541.000000	13.555090  
541.500000	13.940136  
542.000000	14.025060  
542.500000	13.802931  
543.000000	13.580886  
543.500000	13.231484  
544.000000	12.497530  
544.500000	11.715992  
545.000000	11.389401  
545.500000	11.474992  
546.000000	11.078674  
546.500000	10.410098  
547.000000	9.676757   
547.500000	9.315871   
548.000000	8.688015   
548.500000	7.787871   
549.000000	6.802863   
549.500000	6.256575   
550.000000	6.032356   
550.500000	5.729696   
551.000000	5.012007   
551.500000	4.260727   
552.000000	3.831909   
552.500000	3.769583   
553.000000	3.734734   
553.500000	3.654484   
554.000000	3.548386   
554.500000	3.441189   
555.000000	3.269068   
555.500000	3.153250   
556.000000	3.133651   
556.500000	3.231416   
557.000000	3.298727   
557.500000	3.279727   
558.000000	3.173318   
558.500000	3.083780   
559.000000	3.193015   
559.500000	3.379613   
560.000000	3.392833   
560.500000	3.118227   
561.000000	2.842909   
561.500000	2.837174   
562.000000	2.886250   
562.500000	2.966704   
563.000000	3.042901   
563.500000	3.254333   
564.000000	3.203363   
564.500000	3.169265   
565.000000	3.143234   
565.500000	3.297795   
566.000000	3.218878   
566.500000	3.163901   
567.000000	3.076863   
567.500000	3.079083   
568.000000	3.037553   
568.500000	3.196590   
569.000000	3.401575   
569.500000	3.494863   
570.000000	3.401681   
570.500000	3.372431   
571.000000	3.388439   
571.500000	3.335484   
572.000000	3.112886   
572.500000	2.872287   
573.000000	2.903719   
573.500000	3.162568   
574.000000	3.335393   
574.500000	3.163340   
575.000000	3.025507   
575.500000	3.109924   
576.000000	3.332340   
576.500000	3.327515   
577.000000	3.251022   
577.500000	3.284037   
578.000000	3.443757   
578.500000	3.605681   
579.000000	3.608689   
579.500000	3.498969   
580.000000	3.522901   
580.500000	3.654007   
581.000000	3.616151   
581.500000	3.401659   
582.000000	3.379734   
582.500000	3.624484   
583.000000	3.686840   
583.500000	3.470469   
584.000000	3.213249   
584.500000	3.203833   
585.000000	3.439924   
585.500000	3.737757   
586.000000	3.839840   
586.500000	3.555719   
587.000000	3.275765   
587.500000	3.177356   
588.000000	3.459575   
588.500000	3.659303   
589.000000	3.797939   
589.500000	3.765924   
590.000000	3.802053   
590.500000	4.077045   
591.000000	4.529045   
591.500000	4.731992   
592.000000	4.514886   
592.500000	4.129795   
593.000000	3.833159   
593.500000	3.800916   
594.000000	3.957946   
594.500000	4.238772   
595.000000	4.488174   
595.500000	4.604560   
596.000000	4.631992   
596.500000	4.618015   
597.000000	4.766530   
597.500000	4.967840   
598.000000	5.193590   
598.500000	5.299833   
599.000000	5.375530   
599.500000	5.365871   
600.000000	5.145575   
600.500000	5.113742   
601.000000	5.567068   
601.500000	6.165015   
602.000000	6.247643   
602.500000	6.142090   
603.000000	6.407113   
603.500000	6.954681   
604.000000	7.006227   
604.500000	6.677106   
605.000000	6.585848   
605.500000	6.972689   
606.000000	7.390522   
606.500000	7.614659   
607.000000	7.824537   
607.500000	8.044340   
608.000000	8.086560   
608.500000	7.957909   
609.000000	8.029174   
609.500000	8.380818   
610.000000	9.097037   
610.500000	9.935977   
611.000000	10.668174  
611.500000	11.070477  
612.000000	11.221295  
612.500000	10.974772  
613.000000	10.745159  
613.500000	10.709015  
614.000000	11.043431  
614.500000	11.489280  
615.000000	12.143356  
615.500000	12.864409  
616.000000	13.354704  
616.500000	13.190507  
617.000000	13.149416  
617.500000	13.919848  
618.000000	15.088871  
618.500000	15.890143  
619.000000	16.284575  
619.500000	16.734977  
620.000000	17.596666  
620.500000	18.708106  
621.000000	19.474424  
621.500000	19.979363  
622.000000	20.130969  
622.500000	20.338643  
623.000000	20.605439  
623.500000	21.378946  
624.000000	22.563712  
624.500000	23.742227  
625.000000	24.453287  
625.500000	25.145856  
626.000000	26.115696  
626.500000	27.060893  
627.000000	27.777916  
627.500000	28.700303  
628.000000	30.162893  
628.500000	31.810727  
629.000000	33.022772  
629.500000	33.940409  
630.000000	34.744696  
630.500000	36.170492  
631.000000	37.702378  
631.500000	38.911530  
632.000000	39.781696  
632.500000	40.621030  
633.000000	41.972310  
633.500000	43.547916  
634.000000	45.523848  
634.500000	47.039719  
635.000000	48.798022  
635.500000	50.195477  
636.000000	52.451340  
636.500000	54.209249  
637.000000	56.094530  
637.500000	57.515530  
638.000000	59.423409  
638.500000	61.072939  
639.000000	63.113424  
639.500000	64.868878  
640.000000	66.646727  
640.500000	68.495689  
641.000000	70.679356  
641.500000	72.633249  
642.000000	74.827977  
642.500000	76.552318  
643.000000	78.982848  
643.500000	81.040909  
644.000000	83.386492  
644.500000	84.688825  
645.000000	85.757280  
645.500000	86.646219  
646.000000	89.331007  
646.500000	92.504371  
647.000000	94.952946  
647.500000	96.478946  
648.000000	98.273462  
648.500000	101.211416 
649.000000	104.037340 
649.500000	105.916901 
650.000000	106.852045 
650.500000	108.255651 
651.000000	110.378363 
651.500000	113.510356 
652.000000	116.413424 
652.500000	118.956530 
653.000000	121.282946 
653.500000	123.700356 
654.000000	125.432424 
654.500000	126.289037 
655.000000	127.214340 
655.500000	128.822659 
656.000000	131.382356 
656.500000	133.917613 
657.000000	136.699545 
657.500000	139.446674 
658.000000	141.933696 
658.500000	143.276037 
659.000000	144.078053 
659.500000	145.079310 
660.000000	146.827590 
660.500000	149.183318 
661.000000	151.561598 
661.500000	153.100295 
662.000000	154.000295 
662.500000	154.116939 
663.000000	155.119045 
663.500000	156.540151 
664.000000	158.536325 
664.500000	160.737318 
665.000000	163.523939 
665.500000	164.850196 
666.000000	165.689348 
666.500000	166.478318 
667.000000	167.687333 
667.500000	167.901340 
668.000000	167.023825 
668.500000	167.215856 
669.000000	169.186181 
669.500000	170.892204 
670.000000	170.152651 
670.500000	169.872219 
671.000000	171.149454 
671.500000	174.145068 
672.000000	174.922984 
672.500000	174.193022 
673.000000	173.203590 
673.500000	172.918121 
674.000000	172.113590 
674.500000	170.911969 
675.000000	170.292689 
675.500000	169.781613 
676.000000	169.297977 
676.500000	169.567969 
677.000000	170.018757 
677.500000	170.291636 
678.000000	169.169916 
678.500000	167.482212 
679.000000	164.868053 
679.500000	163.092000 
680.000000	160.879643 
680.500000	159.105909 
681.000000	156.579893 
681.500000	154.878651 
682.000000	153.308606 
682.500000	151.652234 
683.000000	149.262280 
683.500000	147.153409 
684.000000	145.177568 
684.500000	143.147454 
685.000000	140.418424 
685.500000	137.095643 
686.000000	134.582121 
686.500000	133.038257 
687.000000	131.427477 
687.500000	128.572431 
688.000000	125.367030 
688.500000	121.917734 
689.000000	119.320037 
689.500000	117.402946 
690.000000	116.265265 
690.500000	114.115848 
691.000000	110.815598 
691.500000	107.388681 
692.000000	103.876848 
692.500000	100.274810 
693.000000	96.596386  
693.500000	94.486492  
694.000000	93.131401  
694.500000	91.906060  
695.000000	89.390939  
695.500000	86.335022  
696.000000	83.096333  
696.500000	81.066719  
697.000000	79.230068  
697.500000	76.995280  
698.000000	73.859674  
698.500000	71.355431  
699.000000	69.332848  
699.500000	68.044825  
700.000000	66.412121  
700.500000	64.660030  
701.000000	62.694507  
701.500000	60.296810  
702.000000	57.980871  
702.500000	55.922401  
703.000000	54.876568  
703.500000	54.428863  
704.000000	53.437659  
704.500000	51.616598  
705.000000	49.249499  
705.500000	47.775212  
706.000000	46.172500  
706.500000	45.163060  
707.000000	43.520272  
707.500000	42.577742  
708.000000	41.433015  
708.500000	40.503060  
709.000000	38.810553  
709.500000	36.951916  
710.000000	35.344219  
710.500000	34.500500  
711.000000	33.765893  
711.500000	32.810795  
712.000000	32.009446  
712.500000	31.798174  
713.000000	31.582613  
713.500000	31.096659  
714.000000	30.177431  
714.500000	29.420568  
715.000000	28.624484  
715.500000	27.319939  
716.000000	26.131666  
716.500000	25.439765  
717.000000	24.943340  
717.500000	24.147515  
718.000000	23.382348  
718.500000	22.949666  
719.000000	22.558053  
719.500000	21.930893  
720.000000	21.094022  
720.500000	20.516651  
721.000000	19.835098  
721.500000	19.243106  
722.000000	18.582446  
722.500000	18.479325  
723.000000	18.612159  
723.500000	18.383659  
724.000000	17.323909  
724.500000	16.083651  
725.000000	15.394121  
725.500000	15.071287  
726.000000	14.694606  
726.500000	14.528696  
727.000000	14.554704  
727.500000	14.331053  
728.000000	13.698825  
728.500000	13.209681  
729.000000	12.793893  
729.500000	12.421575  
730.000000	11.908090  
730.500000	11.733030  
731.000000	11.847212  
731.500000	11.676530  
732.000000	11.158568  
732.500000	10.762848  
733.000000	10.747712  
733.500000	10.872750  
734.000000	10.961090  
734.500000	10.845325  
735.000000	10.504136  
735.500000	9.825787   
736.000000	8.981227   
736.500000	8.507075   
737.000000	8.621340   
737.500000	8.980530   
738.000000	9.032363   
738.500000	8.908393   
739.000000	8.821893   
739.500000	8.911803   
740.000000	8.677106   
740.500000	8.016583   
741.000000	7.361462   
741.500000	7.093090   
742.000000	7.118439   
742.500000	7.317992   
743.000000	7.396931   
743.500000	7.315446   
744.000000	7.186681   
744.500000	7.071166   
745.000000	6.906015   
745.500000	6.850833   
746.000000	6.859075   
746.500000	6.813363   
747.000000	6.508727   
747.500000	6.046977   
748.000000	5.702924   
748.500000	5.550962   
749.000000	5.495492   
749.500000	5.558083   
750.000000	5.641075   
750.500000	5.763272   
751.000000	5.747439   
751.500000	5.676484   
752.000000	5.440522   
752.500000	5.270000   
753.000000	5.205795   
753.500000	5.271545   
754.000000	5.282242   
754.500000	5.144386   
755.000000	5.054053   
755.500000	5.108037   
756.000000	5.137378   
756.500000	4.847340   
757.000000	4.606727   
757.500000	4.605446   
758.000000	4.742303   
758.500000	4.592151   
759.000000	4.215606   
759.500000	4.023446   
760.000000	4.064318   
760.500000	4.216257   
761.000000	4.152568   
761.500000	4.195886   
762.000000	4.364886   
762.500000	4.677348   
763.000000	4.677143   
763.500000	4.576878   
764.000000	4.196416   
764.500000	3.887068   
765.000000	3.633848   
765.500000	3.671287   
766.000000	3.753772   
766.500000	3.857954   
767.000000	3.831204   
767.500000	3.854749   
768.000000	3.758999   
768.500000	3.636416   
769.000000	3.578030   
769.500000	3.613659   
770.000000	3.609689   
770.500000	3.527015   
771.000000	3.370507   
771.500000	3.232007   
772.000000	3.228530   
772.500000	3.264901   
773.000000	3.303280   
773.500000	3.248757   
774.000000	3.163643   
774.500000	3.162477   
775.000000	3.164674   
775.500000	3.162696   
776.000000	3.131734   
776.500000	3.198484   
777.000000	3.278189   
777.500000	3.355848   
778.000000	3.334196   
778.500000	3.121136   
779.000000	2.878053   
779.500000	2.704363   
780.000000	2.767325   
780.500000	2.935977   
781.000000	3.154803   
781.500000	3.247613   
782.000000	3.235803   
782.500000	3.166871   
783.000000	3.136356   
783.500000	3.152128   
784.000000	3.062659   
784.500000	2.992992   
785.000000	3.017318   
785.500000	3.002833   
786.000000	2.783507   
786.500000	2.592083   
787.000000	2.577037   
787.500000	2.623863   
788.000000	2.628227   
788.500000	2.688848   
789.000000	2.832424   
789.500000	2.774962   
790.000000	2.624780   
790.500000	2.404227   
791.000000	2.294560   
791.500000	2.070659   
792.000000	2.104545   
792.500000	2.260742   
793.000000	2.473643   
793.500000	2.391696   
794.000000	2.439219   
794.500000	2.448174   
795.000000	2.426901   
795.500000	2.221121   
796.000000	2.191037   
796.500000	2.280810   
797.000000	2.443901   
797.500000	2.403719   
798.000000	2.361810   
798.500000	2.411825   
799.000000	2.518545   
799.500000	2.507939   
800.000000	2.358515   
800.500000	2.049712   
801.000000	1.723333   
801.500000	1.647893   
802.000000	1.896356   
802.500000	2.170545   
803.000000	2.179037   
803.500000	1.912265   
804.000000	1.725840   
804.500000	1.652287   
805.000000	1.637651   
805.500000	1.653689   
806.000000	1.712931   
806.500000	1.783598   
807.000000	1.803007   
807.500000	1.769128   
808.000000	1.594159   
808.500000	1.505098   
809.000000	1.477803   
809.500000	1.569196   
810.000000	1.664060   
810.500000	1.852083   
811.000000	2.019462   
811.500000	2.191136   
812.000000	2.115575   
812.500000	1.985219   
813.000000	1.793818   
813.500000	1.749772   
814.000000	1.611348   
814.500000	1.452666   
815.000000	1.269045   
815.500000	1.305272   
816.000000	1.371787   
816.500000	1.321015   
817.000000	1.180189   
817.500000	1.143606   
818.000000	1.211984   
818.500000	1.246583   
819.000000	1.380401   
819.500000	1.687045   
820.000000	1.999090   
820.500000	2.034416   
821.000000	2.043886   
821.500000	2.151136   
822.000000	2.429393   
822.500000	2.575037   
823.000000	2.567765   
823.500000	2.460818   
824.000000	2.462363   
824.500000	2.523651   
825.000000	2.510242   
825.500000	2.338969   
826.000000	2.174613   
826.500000	2.076136   
827.000000	2.103106   
827.500000	2.093121   
828.000000	2.035181   
828.500000	1.754121   
829.000000	1.640924   
829.500000	1.660568   
830.000000	1.693265   
830.500000	1.507977   
831.000000	1.344560   
831.500000	1.279636   
832.000000	1.250659   
832.500000	1.155022   
833.000000	1.081159   
833.500000	1.088037   
834.000000	1.056295   
834.500000	0.962545   
835.000000	0.867916   
835.500000	0.902666   
836.000000	1.070924   
836.500000	1.151128   
837.000000	1.102515   
837.500000	1.065606   
838.000000	1.110856   
838.500000	1.094643   
839.000000	0.987666   
839.500000	0.901022   
840.000000	0.864795   
840.500000	0.892053   
841.000000	0.870537   
841.500000	0.920174   
842.000000	0.941537   
842.500000	0.941719   
843.000000	0.765022   
843.500000	0.583621   
844.000000	0.502560   
844.500000	0.584803   
845.000000	0.653878   
845.500000	0.622537   
846.000000	0.595007   
846.500000	0.675386   
847.000000	0.693719   
847.500000	0.534992   
848.000000	0.334219   
848.500000	0.230833   
849.000000	0.268575   
849.500000	0.311977   
850.000000	0.220734   
850.500000	0.059242   
851.000000	0.016712   
851.500000	0.135969   
852.000000	0.216325   
852.500000	0.216393   
853.000000	0.162757   
853.500000	0.212136   
854.000000	0.172219   
854.500000	0.103924   
855.000000	0.041734   
855.500000	0.023757   
856.000000	0.012818   
856.500000	0.042295   
857.000000	0.063454   
857.500000	0.031643   
858.000000	0.010159   
858.500000	0.003553   
859.000000	-0.050151  
859.500000	-0.147143  
860.000000	-0.164272  
860.500000	-0.055946  
861.000000	0.058174   
861.500000	0.046727   
862.000000	-0.038515  
862.500000	-0.094515  
863.000000	-0.045318  
863.500000	0.021250   
864.000000	0.051159   
864.500000	-0.007378  
865.000000	-0.093787  
865.500000	-0.212712  
866.000000	-0.344750  
866.500000	-0.337560  
867.000000	-0.175265  
867.500000	0.046659   
868.000000	0.111719   
868.500000	-0.028795  
869.000000	-0.229954  
869.500000	-0.299537  
870.000000	-0.211030  
870.500000	-0.040765  
871.000000	0.124651   
871.500000	0.151984   
872.000000	0.042113   
872.500000	-0.137803  
873.000000	-0.178068  
873.500000	-0.042946  
874.000000	0.112689   
874.500000	0.189439   
875.000000	0.203431   
875.500000	0.201280   
876.000000	0.119227   
876.500000	0.015856   
877.000000	-0.070621  
877.500000	-0.072098  
878.000000	-0.075424  
878.500000	-0.122515  
879.000000	-0.149075  
879.500000	-0.099204  
880.000000	0.013689   
880.500000	-0.000984  
881.000000	-0.061613  
881.500000	-0.088068  
882.000000	-0.042166  
882.500000	-0.016969  
883.000000	-0.014833  
883.500000	0.004560   
884.000000	0.004030   
884.500000	0.005462   
885.000000	-0.047909  
885.500000	-0.034712  
886.000000	-0.084909  
886.500000	-0.099030  
887.000000	-0.120075  
887.500000	-0.042568  
888.000000	0.018280   
888.500000	0.033916   
889.000000	-0.064204  
889.500000	-0.158651  
890.000000	-0.118030  
890.500000	-0.086363  
891.000000	-0.107181  
891.500000	-0.233090  
892.000000	-0.281204  
892.500000	-0.300651  
893.000000	-0.229439  
893.500000	-0.143803  
894.000000	-0.042939  
894.500000	0.048916   
895.000000	0.117704   
895.500000	0.129590   
896.000000	0.036598   
896.500000	-0.068219  
897.000000	-0.087742  
897.500000	-0.028204  
898.000000	-0.046515  
898.500000	-0.090446  
899.000000	-0.116530  
899.500000	-0.121643  
900.000000	-0.199878  
900.500000	-0.370000  

