PE FL                   SPECTRUM    ASCII       PEDS        1.60        
  -1
S12R#18.SP
24/04/15
16:03:55.00
24/04/15
16:05:20.00
Jan

900.500000
1









LS55
405.00
5.00
5.00
SCAN
1
20
100
100
0
400
0
1
0
1
5
ON
900 405 
1 0 0
#HDR
-1
-1
#GR
NM

0.00002384185791015625
0.0
450.000000
0.500000
902
8
178.231931
-0.543295
#DATA
450.000000	-0.001000  
450.500000	-0.044969  
451.000000	-0.004303  
451.500000	-0.014272  
452.000000	0.034462   
452.500000	-0.005189  
453.000000	0.093924   
453.500000	0.092590   
454.000000	0.083462   
454.500000	-0.180477  
455.000000	-0.309295  
455.500000	-0.350462  
456.000000	-0.281507  
456.500000	-0.309893  
457.000000	-0.325083  
457.500000	-0.214893  
458.000000	-0.172212  
458.500000	-0.284787  
459.000000	-0.389500  
459.500000	-0.340409  
460.000000	-0.210234  
460.500000	-0.152303  
461.000000	-0.072295  
461.500000	-0.084340  
462.000000	-0.121401  
462.500000	-0.267750  
463.000000	-0.369212  
463.500000	-0.478272  
464.000000	-0.543295  
464.500000	-0.317174  
465.000000	-0.020151  
465.500000	0.150992   
466.000000	0.021037   
466.500000	0.018780   
467.000000	0.089181   
467.500000	0.160196   
468.000000	0.059696   
468.500000	-0.002234  
469.000000	0.009856   
469.500000	0.021856   
470.000000	-0.018856  
470.500000	0.023424   
471.000000	0.086454   
471.500000	0.134886   
472.000000	0.056212   
472.500000	0.014871   
473.000000	-0.026871  
473.500000	0.021818   
474.000000	0.181424   
474.500000	0.347363   
475.000000	0.415363   
475.500000	0.318431   
476.000000	0.210378   
476.500000	0.100386   
477.000000	-0.020628  
477.500000	-0.178856  
478.000000	-0.255136  
478.500000	-0.230719  
479.000000	-0.195257  
479.500000	-0.176901  
480.000000	-0.191863  
480.500000	-0.128007  
481.000000	-0.036931  
481.500000	0.037886   
482.000000	-0.000886  
482.500000	0.025969   
483.000000	-0.062583  
483.500000	-0.186931  
484.000000	-0.419590  
484.500000	-0.343325  
485.000000	-0.142325  
485.500000	0.093969   
486.000000	-0.041287  
486.500000	-0.217689  
487.000000	-0.309227  
487.500000	-0.167431  
488.000000	-0.133530  
488.500000	-0.163333  
489.000000	-0.177840  
489.500000	-0.001727  
490.000000	0.190280   
490.500000	0.187969   
491.000000	0.008954   
491.500000	-0.061174  
492.000000	0.101719   
492.500000	0.203310   
493.000000	0.125325   
493.500000	0.083174   
494.000000	0.183333   
494.500000	0.202681   
495.000000	0.150931   
495.500000	0.173098   
496.000000	0.337772   
496.500000	0.309659   
497.000000	0.246833   
497.500000	0.265537   
498.000000	0.407840   
498.500000	0.504227   
499.000000	0.596242   
499.500000	0.703348   
500.000000	0.805560   
500.500000	0.830196   
501.000000	0.838818   
501.500000	0.893734   
502.000000	0.965719   
502.500000	0.909265   
503.000000	0.910901   
503.500000	0.916719   
504.000000	1.118878   
504.500000	1.120871   
505.000000	1.090537   
505.500000	1.161121   
506.000000	1.455234   
506.500000	1.747409   
507.000000	1.881068   
507.500000	1.889818   
508.000000	1.836446   
508.500000	1.823643   
509.000000	1.831484   
509.500000	2.120492   
510.000000	2.428643   
510.500000	2.628303   
511.000000	2.642106   
511.500000	2.720757   
512.000000	2.866325   
512.500000	2.991257   
513.000000	2.896446   
513.500000	2.834371   
514.000000	2.886848   
514.500000	2.911674   
515.000000	2.915818   
515.500000	2.855416   
516.000000	2.947113   
516.500000	3.237795   
517.000000	3.607143   
517.500000	3.735659   
518.000000	3.602446   
518.500000	3.219174   
519.000000	2.985257   
519.500000	3.067795   
520.000000	3.286931   
520.500000	3.440424   
521.000000	3.389250   
521.500000	3.264166   
522.000000	3.205121   
522.500000	3.154492   
523.000000	3.165015   
523.500000	3.243871   
524.000000	3.296212   
524.500000	3.426151   
525.000000	3.667075   
525.500000	3.828492   
526.000000	3.857613   
526.500000	3.977053   
527.000000	4.083575   
527.500000	4.113303   
528.000000	4.039977   
528.500000	4.405212   
529.000000	4.901121   
529.500000	5.207999   
530.000000	5.085030   
530.500000	5.114810   
531.000000	5.348522   
531.500000	5.819803   
532.000000	6.330825   
532.500000	6.758545   
533.000000	7.017856   
533.500000	7.078636   
534.000000	7.306196   
534.500000	7.486242   
535.000000	7.801090   
535.500000	8.018121   
536.000000	8.698446   
536.500000	9.194113   
537.000000	9.487856   
537.500000	9.505924   
538.000000	10.140098  
538.500000	11.087734  
539.000000	11.970340  
539.500000	12.473439  
540.000000	12.719431  
540.500000	13.161598  
541.000000	13.489507  
541.500000	13.871621  
542.000000	13.505234  
542.500000	13.036022  
543.000000	12.658477  
543.500000	12.979500  
544.000000	12.842272  
544.500000	12.335628  
545.000000	11.568166  
545.500000	11.209787  
546.000000	10.927742  
546.500000	10.517340  
547.000000	9.953734   
547.500000	9.244613   
548.000000	8.453310   
548.500000	7.564750   
549.000000	6.857386   
549.500000	6.077159   
550.000000	5.656227   
550.500000	5.307484   
551.000000	5.215924   
551.500000	4.873393   
552.000000	4.568689   
552.500000	4.145689   
553.000000	3.878424   
553.500000	3.622196   
554.000000	3.559621   
554.500000	3.466628   
555.000000	3.364909   
555.500000	3.324083   
556.000000	3.414742   
556.500000	3.463477   
557.000000	3.338303   
557.500000	3.135363   
558.000000	3.044212   
558.500000	2.975537   
559.000000	2.957265   
559.500000	2.979962   
560.000000	3.071371   
560.500000	3.274340   
561.000000	3.596500   
561.500000	3.860568   
562.000000	3.770386   
562.500000	3.503886   
563.000000	3.300704   
563.500000	3.354537   
564.000000	3.292568   
564.500000	3.150628   
565.000000	3.025159   
565.500000	3.123431   
566.000000	3.202356   
566.500000	3.139068   
567.000000	3.015484   
567.500000	3.122083   
568.000000	3.328492   
568.500000	3.470704   
569.000000	3.420060   
569.500000	3.303492   
570.000000	3.215393   
570.500000	3.142409   
571.000000	3.060878   
571.500000	2.997439   
572.000000	3.095181   
572.500000	3.249416   
573.000000	3.387113   
573.500000	3.308840   
574.000000	3.166174   
574.500000	3.015810   
575.000000	2.953090   
575.500000	2.924022   
576.000000	3.045416   
576.500000	3.088318   
577.000000	3.128977   
577.500000	3.202015   
578.000000	3.297931   
578.500000	3.263583   
579.000000	3.148015   
579.500000	3.141295   
580.000000	3.302113   
580.500000	3.539242   
581.000000	3.547530   
581.500000	3.489734   
582.000000	3.403545   
582.500000	3.336590   
583.000000	3.215287   
583.500000	3.076545   
584.000000	3.012083   
584.500000	3.198325   
585.000000	3.491765   
585.500000	3.745037   
586.000000	3.745439   
586.500000	3.716931   
587.000000	3.615909   
587.500000	3.676250   
588.000000	3.891484   
588.500000	4.185083   
589.000000	4.136969   
589.500000	3.721250   
590.000000	3.555128   
590.500000	3.656787   
591.000000	3.862598   
591.500000	3.650204   
592.000000	3.624795   
592.500000	3.503469   
593.000000	3.617810   
593.500000	3.645863   
594.000000	4.016068   
594.500000	4.148659   
595.000000	4.273765   
595.500000	4.206439   
596.000000	4.370780   
596.500000	4.446257   
597.000000	4.502742   
597.500000	4.453121   
598.000000	4.450651   
598.500000	4.523886   
599.000000	4.775174   
599.500000	5.120507   
600.000000	5.418886   
600.500000	5.424340   
601.000000	5.337689   
601.500000	5.383356   
602.000000	5.563954   
602.500000	5.852409   
603.000000	6.161075   
603.500000	6.297674   
604.000000	6.220954   
604.500000	6.276598   
605.000000	6.485386   
605.500000	6.640219   
606.000000	6.648500   
606.500000	6.805772   
607.000000	7.116666   
607.500000	7.327340   
608.000000	7.393507   
608.500000	7.565393   
609.000000	7.995765   
609.500000	8.469621   
610.000000	8.963272   
610.500000	9.145393   
611.000000	9.166234   
611.500000	9.072886   
612.000000	9.373469   
612.500000	9.614825   
613.000000	9.968462   
613.500000	10.091704  
614.000000	10.467901  
614.500000	10.872378  
615.000000	11.319848  
615.500000	11.470833  
616.000000	11.713772  
616.500000	12.321946  
617.000000	13.165727  
617.500000	13.868340  
618.000000	14.022151  
618.500000	14.148068  
619.000000	14.587393  
619.500000	15.488772  
620.000000	16.289946  
620.500000	16.676492  
621.000000	17.049568  
621.500000	17.518765  
622.000000	18.138401  
622.500000	18.530939  
623.000000	19.206750  
623.500000	20.102310  
624.000000	21.123030  
624.500000	21.954878  
625.000000	22.492113  
625.500000	23.116992  
626.000000	23.655984  
626.500000	24.282431  
627.000000	24.873575  
627.500000	26.077628  
628.000000	28.028431  
628.500000	29.828522  
629.000000	30.884272  
629.500000	31.226045  
630.000000	32.216810  
630.500000	33.507136  
631.000000	34.552075  
631.500000	35.054174  
632.000000	35.794189  
632.500000	37.022500  
633.000000	38.886090  
633.500000	40.643212  
634.000000	42.094113  
634.500000	42.940545  
635.000000	43.861545  
635.500000	45.007333  
636.000000	47.451128  
636.500000	49.543409  
637.000000	51.353045  
637.500000	52.194454  
638.000000	53.383750  
638.500000	55.203295  
639.000000	57.395795  
639.500000	59.064333  
640.000000	60.407757  
640.500000	62.559696  
641.000000	64.966371  
641.500000	67.018613  
642.000000	68.018401  
642.500000	69.284424  
643.000000	71.903772  
643.500000	74.570333  
644.000000	76.128643  
644.500000	77.194159  
645.000000	79.377863  
645.500000	82.665356  
646.000000	84.936840  
646.500000	85.643954  
647.000000	86.380878  
647.500000	88.894219  
648.000000	92.474893  
648.500000	95.005916  
649.000000	96.478742  
649.500000	97.547143  
650.000000	100.082454 
650.500000	102.888704 
651.000000	105.480416 
651.500000	106.577083 
652.000000	107.799863 
652.500000	110.619583 
653.000000	114.740606 
653.500000	118.574621 
654.000000	120.298484 
654.500000	120.333189 
655.000000	120.466727 
655.500000	122.430840 
656.000000	125.381242 
656.500000	128.669371 
657.000000	131.821946 
657.500000	135.253333 
658.000000	138.423280 
658.500000	139.919916 
659.000000	140.172439 
659.500000	141.527393 
660.000000	144.589598 
660.500000	147.554863 
661.000000	149.405780 
661.500000	150.122378 
662.000000	151.459106 
662.500000	152.887560 
663.000000	154.076121 
663.500000	155.417681 
664.000000	156.783537 
664.500000	158.270265 
665.000000	159.516780 
665.500000	161.992727 
666.000000	164.349522 
666.500000	167.472537 
667.000000	168.523106 
667.500000	169.519022 
668.000000	169.787371 
668.500000	170.977772 
669.000000	171.411962 
669.500000	171.638636 
670.000000	172.012060 
670.500000	172.396265 
671.000000	172.412643 
671.500000	172.465409 
672.000000	174.487992 
672.500000	176.810325 
673.000000	177.834825 
673.500000	177.747106 
674.000000	177.211856 
674.500000	176.329643 
675.000000	175.671924 
675.500000	176.007530 
676.000000	177.314090 
676.500000	178.231931 
677.000000	178.165227 
677.500000	176.963053 
678.000000	174.779174 
678.500000	173.109946 
679.000000	173.051234 
679.500000	174.265325 
680.000000	173.743628 
680.500000	172.099325 
681.000000	169.676500 
681.500000	168.253871 
682.000000	166.191681 
682.500000	163.809643 
683.000000	161.942257 
683.500000	161.241083 
684.000000	160.036984 
684.500000	158.071583 
685.000000	155.317719 
685.500000	152.510689 
686.000000	149.106803 
686.500000	146.410143 
687.000000	144.229734 
687.500000	143.547469 
688.000000	142.591545 
688.500000	141.883318 
689.000000	139.318931 
689.500000	135.710962 
690.000000	130.564590 
690.500000	127.379356 
691.000000	125.231909 
691.500000	124.009795 
692.000000	120.966757 
692.500000	117.700204 
693.000000	114.890916 
693.500000	113.121045 
694.000000	110.527848 
694.500000	107.550946 
695.000000	105.188939 
695.500000	103.026643 
696.000000	100.311219 
696.500000	96.561984  
697.000000	93.823500  
697.500000	92.018765  
698.000000	90.759287  
698.500000	87.672719  
699.000000	84.324409  
699.500000	81.294962  
700.000000	79.922863  
700.500000	78.579734  
701.000000	76.200143  
701.500000	72.924507  
702.000000	70.085818  
702.500000	68.549295  
703.000000	67.150886  
703.500000	65.431492  
704.000000	63.823446  
704.500000	61.918848  
705.000000	59.540984  
705.500000	56.804257  
706.000000	54.912780  
706.500000	54.017924  
707.000000	53.391712  
707.500000	52.067469  
708.000000	49.813818  
708.500000	47.961696  
709.000000	46.840621  
709.500000	46.735750  
710.000000	45.848613  
710.500000	44.265257  
711.000000	42.445242  
711.500000	40.913734  
712.000000	39.768196  
712.500000	39.209287  
713.000000	38.333696  
713.500000	36.968583  
714.000000	34.992386  
714.500000	33.449212  
715.000000	32.246734  
715.500000	31.601477  
716.000000	30.848924  
716.500000	30.095992  
717.000000	29.206704  
717.500000	28.296356  
718.000000	27.612924  
718.500000	26.576598  
719.000000	25.508075  
719.500000	24.763750  
720.000000	25.096537  
720.500000	25.280765  
721.000000	24.612977  
721.500000	23.325719  
722.000000	22.337909  
722.500000	21.817242  
723.000000	21.078613  
723.500000	20.283371  
724.000000	19.581765  
724.500000	19.401212  
725.000000	19.090659  
725.500000	18.517530  
726.000000	17.691560  
726.500000	17.339075  
727.000000	17.244280  
727.500000	16.977833  
728.000000	16.513325  
728.500000	15.960545  
729.000000	15.334181  
729.500000	14.739742  
730.000000	14.134689  
730.500000	13.761939  
731.000000	13.272174  
731.500000	12.951742  
732.000000	12.844893  
732.500000	12.828984  
733.000000	12.207727  
733.500000	11.687454  
734.000000	11.829280  
734.500000	12.321810  
735.000000	12.248916  
735.500000	11.431098  
736.000000	10.769765  
736.500000	10.538621  
737.000000	10.516992  
737.500000	10.292462  
738.000000	10.198916  
738.500000	9.999045   
739.000000	9.713045   
739.500000	9.323825   
740.000000	8.954196   
740.500000	8.897393   
741.000000	8.914053   
741.500000	8.936477   
742.000000	8.524901   
742.500000	8.232734   
743.000000	7.923818   
743.500000	7.995090   
744.000000	7.852590   
744.500000	7.955424   
745.000000	7.795522   
745.500000	7.622749   
746.000000	7.281946   
746.500000	7.255090   
747.000000	7.023621   
747.500000	6.879257   
748.000000	6.583674   
748.500000	6.431234   
749.000000	6.368621   
749.500000	6.507143   
750.000000	6.582840   
750.500000	6.460318   
751.000000	6.203477   
751.500000	5.950840   
752.000000	5.677416   
752.500000	5.398477   
753.000000	5.143825   
753.500000	4.976159   
754.000000	4.787727   
754.500000	5.031598   
755.000000	5.395780   
755.500000	5.582242   
756.000000	5.181143   
756.500000	4.902143   
757.000000	4.823234   
757.500000	4.920765   
758.000000	4.845810   
758.500000	4.883772   
759.000000	5.030909   
759.500000	5.180371   
760.000000	4.911575   
760.500000	4.746484   
761.000000	4.686939   
761.500000	4.811121   
762.000000	4.496772   
762.500000	4.296962   
763.000000	4.282946   
763.500000	4.491143   
764.000000	4.393159   
764.500000	4.301378   
765.000000	4.384916   
765.500000	4.504030   
766.000000	4.409727   
766.500000	4.143128   
767.000000	3.960151   
767.500000	3.889143   
768.000000	3.903492   
768.500000	3.918462   
769.000000	3.878053   
769.500000	3.673969   
770.000000	3.426356   
770.500000	3.222196   
771.000000	3.205606   
771.500000	3.382348   
772.000000	3.680174   
772.500000	3.757954   
773.000000	3.580303   
773.500000	3.372295   
774.000000	3.378659   
774.500000	3.408818   
775.000000	3.352727   
775.500000	3.220469   
776.000000	3.194962   
776.500000	3.186939   
777.000000	3.122500   
777.500000	3.005106   
778.000000	2.945734   
778.500000	2.957590   
779.000000	3.062878   
779.500000	3.123666   
780.000000	3.147901   
780.500000	3.072151   
781.000000	3.048621   
781.500000	3.060992   
782.000000	3.127090   
782.500000	3.109500   
783.000000	3.062681   
783.500000	2.973424   
784.000000	2.858568   
784.500000	2.786204   
785.000000	2.761856   
785.500000	2.839128   
786.000000	2.865606   
786.500000	2.854651   
787.000000	2.762651   
787.500000	2.676848   
788.000000	2.560878   
788.500000	2.650924   
789.000000	2.735166   
789.500000	2.807750   
790.000000	2.716924   
790.500000	2.660734   
791.000000	2.570159   
791.500000	2.554886   
792.000000	2.529030   
792.500000	2.670007   
793.000000	2.736916   
793.500000	2.672037   
794.000000	2.450462   
794.500000	2.241924   
795.000000	2.156333   
795.500000	2.227151   
796.000000	2.192878   
796.500000	2.103462   
797.000000	2.114719   
797.500000	2.355954   
798.000000	2.472363   
798.500000	2.351234   
799.000000	2.168340   
799.500000	2.148992   
800.000000	2.207871   
800.500000	2.208833   
801.000000	2.218939   
801.500000	2.108871   
802.000000	2.045916   
802.500000	1.813719   
803.000000	1.736325   
803.500000	1.667242   
804.000000	1.774257   
804.500000	1.847515   
805.000000	1.838969   
805.500000	1.693159   
806.000000	1.420030   
806.500000	1.411734   
807.000000	1.529227   
807.500000	1.858765   
808.000000	1.726848   
808.500000	1.570484   
809.000000	1.447227   
809.500000	1.666060   
810.000000	1.817007   
810.500000	1.881757   
811.000000	1.873621   
811.500000	1.903863   
812.000000	1.907212   
812.500000	1.974560   
813.000000	2.079780   
813.500000	2.081621   
814.000000	1.834696   
814.500000	1.544136   
815.000000	1.473886   
815.500000	1.577265   
816.000000	1.686000   
816.500000	1.762272   
817.000000	1.895969   
817.500000	1.870931   
818.000000	1.776250   
818.500000	1.625068   
819.000000	1.551393   
819.500000	1.492037   
820.000000	1.524181   
820.500000	1.917083   
821.000000	2.315439   
821.500000	2.484772   
822.000000	2.389424   
822.500000	2.430242   
823.000000	2.556719   
823.500000	2.697954   
824.000000	2.691106   
824.500000	2.625772   
825.000000	2.630416   
825.500000	2.609090   
826.000000	2.640143   
826.500000	2.539113   
827.000000	2.459416   
827.500000	2.317674   
828.000000	2.200765   
828.500000	1.914265   
829.000000	1.743530   
829.500000	1.656977   
830.000000	1.743681   
830.500000	1.799030   
831.000000	1.688545   
831.500000	1.370265   
832.000000	1.099765   
832.500000	1.080098   
833.000000	1.104492   
833.500000	1.020522   
834.000000	0.854348   
834.500000	0.840553   
835.000000	0.930015   
835.500000	0.975712   
836.000000	0.959689   
836.500000	0.976704   
837.000000	1.034227   
837.500000	1.069318   
838.000000	1.035060   
838.500000	0.979287   
839.000000	0.905696   
839.500000	0.845174   
840.000000	0.757916   
840.500000	0.753530   
841.000000	0.798840   
841.500000	0.821212   
842.000000	0.708553   
842.500000	0.602606   
843.000000	0.613734   
843.500000	0.641666   
844.000000	0.571696   
844.500000	0.540000   
845.000000	0.585962   
845.500000	0.594060   
846.000000	0.486643   
846.500000	0.236613   
847.000000	0.081613   
847.500000	-0.047825  
848.000000	-0.018378  
848.500000	0.109053   
849.000000	0.255462   
849.500000	0.187545   
850.000000	0.138818   
850.500000	0.070371   
851.000000	0.089787   
851.500000	0.105022   
852.000000	0.190810   
852.500000	0.289750   
853.000000	0.394984   
853.500000	0.328022   
854.000000	0.173257   
854.500000	0.041333   
855.000000	0.034901   
855.500000	0.118196   
856.000000	0.111454   
856.500000	0.098893   
857.000000	0.113113   
857.500000	0.125083   
858.000000	0.039598   
858.500000	-0.092575  
859.000000	-0.153969  
859.500000	-0.107939  
860.000000	0.003053   
860.500000	0.064090   
861.000000	0.070098   
861.500000	0.014219   
862.000000	-0.021166  
862.500000	-0.064772  
863.000000	-0.055727  
863.500000	-0.006848  
864.000000	0.090537   
864.500000	0.064878   
865.000000	0.011431   
865.500000	-0.087719  
866.000000	-0.012825  
866.500000	0.069143   
867.000000	0.178250   
867.500000	0.169643   
868.000000	0.132568   
868.500000	0.062984   
869.000000	-0.019553  
869.500000	-0.061068  
870.000000	-0.106060  
870.500000	-0.107106  
871.000000	-0.174856  
871.500000	-0.174803  
872.000000	-0.160568  
872.500000	-0.099075  
873.000000	-0.087045  
873.500000	-0.114272  
874.000000	-0.092901  
874.500000	0.028393   
875.000000	0.155136   
875.500000	0.186356   
876.000000	0.126659   
876.500000	0.058037   
877.000000	0.013356   
877.500000	0.000969   
878.000000	-0.026348  
878.500000	0.025553   
879.000000	0.125666   
879.500000	0.209166   
880.000000	0.140734   
880.500000	0.022015   
881.000000	-0.126598  
881.500000	-0.149416  
882.000000	-0.147833  
882.500000	-0.032340  
883.000000	0.047977   
883.500000	0.096765   
884.000000	0.090106   
884.500000	0.111787   
885.000000	0.130636   
885.500000	0.123174   
886.000000	0.081196   
886.500000	-0.065856  
887.000000	-0.170765  
887.500000	-0.226159  
888.000000	-0.133575  
888.500000	-0.154583  
889.000000	-0.165106  
889.500000	-0.196189  
890.000000	-0.166121  
890.500000	-0.128484  
891.000000	-0.056840  
891.500000	-0.032007  
892.000000	-0.066681  
892.500000	-0.145780  
893.000000	-0.199136  
893.500000	-0.143916  
894.000000	-0.022560  
894.500000	0.048265   
895.000000	0.009022   
895.500000	-0.168257  
896.000000	-0.224757  
896.500000	-0.190348  
897.000000	-0.089174  
897.500000	-0.008469  
898.000000	0.078772   
898.500000	0.115833   
899.000000	0.090030   
899.500000	-0.044265  
900.000000	-0.255075  
900.500000	-0.502999  

