PE FL                   SPECTRUM    ASCII       PEDS        1.60        
  -1
S12R#19.SP
24/04/15
16:05:20.00
24/04/15
16:06:46.00
Jan

900.500000
1









LS55
405.00
5.00
5.00
SCAN
1
20
100
100
0
400
0
1
0
1
5
ON
900 405 
1 0 0
#HDR
-1
-1
#GR
NM

0.00002384185791015625
0.0
450.000000
0.500000
902
8
179.286863
-0.435000
#DATA
450.000000	-0.435000  
450.500000	-0.113681  
451.000000	0.171909   
451.500000	0.364484   
452.000000	0.327196   
452.500000	0.081878   
453.000000	-0.033643  
453.500000	0.160189   
454.000000	0.307939   
454.500000	0.244234   
455.000000	0.060409   
455.500000	0.010962   
456.000000	-0.165500  
456.500000	-0.256954  
457.000000	-0.291083  
457.500000	-0.193325  
458.000000	-0.256462  
458.500000	-0.252613  
459.000000	-0.191280  
459.500000	-0.036196  
460.000000	0.041704   
460.500000	0.114810   
461.000000	0.082795   
461.500000	-0.131446  
462.000000	-0.307363  
462.500000	-0.251439  
463.000000	-0.134946  
463.500000	-0.167984  
464.000000	-0.278181  
464.500000	-0.217621  
465.000000	-0.099128  
465.500000	-0.069128  
466.000000	-0.189416  
466.500000	-0.170590  
467.000000	-0.126696  
467.500000	-0.026818  
468.000000	-0.008500  
468.500000	-0.000553  
469.000000	-0.058825  
469.500000	-0.142575  
470.000000	-0.282037  
470.500000	-0.320424  
471.000000	-0.203318  
471.500000	-0.033977  
472.000000	-0.034840  
472.500000	-0.216053  
473.000000	-0.346515  
473.500000	-0.251500  
474.000000	-0.109045  
474.500000	-0.113424  
475.000000	-0.183742  
475.500000	-0.161128  
476.000000	0.014863   
476.500000	0.159227   
477.000000	0.170977   
477.500000	0.083189   
478.000000	-0.081272  
478.500000	-0.104636  
479.000000	-0.118840  
479.500000	-0.106378  
480.000000	-0.112742  
480.500000	0.056537   
481.000000	0.152871   
481.500000	0.058469   
482.000000	-0.166181  
482.500000	-0.230037  
483.000000	-0.090818  
483.500000	-0.040901  
484.000000	-0.057030  
484.500000	-0.086840  
485.000000	-0.015969  
485.500000	0.053530   
486.000000	0.127318   
486.500000	0.079530   
487.000000	-0.015265  
487.500000	-0.182075  
488.000000	-0.168984  
488.500000	-0.194136  
489.000000	-0.185196  
489.500000	-0.329810  
490.000000	-0.320598  
490.500000	-0.275393  
491.000000	-0.099303  
491.500000	-0.040053  
492.000000	-0.088871  
492.500000	-0.242992  
493.000000	-0.273098  
493.500000	-0.096590  
494.000000	0.119795   
494.500000	0.297113   
495.000000	0.434181   
495.500000	0.559977   
496.000000	0.626757   
496.500000	0.708893   
497.000000	0.821098   
497.500000	0.879712   
498.000000	0.814984   
498.500000	0.682946   
499.000000	0.608204   
499.500000	0.600924   
500.000000	0.655265   
500.500000	0.737007   
501.000000	0.783696   
501.500000	0.745522   
502.000000	0.829643   
502.500000	1.019553   
503.000000	1.143901   
503.500000	1.063560   
504.000000	0.968113   
504.500000	0.970060   
505.000000	1.108386   
505.500000	1.189515   
506.000000	1.315136   
506.500000	1.405909   
507.000000	1.473234   
507.500000	1.562780   
508.000000	1.868886   
508.500000	2.260143   
509.000000	2.446348   
509.500000	2.449287   
510.000000	2.458143   
510.500000	2.539939   
511.000000	2.581590   
511.500000	2.611484   
512.000000	2.635484   
512.500000	2.580174   
513.000000	2.534068   
513.500000	2.586666   
514.000000	2.801196   
514.500000	2.861530   
515.000000	2.821045   
515.500000	2.779234   
516.000000	2.984174   
516.500000	3.200772   
517.000000	3.310015   
517.500000	3.200727   
518.000000	3.039840   
518.500000	3.080545   
519.000000	3.216333   
519.500000	3.332719   
520.000000	3.374924   
520.500000	3.369613   
521.000000	3.377590   
521.500000	3.441424   
522.000000	3.558803   
522.500000	3.555636   
523.000000	3.409901   
523.500000	3.212174   
524.000000	3.287340   
524.500000	3.437901   
525.000000	3.543416   
525.500000	3.591621   
526.000000	3.723500   
526.500000	4.020545   
527.000000	4.277939   
527.500000	4.363287   
528.000000	4.510780   
528.500000	4.690772   
529.000000	4.991000   
529.500000	5.298378   
530.000000	5.634492   
530.500000	5.768318   
531.000000	5.634537   
531.500000	5.488416   
532.000000	5.885053   
532.500000	6.234196   
533.000000	6.193833   
533.500000	6.034977   
534.000000	6.286848   
534.500000	6.784166   
535.000000	7.403734   
535.500000	8.020992   
536.000000	8.679939   
536.500000	8.879446   
537.000000	8.882916   
537.500000	9.155553   
538.000000	10.342045  
538.500000	11.452348  
539.000000	12.085242  
539.500000	12.095295  
540.000000	12.443848  
540.500000	13.066757  
541.000000	13.603242  
541.500000	13.720568  
542.000000	13.596871  
542.500000	13.682537  
543.000000	13.716477  
543.500000	13.820174  
544.000000	13.230606  
544.500000	12.309696  
545.000000	11.582613  
545.500000	11.495863  
546.000000	11.261666  
546.500000	10.424318  
547.000000	9.444878   
547.500000	8.794075   
548.000000	8.367962   
548.500000	7.695265   
549.000000	7.068856   
549.500000	6.516166   
550.000000	6.179212   
550.500000	5.710113   
551.000000	5.308166   
551.500000	4.836303   
552.000000	4.504022   
552.500000	4.105575   
553.000000	3.737689   
553.500000	3.393803   
554.000000	3.385916   
554.500000	3.452795   
555.000000	3.364166   
555.500000	3.111075   
556.000000	3.053750   
556.500000	3.253083   
557.000000	3.496696   
557.500000	3.583909   
558.000000	3.524992   
558.500000	3.344234   
559.000000	3.160227   
559.500000	3.155416   
560.000000	3.206939   
560.500000	3.390871   
561.000000	3.460568   
561.500000	3.488863   
562.000000	3.347477   
562.500000	3.221174   
563.000000	3.019106   
563.500000	2.901590   
564.000000	2.924810   
564.500000	3.102734   
565.000000	3.334795   
565.500000	3.392969   
566.000000	3.325795   
566.500000	3.343431   
567.000000	3.476477   
567.500000	3.635393   
568.000000	3.553136   
568.500000	3.375189   
569.000000	3.152469   
569.500000	3.140772   
570.000000	3.149280   
570.500000	3.162250   
571.000000	3.152386   
571.500000	3.122280   
572.000000	3.175787   
572.500000	3.132939   
573.000000	3.049583   
573.500000	2.980992   
574.000000	3.083446   
574.500000	3.361962   
575.000000	3.563462   
575.500000	3.592590   
576.000000	3.468803   
576.500000	3.384689   
577.000000	3.332750   
577.500000	3.250121   
578.000000	3.196803   
578.500000	3.332962   
579.000000	3.617666   
579.500000	3.663795   
580.000000	3.564113   
580.500000	3.600325   
581.000000	3.839098   
581.500000	3.952462   
582.000000	3.723530   
582.500000	3.539454   
583.000000	3.598909   
583.500000	3.686015   
584.000000	3.508681   
584.500000	3.256666   
585.000000	3.253371   
585.500000	3.458477   
586.000000	3.861159   
586.500000	4.057848   
587.000000	3.977310   
587.500000	3.482446   
588.000000	3.275060   
588.500000	3.463265   
589.000000	3.884560   
589.500000	3.932128   
590.000000	3.804696   
590.500000	3.846015   
591.000000	4.081265   
591.500000	4.175575   
592.000000	4.106901   
592.500000	4.223015   
593.000000	4.458212   
593.500000	4.453606   
594.000000	4.087969   
594.500000	4.069106   
595.000000	4.390462   
595.500000	4.681386   
596.000000	4.345265   
596.500000	4.059363   
597.000000	4.088151   
597.500000	4.465954   
598.000000	4.625356   
598.500000	4.740977   
599.000000	4.858121   
599.500000	4.998113   
600.000000	5.102204   
600.500000	5.162522   
601.000000	5.408984   
601.500000	5.628022   
602.000000	5.877128   
602.500000	6.030621   
603.000000	6.407143   
603.500000	6.617189   
604.000000	6.673007   
604.500000	6.427719   
605.000000	6.444318   
605.500000	6.657810   
606.000000	6.855227   
606.500000	6.858136   
607.000000	6.959628   
607.500000	7.235401   
608.000000	7.653946   
608.500000	7.811189   
609.000000	7.836696   
609.500000	7.848999   
610.000000	8.054098   
610.500000	8.380606   
611.000000	8.935712   
611.500000	9.490803   
612.000000	10.032015  
612.500000	10.490401  
613.000000	10.780196  
613.500000	11.000242  
614.000000	11.056659  
614.500000	11.100590  
615.000000	11.308681  
615.500000	11.736515  
616.000000	12.452810  
616.500000	13.146818  
617.000000	13.570765  
617.500000	13.609712  
618.000000	13.885424  
618.500000	14.622090  
619.000000	15.465750  
619.500000	15.882507  
620.000000	15.764833  
620.500000	15.841962  
621.000000	16.468704  
621.500000	17.483007  
622.000000	18.530265  
622.500000	19.115606  
623.000000	19.781439  
623.500000	20.472295  
624.000000	21.702734  
624.500000	22.428295  
625.000000	22.906075  
625.500000	22.711871  
626.000000	22.844371  
626.500000	23.536356  
627.000000	24.951962  
627.500000	26.441628  
628.000000	27.540742  
628.500000	28.469969  
629.000000	29.623060  
629.500000	31.091734  
630.000000	32.240924  
630.500000	33.312886  
631.000000	34.207916  
631.500000	35.301121  
632.000000	36.639272  
632.500000	38.318984  
633.000000	40.073189  
633.500000	41.695780  
634.000000	42.900446  
634.500000	44.431007  
635.000000	45.907545  
635.500000	46.877363  
636.000000	47.344037  
636.500000	48.541969  
637.000000	50.608515  
637.500000	53.169931  
638.000000	55.158143  
638.500000	56.616181  
639.000000	57.799227  
639.500000	58.639871  
640.000000	59.943689  
640.500000	61.507060  
641.000000	63.510272  
641.500000	65.565227  
642.000000	68.006886  
642.500000	70.500810  
643.000000	73.422333  
643.500000	76.045924  
644.000000	77.487318  
644.500000	78.813924  
645.000000	80.461469  
645.500000	83.052030  
646.000000	84.564075  
646.500000	86.651454  
647.000000	89.209045  
647.500000	92.083810  
648.000000	93.314219  
648.500000	94.211159  
649.000000	95.835818  
649.500000	98.474075  
650.000000	102.139833 
650.500000	105.718272 
651.000000	108.442106 
651.500000	109.845696 
652.000000	111.903310 
652.500000	114.807795 
653.000000	117.235742 
653.500000	118.442484 
654.000000	119.872696 
654.500000	121.740969 
655.000000	124.200462 
655.500000	126.462810 
656.000000	128.969750 
656.500000	131.497424 
657.000000	133.619409 
657.500000	134.852628 
658.000000	134.937969 
658.500000	135.605189 
659.000000	138.190469 
659.500000	142.392621 
660.000000	145.746106 
660.500000	146.988022 
661.000000	148.300848 
661.500000	150.388583 
662.000000	154.014454 
662.500000	155.445227 
663.000000	156.039545 
663.500000	155.967871 
664.000000	158.237621 
664.500000	160.095333 
665.000000	162.232053 
665.500000	163.090492 
666.000000	164.501257 
666.500000	165.500909 
667.000000	166.622007 
667.500000	167.201659 
668.000000	168.258924 
668.500000	169.663484 
669.000000	171.628909 
669.500000	172.861500 
670.000000	173.424000 
670.500000	173.861886 
671.000000	174.646636 
671.500000	174.562181 
672.000000	174.409750 
672.500000	173.285757 
673.000000	172.855053 
673.500000	172.943515 
674.000000	175.064507 
674.500000	177.233848 
675.000000	178.739621 
675.500000	177.951106 
676.000000	176.100810 
676.500000	174.352250 
677.000000	174.041810 
677.500000	176.061219 
678.000000	178.222621 
678.500000	179.286863 
679.000000	177.493734 
679.500000	174.297181 
680.000000	170.258924 
680.500000	168.173863 
681.000000	166.876696 
681.500000	165.658045 
682.000000	163.989787 
682.500000	162.826924 
683.000000	162.139030 
683.500000	160.532560 
684.000000	158.228628 
684.500000	155.861348 
685.000000	154.427068 
685.500000	153.226166 
686.000000	151.834750 
686.500000	149.761439 
687.000000	147.142469 
687.500000	144.032060 
688.000000	140.112204 
688.500000	136.802265 
689.000000	134.534772 
689.500000	132.719765 
690.000000	129.951515 
690.500000	128.150287 
691.000000	126.875833 
691.500000	124.797780 
692.000000	120.098037 
692.500000	115.597712 
693.000000	112.251598 
693.500000	110.729666 
694.000000	109.569742 
694.500000	108.634522 
695.000000	106.330325 
695.500000	102.371174 
696.000000	98.297295  
696.500000	95.840530  
697.000000	94.473143  
697.500000	92.484166  
698.000000	89.963666  
698.500000	87.265924  
699.000000	84.889181  
699.500000	81.951303  
700.000000	79.299416  
700.500000	76.558909  
701.000000	74.210386  
701.500000	71.834954  
702.000000	70.375537  
702.500000	68.857795  
703.000000	66.507060  
703.500000	63.351939  
704.000000	60.606984  
704.500000	58.597068  
705.000000	57.070113  
705.500000	55.604545  
706.000000	54.140818  
706.500000	52.240795  
707.000000	50.874280  
707.500000	49.760477  
708.000000	48.987340  
708.500000	47.981507  
709.000000	46.620659  
709.500000	45.087840  
710.000000	43.562780  
710.500000	42.150272  
711.000000	40.662719  
711.500000	39.690340  
712.000000	38.975098  
712.500000	38.342303  
713.000000	36.893356  
713.500000	35.163575  
714.000000	33.916257  
714.500000	33.217628  
715.000000	32.518159  
715.500000	32.015295  
716.000000	31.379840  
716.500000	30.248333  
717.000000	28.632386  
717.500000	27.453719  
718.000000	26.835734  
718.500000	26.633704  
719.000000	26.350393  
719.500000	25.729242  
720.000000	24.509946  
720.500000	23.535015  
721.000000	22.984219  
721.500000	22.891689  
722.000000	22.484287  
722.500000	21.788674  
723.000000	20.805363  
723.500000	19.920295  
724.000000	19.321227  
724.500000	19.226068  
725.000000	19.006984  
725.500000	18.289212  
726.000000	17.607174  
726.500000	17.189257  
727.000000	16.812189  
727.500000	16.267977  
728.000000	15.665022  
728.500000	15.474454  
729.000000	15.268992  
729.500000	15.111651  
730.000000	14.587575  
730.500000	14.147643  
731.000000	13.580909  
731.500000	13.508704  
732.000000	13.518818  
732.500000	13.418636  
733.000000	12.851787  
733.500000	12.212007  
734.000000	11.762734  
734.500000	11.265272  
735.000000	10.749515  
735.500000	10.463954  
736.000000	10.744227  
736.500000	10.738121  
737.000000	10.472863  
737.500000	10.002621  
738.000000	9.986507   
738.500000	9.681795   
739.000000	9.295356   
739.500000	8.997045   
740.000000	9.186325   
740.500000	9.308590   
741.000000	9.027825   
741.500000	8.572219   
742.000000	8.178939   
742.500000	7.953098   
743.000000	7.837242   
743.500000	7.702863   
744.000000	7.591212   
744.500000	7.369484   
745.000000	7.364204   
745.500000	7.297840   
746.000000	7.112893   
746.500000	6.816916   
747.000000	6.919166   
747.500000	7.251856   
748.000000	7.181000   
748.500000	6.674196   
749.000000	6.235348   
749.500000	6.248333   
750.000000	6.308075   
750.500000	6.237037   
751.000000	6.004954   
751.500000	5.835931   
752.000000	5.652128   
752.500000	5.587492   
753.000000	5.517871   
753.500000	5.440863   
754.000000	5.243984   
754.500000	5.160287   
755.000000	5.049265   
755.500000	5.106287   
756.000000	5.055954   
756.500000	5.008742   
757.000000	4.876833   
757.500000	4.942454   
758.000000	4.967310   
758.500000	4.843083   
759.000000	4.613401   
759.500000	4.607022   
760.000000	4.809803   
760.500000	4.888560   
761.000000	4.832363   
761.500000	4.741530   
762.000000	4.607515   
762.500000	4.447651   
763.000000	4.297348   
763.500000	4.383810   
764.000000	4.427219   
764.500000	4.548757   
765.000000	4.470499   
765.500000	4.369469   
766.000000	4.144681   
766.500000	4.054212   
767.000000	3.923999   
767.500000	3.771340   
768.000000	3.690757   
768.500000	3.919886   
769.000000	4.123113   
769.500000	4.025265   
770.000000	3.672560   
770.500000	3.472590   
771.000000	3.349484   
771.500000	3.306969   
772.000000	3.234515   
772.500000	3.342863   
773.000000	3.382886   
773.500000	3.301696   
774.000000	3.106484   
774.500000	3.006613   
775.000000	3.039583   
775.500000	3.173431   
776.000000	3.299295   
776.500000	3.300878   
777.000000	3.172454   
777.500000	3.075303   
778.000000	2.992166   
778.500000	2.983803   
779.000000	2.994878   
779.500000	3.196287   
780.000000	3.298696   
780.500000	3.265045   
781.000000	3.021977   
781.500000	2.873840   
782.000000	2.935946   
782.500000	3.086393   
783.000000	3.132522   
783.500000	3.025803   
784.000000	2.890204   
784.500000	2.800681   
785.000000	2.789787   
785.500000	2.623446   
786.000000	2.436303   
786.500000	2.446780   
787.000000	2.684818   
787.500000	2.854492   
788.000000	2.802651   
788.500000	2.655106   
789.000000	2.683984   
789.500000	2.670727   
790.000000	2.576613   
790.500000	2.353590   
791.000000	2.254772   
791.500000	2.306863   
792.000000	2.531939   
792.500000	2.641045   
793.000000	2.612772   
793.500000	2.457219   
794.000000	2.420242   
794.500000	2.536696   
795.000000	2.611159   
795.500000	2.539257   
796.000000	2.330280   
796.500000	2.322037   
797.000000	2.465439   
797.500000	2.580810   
798.000000	2.496469   
798.500000	2.395295   
799.000000	2.266795   
799.500000	2.134265   
800.000000	2.110318   
800.500000	2.131030   
801.000000	2.221765   
801.500000	2.212568   
802.000000	2.277477   
802.500000	2.058833   
803.000000	1.894674   
803.500000	1.721537   
804.000000	1.970439   
804.500000	2.125287   
805.000000	2.167318   
805.500000	1.920780   
806.000000	1.726159   
806.500000	1.717765   
807.000000	1.764727   
807.500000	1.729689   
808.000000	1.473280   
808.500000	1.362469   
809.000000	1.335621   
809.500000	1.468833   
810.000000	1.557371   
810.500000	1.671151   
811.000000	1.728022   
811.500000	1.824825   
812.000000	1.938401   
812.500000	1.901795   
813.000000	1.693106   
813.500000	1.502856   
814.000000	1.471340   
814.500000	1.474613   
815.000000	1.512916   
815.500000	1.639030   
816.000000	1.702939   
816.500000	1.591946   
817.000000	1.459416   
817.500000	1.482325   
818.000000	1.519962   
818.500000	1.560204   
819.000000	1.599606   
819.500000	1.685083   
820.000000	1.744136   
820.500000	1.906257   
821.000000	2.209681   
821.500000	2.321431   
822.000000	2.174431   
822.500000	1.888901   
823.000000	1.895553   
823.500000	2.067446   
824.000000	2.459469   
824.500000	2.530477   
825.000000	2.416151   
825.500000	2.030598   
826.000000	2.028803   
826.500000	1.995810   
827.000000	1.945643   
827.500000	1.679825   
828.000000	1.654878   
828.500000	1.659757   
829.000000	1.688810   
829.500000	1.647886   
830.000000	1.709083   
830.500000	1.833469   
831.000000	1.766409   
831.500000	1.527742   
832.000000	1.180984   
832.500000	1.087537   
833.000000	1.147878   
833.500000	1.292727   
834.000000	1.342022   
834.500000	1.396946   
835.000000	1.328643   
835.500000	1.140022   
836.000000	0.924446   
836.500000	0.833318   
837.000000	0.884446   
837.500000	0.966992   
838.000000	0.979280   
838.500000	0.940537   
839.000000	0.907803   
839.500000	0.944727   
840.000000	0.865181   
840.500000	0.755878   
841.000000	0.710151   
841.500000	0.806333   
842.000000	0.761931   
842.500000	0.569560   
843.000000	0.436113   
843.500000	0.484742   
844.000000	0.555924   
844.500000	0.486560   
845.000000	0.326606   
845.500000	0.231568   
846.000000	0.264772   
846.500000	0.388659   
847.000000	0.457651   
847.500000	0.469250   
848.000000	0.455401   
848.500000	0.510477   
849.000000	0.483113   
849.500000	0.382075   
850.000000	0.266833   
850.500000	0.153742   
851.000000	0.101401   
851.500000	0.086037   
852.000000	0.168272   
852.500000	0.222340   
853.000000	0.233469   
853.500000	0.228401   
854.000000	0.220780   
854.500000	0.225651   
855.000000	0.214287   
855.500000	0.279840   
856.000000	0.257378   
856.500000	0.299219   
857.000000	0.220022   
857.500000	0.113113   
858.000000	-0.041295  
858.500000	0.038219   
859.000000	0.221522   
859.500000	0.301416   
860.000000	0.164992   
860.500000	0.057780   
861.000000	0.050189   
861.500000	0.047681   
862.000000	-0.024196  
862.500000	-0.057878  
863.000000	-0.023598  
863.500000	0.046439   
864.000000	0.064015   
864.500000	0.045500   
865.000000	0.004098   
865.500000	-0.022128  
866.000000	0.035083   
866.500000	0.126757   
867.000000	0.153219   
867.500000	0.017704   
868.000000	-0.115310  
868.500000	-0.153780  
869.000000	-0.118136  
869.500000	-0.128333  
870.000000	-0.127181  
870.500000	-0.072984  
871.000000	-0.028977  
871.500000	-0.019204  
872.000000	-0.033128  
872.500000	0.026371   
873.000000	0.029977   
873.500000	-0.004499  
874.000000	-0.061522  
874.500000	-0.068818  
875.000000	-0.066674  
875.500000	-0.041318  
876.000000	-0.005886  
876.500000	0.037689   
877.000000	0.060136   
877.500000	0.039424   
878.000000	0.028606   
878.500000	-0.019621  
879.000000	-0.105477  
879.500000	-0.127621  
880.000000	-0.004575  
880.500000	0.132522   
881.000000	0.140833   
881.500000	0.022575   
882.000000	-0.037946  
882.500000	-0.013575  
883.000000	0.018492   
883.500000	-0.038492  
884.000000	-0.070848  
884.500000	-0.056068  
885.000000	0.002590   
885.500000	-0.083803  
886.000000	-0.109424  
886.500000	-0.072916  
887.000000	0.107090   
887.500000	0.164795   
888.000000	0.137560   
888.500000	0.046825   
889.000000	-0.033265  
889.500000	-0.147310  
890.000000	-0.207007  
890.500000	-0.176568  
891.000000	-0.108962  
891.500000	-0.074090  
892.000000	-0.061500  
892.500000	-0.088500  
893.000000	-0.058810  
893.500000	-0.054477  
894.000000	-0.082136  
894.500000	-0.106787  
895.000000	-0.075106  
895.500000	-0.033416  
896.000000	-0.093393  
896.500000	-0.167181  
897.000000	-0.173492  
897.500000	-0.099818  
898.000000	-0.061984  
898.500000	-0.128931  
899.000000	-0.205416  
899.500000	-0.238962  
900.000000	-0.043287  
900.500000	0.372000   

