PE FL                   SPECTRUM    ASCII       PEDS        1.60        
  -1
S12R#52.SP
24/04/15
16:52:24.00
24/04/15
16:53:50.00
Jan

900.500000
1









LS55
405.00
5.00
5.00
SCAN
1
20
100
100
0
400
0
1
0
1
5
ON
900 405 
1 0 0
#HDR
-1
-1
#GR
NM

0.00002384185791015625
0.0
450.000000
0.500000
902
8
147.052916
-0.562000
#DATA
450.000000	-0.562000  
450.500000	-0.200227  
451.000000	-0.030522  
451.500000	-0.034303  
452.000000	-0.046878  
452.500000	0.029499   
453.000000	0.196386   
453.500000	0.205325   
454.000000	0.047181   
454.500000	-0.197704  
455.000000	-0.168924  
455.500000	-0.104287  
456.000000	-0.071590  
456.500000	-0.173931  
457.000000	-0.112530  
457.500000	0.030045   
458.000000	0.043204   
458.500000	0.031871   
459.000000	0.042007   
459.500000	0.058863   
460.000000	-0.139227  
460.500000	-0.327659  
461.000000	-0.429848  
461.500000	-0.359727  
462.000000	-0.261833  
462.500000	-0.239250  
463.000000	-0.166946  
463.500000	-0.099939  
464.000000	0.152113   
464.500000	0.353431   
465.000000	0.419196   
465.500000	0.188000   
466.000000	-0.066931  
466.500000	-0.227318  
467.000000	-0.250015  
467.500000	-0.221636  
468.000000	-0.207962  
468.500000	-0.116659  
469.000000	0.071295   
469.500000	0.280696   
470.000000	0.216901   
470.500000	0.046037   
471.000000	-0.077287  
471.500000	-0.024628  
472.000000	-0.083037  
472.500000	-0.072159  
473.000000	-0.093174  
473.500000	0.033287   
474.000000	-0.046856  
474.500000	-0.061265  
475.000000	-0.102909  
475.500000	-0.023840  
476.000000	0.008575   
476.500000	0.157469   
477.000000	0.147598   
477.500000	0.033901   
478.000000	-0.098022  
478.500000	-0.056553  
479.000000	-0.024643  
479.500000	0.022295   
480.000000	0.028984   
480.500000	-0.107583  
481.000000	-0.368477  
481.500000	-0.501090  
482.000000	-0.411378  
482.500000	-0.262227  
483.000000	-0.247765  
483.500000	-0.303818  
484.000000	-0.313848  
484.500000	-0.436507  
485.000000	-0.543431  
485.500000	-0.488803  
486.000000	-0.160515  
486.500000	0.204431   
487.000000	0.375545   
487.500000	0.165128   
488.000000	-0.072234  
488.500000	-0.187075  
489.000000	-0.080318  
489.500000	0.091962   
490.000000	0.185606   
490.500000	0.023765   
491.000000	-0.160393  
491.500000	-0.229159  
492.000000	-0.085886  
492.500000	0.116719   
493.000000	0.286212   
493.500000	0.347613   
494.000000	0.197553   
494.500000	0.009946   
495.000000	0.072363   
495.500000	0.412939   
496.000000	0.684659   
496.500000	0.494310   
497.000000	0.180530   
497.500000	-0.001037  
498.000000	0.293121   
498.500000	0.659848   
499.000000	0.962068   
499.500000	0.944962   
500.000000	0.895863   
500.500000	0.682136   
501.000000	0.517704   
501.500000	0.503469   
502.000000	0.729962   
502.500000	0.918962   
503.000000	0.971984   
503.500000	0.921303   
504.000000	0.961727   
504.500000	1.078454   
505.000000	1.135795   
505.500000	1.174090   
506.000000	1.320037   
506.500000	1.670856   
507.000000	1.901295   
507.500000	1.892416   
508.000000	1.812090   
508.500000	1.881196   
509.000000	1.986909   
509.500000	2.076409   
510.000000	2.260590   
510.500000	2.518181   
511.000000	2.602772   
511.500000	2.584901   
512.000000	2.678037   
512.500000	2.851272   
513.000000	2.848681   
513.500000	2.739924   
514.000000	2.695954   
514.500000	2.775931   
515.000000	2.895560   
515.500000	2.999681   
516.000000	3.032310   
516.500000	3.067416   
517.000000	3.088007   
517.500000	3.074772   
518.000000	3.180174   
518.500000	3.320393   
519.000000	3.413272   
519.500000	3.323204   
520.000000	3.257583   
520.500000	3.328128   
521.000000	3.463265   
521.500000	3.458462   
522.000000	3.374083   
522.500000	3.375007   
523.000000	3.393000   
523.500000	3.436522   
524.000000	3.402818   
524.500000	3.760030   
525.000000	4.186446   
525.500000	4.416598   
526.000000	4.189833   
526.500000	4.135689   
527.000000	4.283234   
527.500000	4.604083   
528.000000	4.680856   
528.500000	4.852204   
529.000000	5.027090   
529.500000	5.051439   
530.000000	4.993575   
530.500000	5.169242   
531.000000	5.576181   
531.500000	6.035833   
532.000000	6.376068   
532.500000	6.533696   
533.000000	6.629401   
533.500000	6.665356   
534.000000	6.798030   
534.500000	7.091757   
535.000000	7.560924   
535.500000	8.000553   
536.000000	8.526136   
536.500000	8.958674   
537.000000	9.464015   
537.500000	9.957901   
538.000000	10.571477  
538.500000	11.076401  
539.000000	11.349727  
539.500000	11.642454  
540.000000	12.226636  
540.500000	12.956257  
541.000000	13.348590  
541.500000	13.455825  
542.000000	13.515469  
542.500000	13.567007  
543.000000	13.555500  
543.500000	13.374446  
544.000000	13.031272  
544.500000	12.353628  
545.000000	11.658674  
545.500000	11.073121  
546.000000	10.343310  
546.500000	9.496378   
547.000000	8.732250   
547.500000	8.444553   
548.000000	8.150325   
548.500000	7.688583   
549.000000	7.019992   
549.500000	6.550939   
550.000000	6.169325   
550.500000	5.656878   
551.000000	5.028499   
551.500000	4.442401   
552.000000	4.028727   
552.500000	3.797257   
553.000000	3.591030   
553.500000	3.482439   
554.000000	3.333674   
554.500000	3.335545   
555.000000	3.369590   
555.500000	3.485810   
556.000000	3.406848   
556.500000	3.312977   
557.000000	3.225371   
557.500000	3.227515   
558.000000	3.238075   
558.500000	3.253075   
559.000000	3.220848   
559.500000	3.148409   
560.000000	3.048227   
560.500000	3.018136   
561.000000	2.960606   
561.500000	2.921340   
562.000000	2.817136   
562.500000	2.897863   
563.000000	3.045674   
563.500000	3.310325   
564.000000	3.375196   
564.500000	3.374583   
565.000000	3.335515   
565.500000	3.411575   
566.000000	3.424568   
566.500000	3.277431   
567.000000	3.119257   
567.500000	2.993053   
568.000000	2.996803   
568.500000	2.961439   
569.000000	2.944666   
569.500000	2.937007   
570.000000	3.096333   
570.500000	3.248522   
571.000000	3.407886   
571.500000	3.534977   
572.000000	3.630037   
572.500000	3.415992   
573.000000	3.028166   
573.500000	2.770689   
574.000000	2.880378   
574.500000	2.957113   
575.000000	2.991416   
575.500000	3.045590   
576.000000	3.338454   
576.500000	3.501969   
577.000000	3.527545   
577.500000	3.394734   
578.000000	3.409250   
578.500000	3.424568   
579.000000	3.464893   
579.500000	3.386704   
580.000000	3.345015   
580.500000	3.341863   
581.000000	3.412181   
581.500000	3.331075   
582.000000	3.147946   
582.500000	3.122939   
583.000000	3.534409   
583.500000	4.050787   
584.000000	4.075643   
584.500000	3.813303   
585.000000	3.728015   
585.500000	3.947765   
586.000000	3.845227   
586.500000	3.583401   
587.000000	3.412121   
587.500000	3.717446   
588.000000	4.079280   
588.500000	4.275174   
589.000000	4.250522   
589.500000	4.213568   
590.000000	4.144333   
590.500000	3.876462   
591.000000	3.770856   
591.500000	3.912818   
592.000000	4.414166   
592.500000	4.682386   
593.000000	4.799643   
593.500000	4.703121   
594.000000	4.648022   
594.500000	4.440530   
595.000000	4.368477   
595.500000	4.606393   
596.000000	5.184068   
596.500000	5.716810   
597.000000	5.939219   
597.500000	5.918469   
598.000000	5.776787   
598.500000	5.743621   
599.000000	5.737295   
599.500000	5.918250   
600.000000	6.039613   
600.500000	6.292560   
601.000000	6.534060   
601.500000	6.844840   
602.000000	6.827287   
602.500000	6.829416   
603.000000	6.930977   
603.500000	7.149136   
604.000000	7.174227   
604.500000	7.109242   
605.000000	7.400030   
605.500000	8.042583   
606.000000	8.658560   
606.500000	8.848598   
607.000000	8.900689   
607.500000	9.037765   
608.000000	9.237969   
608.500000	9.398424   
609.000000	9.510424   
609.500000	9.822515   
610.000000	9.988946   
610.500000	10.413924  
611.000000	10.798568  
611.500000	11.165780  
612.000000	11.152833  
612.500000	11.559916  
613.000000	12.544424  
613.500000	13.699348  
614.000000	14.052037  
614.500000	14.018537  
615.000000	14.124810  
615.500000	14.690530  
616.000000	15.037143  
616.500000	15.460053  
617.000000	15.867696  
617.500000	16.540568  
618.000000	16.835863  
618.500000	17.424606  
619.000000	18.192712  
619.500000	19.397568  
620.000000	20.233568  
620.500000	20.730045  
621.000000	21.107583  
621.500000	21.797818  
622.000000	22.805500  
622.500000	23.824803  
623.000000	24.842719  
623.500000	25.609106  
624.000000	26.459606  
624.500000	27.189992  
625.000000	28.222393  
625.500000	29.197636  
626.000000	30.256242  
626.500000	31.573310  
627.000000	33.197666  
627.500000	34.237280  
628.000000	34.963106  
628.500000	35.799151  
629.000000	37.010825  
629.500000	38.039318  
630.000000	38.887068  
630.500000	40.104606  
631.000000	41.849621  
631.500000	43.693954  
632.000000	44.830810  
632.500000	45.918022  
633.000000	47.045984  
633.500000	48.965590  
634.000000	50.391500  
634.500000	51.477045  
635.000000	52.547734  
635.500000	54.654553  
636.000000	56.697606  
636.500000	58.527484  
637.000000	60.128060  
637.500000	62.368007  
638.000000	64.055803  
638.500000	66.101840  
639.000000	67.687386  
639.500000	69.440916  
640.000000	70.384818  
640.500000	71.924560  
641.000000	73.625227  
641.500000	75.199325  
642.000000	76.450477  
642.500000	77.687446  
643.000000	79.707856  
643.500000	81.786462  
644.000000	84.524234  
644.500000	86.246590  
645.000000	87.584318  
645.500000	88.873553  
646.000000	91.399333  
646.500000	93.719363  
647.000000	95.273575  
647.500000	95.766878  
648.000000	96.778704  
648.500000	98.981515  
649.000000	102.578386 
649.500000	105.570719 
650.000000	107.431356 
650.500000	108.455462 
651.000000	109.719060 
651.500000	110.875787 
652.000000	112.761128 
652.500000	114.821962 
653.000000	116.811174 
653.500000	117.804378 
654.000000	118.568878 
654.500000	119.992189 
655.000000	121.952803 
655.500000	124.041060 
656.000000	126.522068 
656.500000	128.722613 
657.000000	129.908106 
657.500000	130.511689 
658.000000	130.768037 
658.500000	131.602363 
659.000000	132.838348 
659.500000	134.346113 
660.000000	135.558439 
660.500000	136.794113 
661.000000	137.421098 
661.500000	139.258068 
662.000000	140.838378 
662.500000	141.949416 
663.000000	141.453992 
663.500000	141.289090 
664.000000	141.940356 
664.500000	143.610045 
665.000000	145.176439 
665.500000	146.066143 
666.000000	146.151159 
666.500000	145.831803 
667.000000	146.492992 
667.500000	146.962219 
668.000000	147.052916 
668.500000	145.994803 
669.000000	145.841037 
669.500000	145.416174 
670.000000	144.908106 
670.500000	143.018560 
671.000000	142.166984 
671.500000	142.284424 
672.000000	143.966909 
672.500000	144.141204 
673.000000	142.802318 
673.500000	141.007946 
674.000000	140.523159 
674.500000	141.042128 
675.000000	140.096515 
675.500000	138.374265 
676.000000	136.249689 
676.500000	135.891113 
677.000000	135.024340 
677.500000	134.462196 
678.000000	132.348007 
678.500000	131.034795 
679.000000	128.423742 
679.500000	126.334931 
680.000000	123.730219 
680.500000	122.719386 
681.000000	121.710500 
681.500000	120.689250 
682.000000	117.964962 
682.500000	115.004636 
683.000000	112.568666 
683.500000	110.838803 
684.000000	109.396545 
684.500000	107.277386 
685.000000	105.132098 
685.500000	101.853863 
686.000000	99.092765  
686.500000	96.474537  
687.000000	94.903757  
687.500000	92.427454  
688.000000	91.024333  
688.500000	89.628878  
689.000000	88.308575  
689.500000	85.418492  
690.000000	82.246159  
690.500000	80.184681  
691.000000	79.459386  
691.500000	78.150348  
692.000000	75.071621  
692.500000	71.667325  
693.000000	69.028151  
693.500000	67.480992  
694.000000	66.099136  
694.500000	64.752204  
695.000000	63.377704  
695.500000	61.448492  
696.000000	59.017053  
696.500000	57.241242  
697.000000	55.492901  
697.500000	53.538545  
698.000000	51.460287  
698.500000	50.842409  
699.000000	50.338484  
699.500000	49.292257  
700.000000	46.850386  
700.500000	45.051000  
701.000000	43.618992  
701.500000	42.444219  
702.000000	40.891196  
702.500000	39.552568  
703.000000	38.168068  
703.500000	37.095734  
704.000000	36.438939  
704.500000	36.288295  
705.000000	35.646568  
705.500000	34.412484  
706.000000	32.695166  
706.500000	31.542204  
707.000000	30.801977  
707.500000	30.391674  
708.000000	29.648757  
708.500000	28.913174  
709.000000	27.927257  
709.500000	26.869810  
710.000000	25.629909  
710.500000	24.791363  
711.000000	24.535992  
711.500000	24.446712  
712.000000	23.758386  
712.500000	22.503696  
713.000000	21.391136  
713.500000	20.938575  
714.000000	21.020704  
714.500000	20.790568  
715.000000	19.990386  
715.500000	18.887901  
716.000000	17.978863  
716.500000	17.534234  
717.000000	17.434151  
717.500000	17.635553  
718.000000	17.444575  
718.500000	17.051757  
719.000000	16.260098  
719.500000	15.872916  
720.000000	15.707340  
720.500000	15.740484  
721.000000	15.324628  
721.500000	14.716000  
722.000000	13.735007  
722.500000	13.308196  
723.000000	13.183522  
723.500000	13.170530  
724.000000	12.725856  
724.500000	12.235772  
725.000000	11.752886  
725.500000	11.558348  
726.000000	11.327704  
726.500000	10.995250  
727.000000	10.766772  
727.500000	10.763500  
728.000000	10.880106  
728.500000	10.748007  
729.000000	10.238954  
729.500000	10.003863  
730.000000	9.870325   
730.500000	9.801772   
731.000000	9.440886   
731.500000	9.537613   
732.000000	9.683757   
732.500000	9.698249   
733.000000	9.060803   
733.500000	8.525121   
734.000000	8.326643   
734.500000	8.370287   
735.000000	8.147053   
735.500000	7.756037   
736.000000	7.510545   
736.500000	7.363893   
737.000000	7.321628   
737.500000	7.197257   
738.000000	6.879378   
738.500000	6.459939   
739.000000	6.137060   
739.500000	6.304022   
740.000000	6.681598   
740.500000	6.946469   
741.000000	6.676583   
741.500000	6.184174   
742.000000	5.785689   
742.500000	5.994878   
743.000000	6.404727   
743.500000	6.346310   
744.000000	5.827939   
744.500000	5.386780   
745.000000	5.398219   
745.500000	5.634583   
746.000000	5.521409   
746.500000	5.268136   
747.000000	4.916424   
747.500000	4.875833   
748.000000	4.910318   
748.500000	5.214712   
749.000000	5.149553   
749.500000	4.756318   
750.000000	4.061749   
750.500000	3.796454   
751.000000	4.073159   
751.500000	4.593053   
752.000000	4.849901   
752.500000	4.833931   
753.000000	4.731060   
753.500000	4.650371   
754.000000	4.504954   
754.500000	4.328992   
755.000000	4.058325   
755.500000	3.899780   
756.000000	3.830484   
756.500000	4.114545   
757.000000	4.381060   
757.500000	4.431598   
758.000000	4.110901   
758.500000	3.968083   
759.000000	4.003848   
759.500000	4.176795   
760.000000	3.988712   
760.500000	3.769590   
761.000000	3.656196   
761.500000	3.921212   
762.000000	4.130484   
762.500000	4.029446   
763.000000	3.528045   
763.500000	3.122257   
764.000000	3.076939   
764.500000	3.173492   
765.000000	3.334295   
765.500000	3.465371   
766.000000	3.677340   
766.500000	3.583977   
767.000000	3.252060   
767.500000	3.005969   
768.000000	3.117856   
768.500000	3.351037   
769.000000	3.410924   
769.500000	3.287712   
770.000000	3.098583   
770.500000	3.014545   
771.000000	3.002189   
771.500000	3.038363   
772.000000	3.106386   
772.500000	3.209053   
773.000000	3.237424   
773.500000	3.154696   
774.000000	3.028348   
774.500000	2.921287   
775.000000	2.887765   
775.500000	2.915257   
776.000000	3.062068   
776.500000	3.137363   
777.000000	3.124575   
777.500000	3.033045   
778.000000	3.120174   
778.500000	3.203560   
779.000000	3.205181   
779.500000	3.075681   
780.000000	3.028219   
780.500000	2.909492   
781.000000	2.865886   
781.500000	2.845189   
782.000000	3.001598   
782.500000	3.019416   
783.000000	2.975166   
783.500000	2.868363   
784.000000	2.929636   
784.500000	2.812318   
785.000000	2.674795   
785.500000	2.461060   
786.000000	2.447939   
786.500000	2.607977   
787.000000	2.842939   
787.500000	2.862712   
788.000000	2.685787   
788.500000	2.471098   
789.000000	2.443833   
789.500000	2.480666   
790.000000	2.510628   
790.500000	2.499818   
791.000000	2.512000   
791.500000	2.346583   
792.000000	2.217143   
792.500000	2.244045   
793.000000	2.480742   
793.500000	2.598992   
794.000000	2.614242   
794.500000	2.492166   
795.000000	2.404166   
795.500000	2.325462   
796.000000	2.370909   
796.500000	2.328939   
797.000000	2.246242   
797.500000	2.069219   
798.000000	2.168696   
798.500000	2.364825   
799.000000	2.450318   
799.500000	2.244583   
800.000000	2.071265   
800.500000	2.063053   
801.000000	2.147712   
801.500000	2.098454   
802.000000	2.066098   
802.500000	2.069500   
803.000000	2.039750   
803.500000	1.816893   
804.000000	1.757734   
804.500000	1.838250   
805.000000	1.827287   
805.500000	1.675287   
806.000000	1.593537   
806.500000	1.710734   
807.000000	1.816280   
807.500000	1.825431   
808.000000	1.793939   
808.500000	1.814340   
809.000000	1.746037   
809.500000	1.572007   
810.000000	1.601803   
810.500000	1.645787   
811.000000	1.724492   
811.500000	1.626143   
812.000000	1.709590   
812.500000	1.742575   
813.000000	1.603098   
813.500000	1.196992   
814.000000	0.998303   
814.500000	1.231931   
815.000000	1.572128   
815.500000	1.581916   
816.000000	1.207742   
816.500000	0.928553   
817.000000	1.153628   
817.500000	1.651022   
818.000000	1.971553   
818.500000	1.819174   
819.000000	1.570431   
819.500000	1.541545   
820.000000	1.629878   
820.500000	1.711371   
821.000000	1.805098   
821.500000	2.023946   
822.000000	2.124765   
822.500000	2.026696   
823.000000	1.990863   
823.500000	2.182886   
824.000000	2.500409   
824.500000	2.600916   
825.000000	2.531446   
825.500000	2.344795   
826.000000	2.233174   
826.500000	2.230727   
827.000000	2.215553   
827.500000	2.183787   
828.000000	2.027871   
828.500000	1.880666   
829.000000	1.617984   
829.500000	1.459000   
830.000000	1.424303   
830.500000	1.446530   
831.000000	1.349984   
831.500000	1.178704   
832.000000	1.066772   
832.500000	0.989742   
833.000000	0.999787   
833.500000	1.062219   
834.000000	1.218053   
834.500000	1.226295   
835.000000	1.161219   
835.500000	1.079310   
836.000000	1.102674   
836.500000	1.034924   
837.000000	0.885068   
837.500000	0.779416   
838.000000	0.842174   
838.500000	0.962886   
839.000000	0.925196   
839.500000	0.780613   
840.000000	0.681818   
840.500000	0.729318   
841.000000	0.738499   
841.500000	0.709196   
842.000000	0.643666   
842.500000	0.652143   
843.000000	0.664712   
843.500000	0.631386   
844.000000	0.630810   
844.500000	0.608219   
845.000000	0.490863   
845.500000	0.272060   
846.000000	0.284780   
846.500000	0.367621   
847.000000	0.407507   
847.500000	0.234757   
848.000000	0.169537   
848.500000	0.134643   
849.000000	0.103143   
849.500000	-0.027098  
850.000000	0.008901   
850.500000	0.070628   
851.000000	0.138916   
851.500000	0.146242   
852.000000	0.170969   
852.500000	0.197075   
853.000000	0.239522   
853.500000	0.251424   
854.000000	0.267553   
854.500000	0.330575   
855.000000	0.292545   
855.500000	0.162196   
856.000000	0.014848   
856.500000	0.004113   
857.000000	0.044848   
857.500000	0.071628   
858.000000	0.126000   
858.500000	0.212689   
859.000000	0.208712   
859.500000	0.023810   
860.000000	-0.078250  
860.500000	-0.061098  
861.000000	0.032962   
861.500000	-0.002674  
862.000000	-0.038250  
862.500000	-0.054530  
863.000000	0.044007   
863.500000	0.049340   
864.000000	0.065946   
864.500000	0.070106   
865.000000	0.127378   
865.500000	0.097931   
866.000000	0.047037   
866.500000	-0.052916  
867.000000	-0.120257  
867.500000	-0.191401  
868.000000	-0.134121  
868.500000	-0.003598  
869.000000	0.133007   
869.500000	0.129583   
870.000000	0.017621   
870.500000	-0.124219  
871.000000	-0.175090  
871.500000	-0.127901  
872.000000	-0.033022  
872.500000	0.026750   
873.000000	0.041750   
873.500000	0.000545   
874.000000	-0.047780  
874.500000	-0.126265  
875.000000	-0.134590  
875.500000	-0.133128  
876.000000	-0.053386  
876.500000	-0.053340  
877.000000	-0.071886  
877.500000	-0.128053  
878.000000	-0.073007  
878.500000	-0.102863  
879.000000	-0.178696  
879.500000	-0.278704  
880.000000	-0.228954  
880.500000	-0.127795  
881.000000	-0.020159  
881.500000	0.004606   
882.000000	0.030666   
882.500000	0.033075   
883.000000	0.032484   
883.500000	-0.001068  
884.000000	0.004204   
884.500000	0.027825   
885.000000	0.040727   
885.500000	-0.023507  
886.000000	-0.069863  
886.500000	-0.059204  
887.000000	0.001916   
887.500000	0.023083   
888.000000	0.072227   
888.500000	0.076651   
889.000000	0.010651   
889.500000	-0.157000  
890.000000	-0.248772  
890.500000	-0.213113  
891.000000	-0.148378  
891.500000	-0.184893  
892.000000	-0.189977  
892.500000	-0.045946  
893.000000	0.168462   
893.500000	0.249333   
894.000000	0.127113   
894.500000	-0.060674  
895.000000	-0.127628  
895.500000	-0.104022  
896.000000	-0.079371  
896.500000	-0.032212  
897.000000	0.009310   
897.500000	0.062181   
898.000000	0.000257   
898.500000	-0.009916  
899.000000	0.032583   
899.500000	0.097719   
900.000000	-0.021583  
900.500000	-0.268000  

