PE FL                   SPECTRUM    ASCII       PEDS        1.60        
  -1
S12R#44.SP
24/04/15
16:41:00.00
24/04/15
16:42:25.00
Jan

900.500000
1









LS55
405.00
5.00
5.00
SCAN
1
20
100
100
0
400
0
1
0
1
5
ON
900 405 
1 0 0
#HDR
-1
-1
#GR
NM

0.00002384185791015625
0.0
450.000000
0.500000
902
8
156.092613
-0.743000
#DATA
450.000000	-0.743000  
450.500000	-0.427537  
451.000000	-0.351924  
451.500000	-0.396825  
452.000000	-0.260265  
452.500000	-0.032636  
453.000000	0.022636   
453.500000	-0.083378  
454.000000	-0.038280  
454.500000	0.211348   
455.000000	0.339333   
455.500000	0.145090   
456.000000	-0.239424  
456.500000	-0.362719  
457.000000	-0.176992  
457.500000	0.044674   
458.000000	0.132015   
458.500000	0.124204   
459.000000	0.171568   
459.500000	0.192628   
460.000000	0.072022   
460.500000	-0.109628  
461.000000	-0.089015  
461.500000	0.088621   
462.000000	0.211462   
462.500000	0.128507   
463.000000	0.029568   
463.500000	0.071265   
464.000000	0.040060   
464.500000	-0.186500  
465.000000	-0.376568  
465.500000	-0.212689  
466.000000	0.058401   
466.500000	0.154636   
467.000000	-0.021143  
467.500000	-0.185825  
468.000000	-0.330924  
468.500000	-0.247272  
469.000000	-0.087068  
469.500000	0.039348   
470.000000	-0.076780  
470.500000	-0.081931  
471.000000	0.061462   
471.500000	0.260553   
472.000000	0.164098   
472.500000	-0.023803  
473.000000	-0.182242  
473.500000	-0.244083  
474.000000	-0.286916  
474.500000	-0.134462  
475.000000	0.074818   
475.500000	0.222037   
476.000000	0.017484   
476.500000	-0.059242  
477.000000	-0.002727  
477.500000	0.124984   
478.000000	-0.042462  
478.500000	-0.141962  
479.000000	-0.100083  
479.500000	0.029371   
480.000000	0.002265   
480.500000	-0.176083  
481.000000	-0.146500  
481.500000	0.063454   
482.000000	0.327295   
482.500000	0.326068   
483.000000	0.242568   
483.500000	0.188272   
484.000000	0.181363   
484.500000	0.067598   
485.000000	-0.002318  
485.500000	0.001000   
486.000000	-0.076674  
486.500000	-0.220780  
487.000000	-0.253212  
487.500000	-0.105863  
488.000000	-0.009825  
488.500000	-0.021568  
489.000000	0.008666   
489.500000	0.199916   
490.000000	0.379886   
490.500000	0.421242   
491.000000	0.340962   
491.500000	0.175765   
492.000000	0.101734   
492.500000	0.197265   
493.000000	0.397916   
493.500000	0.401106   
494.000000	0.199825   
494.500000	-0.004651  
495.000000	-0.084325  
495.500000	-0.070174  
496.000000	0.070060   
496.500000	0.221098   
497.000000	0.283113   
497.500000	0.287787   
498.000000	0.391810   
498.500000	0.558757   
499.000000	0.652037   
499.500000	0.745924   
500.000000	0.876060   
500.500000	0.926962   
501.000000	0.820113   
501.500000	0.784416   
502.000000	0.820454   
502.500000	0.984522   
503.000000	1.089674   
503.500000	1.143378   
504.000000	0.953371   
504.500000	0.788151   
505.000000	0.800939   
505.500000	1.256765   
506.000000	1.700227   
506.500000	1.957507   
507.000000	1.787106   
507.500000	1.527401   
508.000000	1.550348   
508.500000	1.682121   
509.000000	1.814378   
509.500000	1.768992   
510.000000	1.818969   
510.500000	1.954053   
511.000000	2.312795   
511.500000	2.666068   
512.000000	2.982931   
512.500000	2.921901   
513.000000	2.777083   
513.500000	2.828462   
514.000000	3.106325   
514.500000	3.133621   
515.000000	3.010083   
515.500000	2.777280   
516.000000	2.862318   
516.500000	2.976946   
517.000000	3.067946   
517.500000	3.012734   
518.000000	3.062901   
518.500000	3.094901   
519.000000	3.028871   
519.500000	2.992863   
520.000000	3.139333   
520.500000	3.308787   
521.000000	3.518787   
521.500000	3.584734   
522.000000	3.675303   
522.500000	3.576287   
523.000000	3.397962   
523.500000	3.182363   
524.000000	3.327954   
524.500000	3.637121   
525.000000	4.184454   
525.500000	4.540212   
526.000000	4.646409   
526.500000	4.425742   
527.000000	4.175174   
527.500000	3.993242   
528.000000	4.176840   
528.500000	4.566530   
529.000000	5.197780   
529.500000	5.705984   
530.000000	5.866484   
530.500000	5.476348   
531.000000	5.220492   
531.500000	5.267371   
532.000000	5.866689   
532.500000	6.244492   
533.000000	6.387909   
533.500000	6.247128   
534.000000	6.433590   
534.500000	6.705181   
535.000000	7.084825   
535.500000	7.418924   
536.000000	7.925356   
536.500000	8.589681   
537.000000	9.231818   
537.500000	9.708356   
538.000000	9.941325   
538.500000	10.270954  
539.000000	10.693015  
539.500000	11.367893  
540.000000	11.992219  
540.500000	12.494340  
541.000000	12.872030  
541.500000	13.287348  
542.000000	13.672886  
542.500000	13.713696  
543.000000	13.401886  
543.500000	13.021348  
544.000000	12.952325  
544.500000	12.403393  
545.000000	11.455068  
545.500000	10.550712  
546.000000	10.123507  
546.500000	9.810371   
547.000000	9.472780   
547.500000	9.150856   
548.000000	8.940590   
548.500000	8.577613   
549.000000	7.936356   
549.500000	7.040553   
550.000000	6.070295   
550.500000	5.288696   
551.000000	4.856825   
551.500000	4.474431   
552.000000	4.160628   
552.500000	3.818083   
553.000000	3.765439   
553.500000	3.736083   
554.000000	3.711363   
554.500000	3.596507   
555.000000	3.490333   
555.500000	3.471363   
556.000000	3.412181   
556.500000	3.272113   
557.000000	3.042484   
557.500000	3.043818   
558.000000	3.147318   
558.500000	3.524999   
559.000000	3.701909   
559.500000	3.642954   
560.000000	3.338424   
560.500000	3.134734   
561.000000	3.063250   
561.500000	3.184325   
562.000000	3.310530   
562.500000	3.306689   
563.000000	3.143303   
563.500000	3.039098   
564.000000	3.121689   
564.500000	3.194454   
565.000000	3.167749   
565.500000	3.154143   
566.000000	3.263136   
566.500000	3.414492   
567.000000	3.444242   
567.500000	3.403348   
568.000000	3.433083   
568.500000	3.425325   
569.000000	3.276484   
569.500000	3.014954   
570.000000	2.929545   
570.500000	3.001348   
571.000000	3.202833   
571.500000	3.240113   
572.000000	3.251401   
572.500000	3.142393   
573.000000	3.094022   
573.500000	3.100492   
574.000000	3.283712   
574.500000	3.399128   
575.000000	3.414409   
575.500000	3.328583   
576.000000	3.292136   
576.500000	3.369575   
577.000000	3.505371   
577.500000	3.538719   
578.000000	3.441015   
578.500000	3.271030   
579.000000	3.242606   
579.500000	3.341424   
580.000000	3.466075   
580.500000	3.264484   
581.000000	3.131015   
581.500000	3.160545   
582.000000	3.529204   
582.500000	3.721946   
583.000000	3.691825   
583.500000	3.529204   
584.000000	3.559780   
584.500000	3.741507   
585.000000	3.822568   
585.500000	3.810765   
586.000000	3.588454   
586.500000	3.534295   
587.000000	3.613348   
587.500000	3.819613   
588.000000	4.065575   
588.500000	4.276098   
589.000000	4.321053   
589.500000	4.187272   
590.000000	4.151530   
590.500000	4.485704   
591.000000	4.840795   
591.500000	4.666893   
592.000000	3.952090   
592.500000	3.682666   
593.000000	4.044734   
593.500000	4.666530   
594.000000	4.721196   
594.500000	4.619674   
595.000000	4.770545   
595.500000	5.067537   
596.000000	5.040227   
596.500000	4.774878   
597.000000	4.657303   
597.500000	4.763878   
598.000000	5.038931   
598.500000	5.169939   
599.000000	5.320810   
599.500000	5.428030   
600.000000	5.556530   
600.500000	5.567590   
601.000000	5.612204   
601.500000	5.832189   
602.000000	6.214280   
602.500000	6.442106   
603.000000	6.565295   
603.500000	6.757174   
604.000000	7.116727   
604.500000	7.187181   
605.000000	7.041068   
605.500000	6.897666   
606.000000	7.268863   
606.500000	7.748590   
607.000000	8.024886   
607.500000	8.017242   
608.000000	8.223439   
608.500000	8.693000   
609.000000	9.227734   
609.500000	9.658492   
610.000000	10.018909  
610.500000	10.298840  
611.000000	10.543348  
611.500000	10.822212  
612.000000	11.195681  
612.500000	11.886545  
613.000000	12.320227  
613.500000	12.525939  
614.000000	12.531128  
614.500000	12.664280  
615.000000	12.949969  
615.500000	13.592295  
616.000000	14.463916  
616.500000	14.955037  
617.000000	15.018022  
617.500000	14.961651  
618.000000	15.843424  
618.500000	17.065310  
619.000000	18.097833  
619.500000	18.701606  
620.000000	19.349674  
620.500000	20.177840  
621.000000	21.010916  
621.500000	21.710454  
622.000000	22.113424  
622.500000	22.523886  
623.000000	23.139136  
623.500000	24.152742  
624.000000	25.076159  
624.500000	25.796545  
625.000000	26.490780  
625.500000	27.270568  
626.000000	28.297590  
626.500000	29.362613  
627.000000	30.903227  
627.500000	32.082280  
628.000000	33.011462  
628.500000	33.639765  
629.000000	35.117621  
629.500000	36.814643  
630.000000	38.396969  
630.500000	39.721378  
631.000000	40.822848  
631.500000	42.024295  
632.000000	42.912674  
632.500000	44.601636  
633.000000	46.581863  
633.500000	48.658515  
634.000000	49.509431  
634.500000	50.883840  
635.000000	52.453674  
635.500000	54.569075  
636.000000	55.806530  
636.500000	56.631939  
637.000000	57.331780  
637.500000	58.946401  
638.000000	61.276621  
638.500000	64.144340  
639.000000	66.099409  
639.500000	66.858219  
640.000000	68.052037  
640.500000	69.839037  
641.000000	71.951954  
641.500000	73.329954  
642.000000	75.880477  
642.500000	78.615492  
643.000000	81.345886  
643.500000	82.393083  
644.000000	84.088196  
644.500000	86.282393  
645.000000	88.896681  
645.500000	90.189439  
646.000000	90.892871  
646.500000	91.598416  
647.000000	93.358257  
647.500000	96.378522  
648.000000	99.761136  
648.500000	102.650075 
649.000000	105.172727 
649.500000	107.260219 
650.000000	109.300446 
650.500000	110.761651 
651.000000	111.894015 
651.500000	113.027121 
652.000000	113.915363 
652.500000	114.692575 
653.000000	116.189568 
653.500000	118.783984 
654.000000	121.117931 
654.500000	122.628704 
655.000000	123.455325 
655.500000	125.047454 
656.000000	127.248295 
656.500000	129.632371 
657.000000	131.171590 
657.500000	132.253871 
658.000000	134.052810 
658.500000	136.908924 
659.000000	139.113348 
659.500000	139.686666 
660.000000	139.643250 
660.500000	140.757348 
661.000000	142.635068 
661.500000	144.086000 
662.000000	145.438477 
662.500000	146.785568 
663.000000	147.479303 
663.500000	147.248772 
664.000000	147.570893 
664.500000	149.422810 
665.000000	152.157878 
665.500000	154.048818 
666.000000	154.032962 
666.500000	153.813151 
667.000000	153.882909 
667.500000	154.925333 
668.000000	155.044363 
668.500000	155.088068 
669.000000	154.900356 
669.500000	155.671757 
670.000000	156.092613 
670.500000	155.418363 
671.000000	155.247159 
671.500000	155.334181 
672.000000	156.059750 
672.500000	154.715931 
673.000000	153.451075 
673.500000	152.190719 
674.000000	152.595151 
674.500000	152.221946 
675.000000	151.399871 
675.500000	149.568159 
676.000000	147.367636 
676.500000	145.361545 
677.000000	144.283393 
677.500000	144.238916 
678.000000	144.989515 
678.500000	144.727810 
679.000000	142.757424 
679.500000	139.392371 
680.000000	137.364984 
680.500000	137.219515 
681.000000	136.986128 
681.500000	134.862219 
682.000000	131.297560 
682.500000	128.802295 
683.000000	127.234219 
683.500000	125.951310 
684.000000	122.856962 
684.500000	120.009977 
685.000000	117.268068 
685.500000	115.136803 
686.000000	112.883606 
686.500000	110.248303 
687.000000	107.317734 
687.500000	104.413598 
688.000000	102.460045 
688.500000	101.762681 
689.000000	101.668871 
689.500000	99.929454  
690.000000	96.906022  
690.500000	93.703401  
691.000000	90.729128  
691.500000	88.091318  
692.000000	85.134257  
692.500000	82.655840  
693.000000	80.684143  
693.500000	78.517098  
694.000000	76.203045  
694.500000	73.946053  
695.000000	71.986295  
695.500000	69.834946  
696.000000	68.300318  
696.500000	66.805022  
697.000000	65.294287  
697.500000	63.018416  
698.000000	59.943810  
698.500000	57.300681  
699.000000	55.678575  
699.500000	55.189333  
700.000000	54.020272  
700.500000	52.061689  
701.000000	49.659045  
701.500000	48.134007  
702.000000	47.379492  
702.500000	47.059954  
703.000000	46.389946  
703.500000	44.931840  
704.000000	42.861810  
704.500000	40.743446  
705.000000	39.190159  
705.500000	37.937840  
706.000000	36.862689  
706.500000	35.976560  
707.000000	35.225863  
707.500000	34.340659  
708.000000	32.860272  
708.500000	31.353477  
709.000000	30.109068  
709.500000	29.811492  
710.000000	29.425977  
710.500000	29.298621  
711.000000	28.630674  
711.500000	28.011424  
712.000000	26.824098  
712.500000	25.831931  
713.000000	24.919977  
713.500000	24.370825  
714.000000	23.804015  
714.500000	23.198174  
715.000000	22.612840  
715.500000	21.897295  
716.000000	21.098901  
716.500000	20.195181  
717.000000	19.707454  
717.500000	19.682431  
718.000000	19.719128  
718.500000	19.197651  
719.000000	18.263265  
719.500000	17.404674  
720.000000	16.811053  
720.500000	16.408689  
721.000000	16.052280  
721.500000	15.830613  
722.000000	15.331621  
722.500000	14.665083  
723.000000	14.179272  
723.500000	14.139613  
724.000000	14.120143  
724.500000	13.908333  
725.000000	13.350234  
725.500000	12.942787  
726.000000	12.694174  
726.500000	12.584212  
727.000000	12.430606  
727.500000	12.251856  
728.000000	11.886560  
728.500000	11.283757  
729.000000	10.702060  
729.500000	10.590212  
730.000000	10.897621  
730.500000	10.952022  
731.000000	10.636681  
731.500000	10.257000  
732.000000	10.163939  
732.500000	9.834734   
733.000000	9.231818   
733.500000	8.557136   
734.000000	8.350151   
734.500000	8.400772   
735.000000	8.605166   
735.500000	8.625984   
736.000000	8.530393   
736.500000	8.279886   
737.000000	7.984181   
737.500000	7.738537   
738.000000	7.509007   
738.500000	7.334363   
739.000000	7.284977   
739.500000	7.316590   
740.000000	7.206363   
740.500000	7.180295   
741.000000	7.231393   
741.500000	7.271401   
742.000000	6.934287   
742.500000	6.572659   
743.000000	6.284053   
743.500000	6.420287   
744.000000	6.397553   
744.500000	6.366856   
745.000000	6.146780   
745.500000	6.169280   
746.000000	6.287037   
746.500000	6.258045   
747.000000	5.823189   
747.500000	5.230613   
748.000000	5.106825   
748.500000	5.325613   
749.000000	5.655575   
749.500000	5.562015   
750.000000	5.382628   
750.500000	5.066265   
751.000000	5.054090   
751.500000	5.106090   
752.000000	5.168454   
752.500000	5.003628   
753.000000	4.813500   
753.500000	4.507530   
754.000000	4.282575   
754.500000	4.046522   
755.000000	4.152113   
755.500000	4.289189   
756.000000	4.372098   
756.500000	4.206613   
757.000000	4.024840   
757.500000	3.873068   
758.000000	3.967106   
758.500000	4.309424   
759.000000	4.551348   
759.500000	4.520030   
760.000000	4.206121   
760.500000	4.108196   
761.000000	4.141772   
761.500000	4.200818   
762.000000	4.096462   
762.500000	4.256492   
763.000000	4.377946   
763.500000	4.344681   
764.000000	3.879621   
764.500000	3.571492   
765.000000	3.473878   
765.500000	3.648431   
766.000000	3.675931   
766.500000	3.718409   
767.000000	3.695515   
767.500000	3.719477   
768.000000	3.558371   
768.500000	3.460674   
769.000000	3.427613   
769.500000	3.582818   
770.000000	3.450007   
770.500000	3.139893   
771.000000	2.855212   
771.500000	2.989363   
772.000000	3.291378   
772.500000	3.412446   
773.000000	3.322037   
773.500000	3.150098   
774.000000	3.127537   
774.500000	3.152674   
775.000000	3.214022   
775.500000	3.076151   
776.000000	2.853969   
776.500000	2.734893   
777.000000	2.905946   
777.500000	3.133553   
778.000000	3.192098   
778.500000	3.013484   
779.000000	2.871416   
779.500000	2.762075   
780.000000	2.758310   
780.500000	2.761704   
781.000000	2.818643   
781.500000	2.795022   
782.000000	2.697962   
782.500000	2.662681   
783.000000	2.746484   
783.500000	2.930787   
784.000000	2.921803   
784.500000	2.800757   
785.000000	2.619469   
785.500000	2.661492   
786.000000	2.862901   
786.500000	3.001969   
787.000000	2.991378   
787.500000	2.749757   
788.000000	2.570098   
788.500000	2.442348   
789.000000	2.583234   
789.500000	2.769189   
790.000000	2.972303   
790.500000	2.890439   
791.000000	2.731750   
791.500000	2.495265   
792.000000	2.356560   
792.500000	2.342750   
793.000000	2.412583   
793.500000	2.340136   
794.000000	2.246356   
794.500000	2.187068   
795.000000	2.134022   
795.500000	1.947621   
796.000000	1.894954   
796.500000	1.890325   
797.000000	2.020765   
797.500000	1.933795   
798.000000	1.952946   
798.500000	2.013325   
799.000000	2.304371   
799.500000	2.463015   
800.000000	2.604803   
800.500000	2.338280   
801.000000	2.102454   
801.500000	1.865378   
802.000000	1.856280   
802.500000	1.743931   
803.000000	1.913333   
803.500000	1.906606   
804.000000	1.865727   
804.500000	1.601901   
805.000000	1.588037   
805.500000	1.758378   
806.000000	1.930409   
806.500000	1.992356   
807.000000	2.049393   
807.500000	2.255492   
808.000000	2.406333   
808.500000	2.265075   
809.000000	1.806583   
809.500000	1.349992   
810.000000	1.370287   
810.500000	1.681181   
811.000000	1.907393   
811.500000	1.849219   
812.000000	1.795272   
812.500000	1.814643   
813.000000	1.735818   
813.500000	1.614818   
814.000000	1.596113   
814.500000	1.817492   
815.000000	1.789825   
815.500000	1.534090   
816.000000	1.292681   
816.500000	1.505560   
817.000000	1.733772   
817.500000	1.722939   
818.000000	1.466916   
818.500000	1.363265   
819.000000	1.421401   
819.500000	1.563106   
820.000000	1.715856   
820.500000	1.967780   
821.000000	2.255053   
821.500000	2.369257   
822.000000	2.365257   
822.500000	2.340522   
823.000000	2.429393   
823.500000	2.567424   
824.000000	2.712446   
824.500000	2.705090   
825.000000	2.638151   
825.500000	2.423515   
826.000000	2.267219   
826.500000	2.220674   
827.000000	2.202030   
827.500000	2.061386   
828.000000	1.817363   
828.500000	1.621704   
829.000000	1.548015   
829.500000	1.499962   
830.000000	1.322045   
830.500000	1.147537   
831.000000	1.161159   
831.500000	1.288189   
832.000000	1.334378   
832.500000	1.166742   
833.000000	1.068446   
833.500000	1.149946   
834.000000	1.254287   
834.500000	1.222772   
835.000000	1.096371   
835.500000	0.942386   
836.000000	0.901416   
836.500000	0.918439   
837.000000	0.966515   
837.500000	0.903189   
838.000000	0.879499   
838.500000	0.824022   
839.000000	0.810742   
839.500000	0.707780   
840.000000	0.771151   
840.500000	0.820469   
841.000000	0.715742   
841.500000	0.444893   
842.000000	0.345856   
842.500000	0.513916   
843.000000	0.693348   
843.500000	0.708954   
844.000000	0.595098   
844.500000	0.574734   
845.000000	0.617651   
845.500000	0.664022   
846.000000	0.654999   
846.500000	0.647946   
847.000000	0.604189   
847.500000	0.486871   
848.000000	0.342401   
848.500000	0.286469   
849.000000	0.331886   
849.500000	0.378666   
850.000000	0.315219   
850.500000	0.129598   
851.000000	-0.027628  
851.500000	-0.088636  
852.000000	-0.022090  
852.500000	0.005621   
853.000000	-0.004977  
853.500000	0.000007   
854.000000	0.154348   
854.500000	0.299030   
855.000000	0.320977   
855.500000	0.184893   
856.000000	0.105340   
856.500000	0.123196   
857.000000	0.120060   
857.500000	-0.011242  
858.000000	-0.052090  
858.500000	0.134787   
859.000000	0.306545   
859.500000	0.230689   
860.000000	0.025446   
860.500000	0.013893   
861.000000	0.131265   
861.500000	0.206916   
862.000000	0.141272   
862.500000	0.033075   
863.000000	-0.048939  
863.500000	-0.045643  
864.000000	0.067068   
864.500000	0.120340   
865.000000	0.015939   
865.500000	-0.201681  
866.000000	-0.286522  
866.500000	-0.222833  
867.000000	-0.075583  
867.500000	0.016068   
868.000000	0.127128   
868.500000	0.116954   
869.000000	0.036378   
869.500000	-0.108454  
870.000000	-0.143757  
870.500000	-0.122098  
871.000000	-0.003863  
871.500000	0.131386   
872.000000	0.252060   
872.500000	0.187159   
873.000000	0.042295   
873.500000	-0.081204  
874.000000	-0.086015  
874.500000	0.048560   
875.000000	0.218878   
875.500000	0.238560   
876.000000	0.022666   
876.500000	-0.170689  
877.000000	-0.203840  
877.500000	-0.058045  
878.000000	0.004606   
878.500000	0.057840   
879.000000	0.021878   
879.500000	-0.076280  
880.000000	-0.232992  
880.500000	-0.247696  
881.000000	-0.185924  
881.500000	-0.070045  
882.000000	-0.064628  
882.500000	-0.033333  
883.000000	-0.044924  
883.500000	-0.002507  
884.000000	-0.001295  
884.500000	-0.091515  
885.000000	-0.218537  
885.500000	-0.242219  
886.000000	-0.093401  
886.500000	0.053651   
887.000000	0.148348   
887.500000	0.087000   
888.000000	-0.031901  
888.500000	-0.170840  
889.000000	-0.203545  
889.500000	-0.088886  
890.000000	0.026742   
890.500000	0.126371   
891.000000	0.136030   
891.500000	0.074893   
892.000000	-0.060424  
892.500000	-0.031598  
893.000000	0.082318   
893.500000	0.140393   
894.000000	0.023106   
894.500000	-0.011204  
895.000000	0.042477   
895.500000	0.099825   
896.000000	0.041310   
896.500000	-0.031689  
897.000000	-0.096856  
897.500000	-0.151863  
898.000000	-0.166287  
898.500000	-0.049560  
899.000000	0.069568   
899.500000	0.050848   
900.000000	-0.179340  
900.500000	-0.594999  

