PE FL                   SPECTRUM    ASCII       PEDS        1.60        
  -1
S12R#08.SP
24/04/15
15:49:39.00
24/04/15
15:51:05.00
Jan

900.500000
1









LS55
405.00
5.00
5.00
SCAN
1
20
100
100
0
400
0
1
0
1
5
ON
900 405 
1 0 0
#HDR
-1
-1
#GR
NM

0.00002384185791015625
0.0
450.000000
0.500000
902
8
208.250159
-0.737000
#DATA
450.000000	-0.737000  
450.500000	-0.375265  
451.000000	-0.084651  
451.500000	0.046409   
452.000000	0.093848   
452.500000	0.002871   
453.000000	-0.201212  
453.500000	-0.319659  
454.000000	-0.180803  
454.500000	0.048462   
455.000000	0.157916   
455.500000	0.062416   
456.000000	0.059227   
456.500000	0.203742   
457.000000	0.278522   
457.500000	0.206901   
458.000000	0.105378   
458.500000	0.057287   
459.000000	0.041068   
459.500000	-0.036356  
460.000000	-0.035984  
460.500000	-0.118772  
461.000000	-0.183492  
461.500000	-0.225000  
462.000000	-0.089606  
462.500000	0.030439   
463.000000	0.022916   
463.500000	-0.183022  
464.000000	-0.398969  
464.500000	-0.422833  
465.000000	-0.285196  
465.500000	-0.082962  
466.000000	-0.042681  
466.500000	-0.041780  
467.000000	-0.135515  
467.500000	-0.206795  
468.000000	-0.193878  
468.500000	0.022787   
469.000000	0.217303   
469.500000	0.180234   
470.000000	-0.037128  
470.500000	-0.106939  
471.000000	-0.046439  
471.500000	-0.009507  
472.000000	-0.018181  
472.500000	-0.036227  
473.000000	-0.084553  
473.500000	-0.137310  
474.000000	-0.116462  
474.500000	0.017386   
475.000000	0.082310   
475.500000	0.034204   
476.000000	-0.125863  
476.500000	-0.145416  
477.000000	0.063575   
477.500000	0.473545   
478.000000	0.718249   
478.500000	0.503257   
479.000000	0.078439   
479.500000	-0.165378  
480.000000	-0.014484  
480.500000	0.036659   
481.000000	0.012871   
481.500000	-0.061121  
482.000000	-0.024431  
482.500000	0.061598   
483.000000	0.088053   
483.500000	0.184272   
484.000000	0.211659   
484.500000	0.207340   
485.000000	0.115098   
485.500000	0.123734   
486.000000	0.144136   
486.500000	0.140015   
487.000000	0.091416   
487.500000	-0.072303  
488.000000	-0.129037  
488.500000	-0.141068  
489.000000	-0.116863  
489.500000	-0.175833  
490.000000	-0.199356  
490.500000	-0.171507  
491.000000	-0.034151  
491.500000	0.091151   
492.000000	0.216818   
492.500000	0.048371   
493.000000	-0.231272  
493.500000	-0.480356  
494.000000	-0.260310  
494.500000	0.212053   
495.000000	0.651431   
495.500000	0.680643   
496.000000	0.513068   
496.500000	0.375196   
497.000000	0.412333   
497.500000	0.448212   
498.000000	0.439946   
498.500000	0.542522   
499.000000	0.801477   
499.500000	0.969136   
500.000000	0.928848   
500.500000	0.824719   
501.000000	0.873083   
501.500000	1.081106   
502.000000	1.222878   
502.500000	1.121265   
503.000000	0.956628   
503.500000	0.841022   
504.000000	0.880840   
504.500000	0.867295   
505.000000	0.891242   
505.500000	1.013659   
506.000000	1.317621   
506.500000	1.679712   
507.000000	2.004121   
507.500000	2.323151   
508.000000	2.422106   
508.500000	2.378219   
509.000000	2.138500   
509.500000	1.975204   
510.000000	1.842833   
510.500000	1.943083   
511.000000	2.225909   
511.500000	2.648522   
512.000000	2.852795   
512.500000	2.986757   
513.000000	3.023121   
513.500000	3.124795   
514.000000	3.138484   
514.500000	3.207545   
515.000000	3.134560   
515.500000	3.086250   
516.000000	3.036772   
516.500000	3.134083   
517.000000	3.096189   
517.500000	3.037409   
518.000000	3.023810   
518.500000	3.250818   
519.000000	3.427189   
519.500000	3.506386   
520.000000	3.462204   
520.500000	3.310484   
521.000000	3.073946   
521.500000	3.010318   
522.000000	3.214257   
522.500000	3.442643   
523.000000	3.512924   
523.500000	3.466492   
524.000000	3.711492   
524.500000	4.012136   
525.000000	4.181553   
525.500000	4.124022   
526.000000	4.039075   
526.500000	4.015242   
527.000000	4.253484   
527.500000	4.621954   
528.000000	4.947060   
528.500000	4.925015   
529.000000	4.900643   
529.500000	5.112886   
530.000000	5.504568   
530.500000	5.761325   
531.000000	5.999227   
531.500000	6.164030   
532.000000	6.266189   
532.500000	6.121181   
533.000000	6.198318   
533.500000	6.667727   
534.000000	7.365348   
534.500000	7.652037   
535.000000	7.739946   
535.500000	7.872568   
536.000000	8.363234   
536.500000	9.075015   
537.000000	9.881340   
537.500000	10.571643  
538.000000	10.964621  
538.500000	11.334280  
539.000000	11.967090  
539.500000	12.867166  
540.000000	13.710424  
540.500000	14.084265  
541.000000	13.841598  
541.500000	13.377689  
542.000000	12.918628  
542.500000	13.062303  
543.000000	13.375969  
543.500000	13.533522  
544.000000	12.955568  
544.500000	12.285242  
545.000000	11.707674  
545.500000	11.495818  
546.000000	11.177356  
546.500000	10.708098  
547.000000	10.153992  
547.500000	9.400825   
548.000000	8.687916   
548.500000	7.980484   
549.000000	7.194159   
549.500000	6.277287   
550.000000	5.778871   
550.500000	5.555121   
551.000000	5.540454   
551.500000	5.237590   
552.000000	4.863280   
552.500000	4.247416   
553.000000	3.645037   
553.500000	3.137462   
554.000000	3.033643   
554.500000	3.211507   
555.000000	3.395075   
555.500000	3.479916   
556.000000	3.422318   
556.500000	3.374893   
557.000000	3.269750   
557.500000	3.177628   
558.000000	3.323742   
558.500000	3.724113   
559.000000	3.926962   
559.500000	3.622500   
560.000000	3.186863   
560.500000	3.029886   
561.000000	3.236181   
561.500000	3.525196   
562.000000	3.607204   
562.500000	3.512636   
563.000000	3.265545   
563.500000	3.038886   
564.000000	2.934053   
564.500000	3.007992   
565.000000	3.136340   
565.500000	3.222553   
566.000000	3.220113   
566.500000	3.084734   
567.000000	3.108689   
567.500000	3.242795   
568.000000	3.584568   
568.500000	3.700704   
569.000000	3.640272   
569.500000	3.468371   
570.000000	3.400462   
570.500000	3.222242   
571.000000	3.070045   
571.500000	3.015893   
572.000000	3.189356   
572.500000	3.381734   
573.000000	3.366901   
573.500000	3.208734   
574.000000	3.100136   
574.500000	3.107750   
575.000000	3.129500   
575.500000	3.120310   
576.000000	3.214454   
576.500000	3.350803   
577.000000	3.480121   
577.500000	3.460075   
578.000000	3.551992   
578.500000	3.523833   
579.000000	3.463787   
579.500000	3.471333   
580.000000	3.713136   
580.500000	3.876681   
581.000000	3.818121   
581.500000	3.546348   
582.000000	3.390590   
582.500000	3.357712   
583.000000	3.421098   
583.500000	3.379886   
584.000000	3.466969   
584.500000	3.513257   
585.000000	3.630598   
585.500000	3.556840   
586.000000	3.418962   
586.500000	3.304204   
587.000000	3.433462   
587.500000	3.658696   
588.000000	3.900893   
588.500000	3.961765   
589.000000	3.859969   
589.500000	3.709363   
590.000000	3.843560   
590.500000	4.078878   
591.000000	4.213969   
591.500000	4.028901   
592.000000	3.875446   
592.500000	3.847250   
593.000000	3.992712   
593.500000	4.178992   
594.000000	4.385333   
594.500000	4.464037   
595.000000	4.506340   
595.500000	4.675848   
596.000000	4.730090   
596.500000	4.659742   
597.000000	4.508439   
597.500000	4.676280   
598.000000	4.870825   
598.500000	5.231204   
599.000000	5.466901   
599.500000	5.663015   
600.000000	5.473045   
600.500000	5.268984   
601.000000	5.143424   
601.500000	5.257772   
602.000000	5.281416   
602.500000	5.356825   
603.000000	5.445856   
603.500000	5.901106   
604.000000	6.382371   
604.500000	6.783727   
605.000000	6.825189   
605.500000	6.633704   
606.000000	6.315681   
606.500000	6.244727   
607.000000	6.615590   
607.500000	7.148590   
608.000000	7.736007   
608.500000	8.207962   
609.000000	8.712901   
609.500000	8.913492   
610.000000	8.772477   
610.500000	8.688878   
611.000000	8.921537   
611.500000	9.426159   
612.000000	9.732590   
612.500000	9.933863   
613.000000	10.124848  
613.500000	10.495409  
614.000000	10.965984  
614.500000	11.128295  
615.000000	11.254068  
615.500000	11.147515  
616.000000	11.703250  
616.500000	12.473651  
617.000000	13.577931  
617.500000	13.893143  
618.000000	14.183431  
618.500000	14.283659  
619.000000	14.772545  
619.500000	15.084113  
620.000000	15.621787  
620.500000	16.258022  
621.000000	17.105893  
621.500000	17.752318  
622.000000	18.273696  
622.500000	18.686401  
623.000000	19.099121  
623.500000	19.688333  
624.000000	20.488575  
624.500000	21.564939  
625.000000	22.710621  
625.500000	23.416340  
626.000000	23.733075  
626.500000	24.336477  
627.000000	25.650492  
627.500000	26.910833  
628.000000	27.462446  
628.500000	27.770325  
629.000000	28.600446  
629.500000	30.109537  
630.000000	31.813530  
630.500000	32.872742  
631.000000	33.783462  
631.500000	34.472416  
632.000000	35.807204  
632.500000	37.433234  
633.000000	39.525386  
633.500000	40.797530  
634.000000	41.841856  
634.500000	42.448825  
635.000000	43.989515  
635.500000	46.171568  
636.000000	48.737863  
636.500000	50.534469  
637.000000	51.628340  
637.500000	52.308583  
638.000000	53.842787  
638.500000	55.998113  
639.000000	58.058643  
639.500000	60.047734  
640.000000	62.573037  
640.500000	65.744431  
641.000000	67.966803  
641.500000	68.897053  
642.000000	68.909901  
642.500000	70.056356  
643.000000	72.313212  
643.500000	75.193007  
644.000000	77.348772  
644.500000	79.363871  
645.000000	81.686916  
645.500000	84.589871  
646.000000	86.975484  
646.500000	89.020393  
647.000000	91.663863  
647.500000	94.641075  
648.000000	96.814977  
648.500000	98.652037  
649.000000	100.768424 
649.500000	103.941507 
650.000000	106.714750 
650.500000	109.070007 
651.000000	110.828901 
651.500000	112.920909 
652.000000	114.920613 
652.500000	117.899750 
653.000000	120.928181 
653.500000	123.168340 
654.000000	124.956431 
654.500000	127.441674 
655.000000	131.175227 
655.500000	134.187992 
656.000000	135.952886 
656.500000	138.611484 
657.000000	142.770719 
657.500000	146.910295 
658.000000	148.870356 
658.500000	149.993363 
659.000000	151.143757 
659.500000	153.341856 
660.000000	155.380833 
660.500000	158.226022 
661.000000	161.186037 
661.500000	164.235712 
662.000000	166.717939 
662.500000	169.517484 
663.000000	171.967416 
663.500000	173.708340 
664.000000	174.288053 
664.500000	176.096803 
665.000000	178.914446 
665.500000	181.747128 
666.000000	182.875742 
666.500000	184.013590 
667.000000	185.922250 
667.500000	187.941651 
668.000000	189.623590 
668.500000	191.226333 
669.000000	192.772651 
669.500000	193.134848 
670.000000	193.287568 
670.500000	194.617606 
671.000000	197.749613 
671.500000	200.172393 
672.000000	201.266742 
672.500000	201.172674 
673.000000	200.985598 
673.500000	200.682530 
674.000000	200.940196 
674.500000	202.295613 
675.000000	204.355431 
675.500000	206.471075 
676.000000	207.116909 
676.500000	208.250159 
677.000000	208.031818 
677.500000	207.322560 
678.000000	204.280507 
678.500000	203.941121 
679.000000	205.028901 
679.500000	207.194121 
680.000000	206.213651 
680.500000	204.203151 
681.000000	201.694409 
681.500000	199.457977 
682.000000	197.155954 
682.500000	196.380348 
683.000000	196.357522 
683.500000	196.020984 
684.000000	194.006787 
684.500000	192.524348 
685.000000	191.060803 
685.500000	189.763863 
686.000000	186.618234 
686.500000	184.189174 
687.000000	181.075719 
687.500000	178.459227 
688.000000	174.693606 
688.500000	172.629893 
689.000000	170.077636 
689.500000	166.711666 
690.000000	161.691310 
690.500000	158.637090 
691.000000	157.037068 
691.500000	155.386651 
692.000000	153.031363 
692.500000	150.233469 
693.000000	146.871659 
693.500000	141.555068 
694.000000	136.387469 
694.500000	132.857590 
695.000000	130.763628 
695.500000	128.052962 
696.000000	124.956227 
696.500000	122.121280 
697.000000	119.285924 
697.500000	115.814537 
698.000000	113.185037 
698.500000	110.690871 
699.000000	108.006696 
699.500000	103.545189 
700.000000	100.239462 
700.500000	98.257795  
701.000000	96.899303  
701.500000	93.868090  
702.000000	90.421598  
702.500000	87.584833  
703.000000	85.330227  
703.500000	83.283083  
704.000000	81.232886  
704.500000	79.086242  
705.000000	76.532499  
705.500000	73.750704  
706.000000	71.318371  
706.500000	68.743068  
707.000000	66.970643  
707.500000	65.884249  
708.000000	65.203325  
708.500000	63.193454  
709.000000	60.511696  
709.500000	58.043515  
710.000000	56.836848  
710.500000	56.350287  
711.000000	55.539106  
711.500000	53.378015  
712.000000	50.395901  
712.500000	48.414030  
713.000000	47.756931  
713.500000	46.683537  
714.000000	44.691000  
714.500000	42.781454  
715.000000	41.892477  
715.500000	41.106340  
716.000000	39.802651  
716.500000	38.074325  
717.000000	37.227075  
717.500000	37.146803  
718.000000	36.409272  
718.500000	34.859090  
719.000000	32.790727  
719.500000	31.862916  
720.000000	30.870393  
720.500000	29.962704  
721.000000	28.647333  
721.500000	28.341462  
722.000000	27.769992  
722.500000	27.278143  
723.000000	26.185598  
723.500000	25.246462  
724.000000	24.530787  
724.500000	23.842318  
725.000000	22.899287  
725.500000	21.984583  
726.000000	21.540916  
726.500000	21.217462  
727.000000	20.632628  
727.500000	19.882053  
728.000000	19.737227  
728.500000	19.623560  
729.000000	19.046780  
729.500000	18.177825  
730.000000	17.762439  
730.500000	17.686174  
731.000000	17.543310  
731.500000	16.946606  
732.000000	16.187598  
732.500000	15.437598  
733.000000	14.671651  
733.500000	14.271681  
734.000000	14.157545  
734.500000	14.050772  
735.000000	13.557840  
735.500000	12.855742  
736.000000	12.414825  
736.500000	12.442090  
737.000000	12.607045  
737.500000	12.479378  
738.000000	12.105196  
738.500000	11.509840  
739.000000	11.049242  
739.500000	10.827106  
740.000000	10.624651  
740.500000	10.484060  
741.000000	10.306719  
741.500000	10.189386  
742.000000	10.055469  
742.500000	9.743318   
743.000000	9.199901   
743.500000	8.919909   
744.000000	8.924590   
744.500000	9.080939   
745.000000	8.940643   
745.500000	8.621499   
746.000000	8.326659   
746.500000	8.249977   
747.000000	7.967795   
747.500000	7.775992   
748.000000	7.697689   
748.500000	7.794174   
749.000000	7.921272   
749.500000	7.759181   
750.000000	7.454204   
750.500000	7.107553   
751.000000	6.944962   
751.500000	6.781257   
752.000000	6.711962   
752.500000	6.480219   
753.000000	6.279545   
753.500000	6.064356   
754.000000	5.999189   
754.500000	5.934272   
755.000000	5.981030   
755.500000	5.894765   
756.000000	5.844568   
756.500000	5.631212   
757.000000	5.496840   
757.500000	5.309515   
758.000000	5.139939   
758.500000	5.115333   
759.000000	5.218356   
759.500000	5.401727   
760.000000	5.343484   
760.500000	5.350696   
761.000000	5.234204   
761.500000	5.172734   
762.000000	4.785128   
762.500000	4.557037   
763.000000	4.432575   
763.500000	4.527575   
764.000000	4.543719   
764.500000	4.503924   
765.000000	4.391871   
765.500000	4.320378   
766.000000	4.345636   
766.500000	4.286984   
767.000000	4.245931   
767.500000	4.215325   
768.000000	4.486272   
768.500000	4.615000   
769.000000	4.599416   
769.500000	4.298007   
770.000000	4.159750   
770.500000	3.980166   
771.000000	3.871340   
771.500000	3.672212   
772.000000	3.613712   
772.500000	3.493371   
773.000000	3.379909   
773.500000	3.253651   
774.000000	3.363363   
774.500000	3.531643   
775.000000	3.635568   
775.500000	3.502962   
776.000000	3.393393   
776.500000	3.361924   
777.000000	3.540696   
777.500000	3.637545   
778.000000	3.595992   
778.500000	3.404295   
779.000000	3.327674   
779.500000	3.322219   
780.000000	3.265787   
780.500000	3.124757   
781.000000	3.128462   
781.500000	3.226984   
782.000000	3.179356   
782.500000	3.028310   
783.000000	2.963757   
783.500000	3.041166   
784.000000	3.114871   
784.500000	3.117212   
785.000000	3.084166   
785.500000	3.112515   
786.000000	3.101750   
786.500000	2.952666   
787.000000	2.784053   
787.500000	2.703833   
788.000000	2.820136   
788.500000	2.917969   
789.000000	2.947575   
789.500000	2.864992   
790.000000	2.883962   
790.500000	2.969939   
791.000000	3.099931   
791.500000	2.991893   
792.000000	2.773674   
792.500000	2.547204   
793.000000	2.479363   
793.500000	2.438234   
794.000000	2.590060   
794.500000	2.687007   
795.000000	2.733250   
795.500000	2.590878   
796.000000	2.632613   
796.500000	2.763765   
797.000000	2.929916   
797.500000	2.867060   
798.000000	2.872121   
798.500000	2.758174   
799.000000	2.631712   
799.500000	2.332924   
800.000000	2.328681   
800.500000	2.319378   
801.000000	2.369378   
801.500000	2.141689   
802.000000	2.050909   
802.500000	2.073083   
803.000000	2.265583   
803.500000	2.375840   
804.000000	2.299022   
804.500000	2.090522   
805.000000	1.877060   
805.500000	1.872553   
806.000000	1.831598   
806.500000	1.669181   
807.000000	1.573522   
807.500000	1.690166   
808.000000	1.834227   
808.500000	1.931287   
809.000000	1.901537   
809.500000	1.945583   
810.000000	1.834015   
810.500000	1.848628   
811.000000	1.895734   
811.500000	2.100083   
812.000000	2.122780   
812.500000	2.002856   
813.000000	1.747977   
813.500000	1.541681   
814.000000	1.563409   
814.500000	1.526000   
815.000000	1.469439   
815.500000	1.411757   
816.000000	1.509795   
816.500000	1.471295   
817.000000	1.297568   
817.500000	1.259901   
818.000000	1.444060   
818.500000	1.606977   
819.000000	1.582818   
819.500000	1.604431   
820.000000	1.783219   
820.500000	1.955734   
821.000000	1.991674   
821.500000	1.992219   
822.000000	2.096287   
822.500000	2.070045   
823.000000	2.022310   
823.500000	2.082045   
824.000000	2.337780   
824.500000	2.462568   
825.000000	2.437446   
825.500000	2.258386   
826.000000	2.086409   
826.500000	1.971439   
827.000000	1.897409   
827.500000	1.853689   
828.000000	1.726537   
828.500000	1.663393   
829.000000	1.636159   
829.500000	1.605734   
830.000000	1.518098   
830.500000	1.410303   
831.000000	1.249803   
831.500000	1.062628   
832.000000	1.106500   
832.500000	1.091704   
833.000000	1.021409   
833.500000	0.850931   
834.000000	0.986325   
834.500000	1.093348   
835.000000	1.163643   
835.500000	1.049606   
836.000000	1.087621   
836.500000	1.155363   
837.000000	1.191924   
837.500000	1.123189   
838.000000	1.014424   
838.500000	0.829560   
839.000000	0.683454   
839.500000	0.644393   
840.000000	0.765787   
840.500000	0.828303   
841.000000	0.774075   
841.500000	0.637575   
842.000000	0.648901   
842.500000	0.724196   
843.000000	0.790060   
843.500000	0.771227   
844.000000	0.757545   
844.500000	0.775212   
845.000000	0.752280   
845.500000	0.632969   
846.000000	0.417098   
846.500000	0.159613   
847.000000	0.080219   
847.500000	0.225719   
848.000000	0.492787   
848.500000	0.597545   
849.000000	0.485704   
849.500000	0.283416   
850.000000	0.192856   
850.500000	0.186340   
851.000000	0.213007   
851.500000	0.171128   
852.000000	0.029227   
852.500000	0.008515   
853.000000	0.128189   
853.500000	0.323219   
854.000000	0.395219   
854.500000	0.352272   
855.000000	0.205750   
855.500000	0.048409   
856.000000	-0.065977  
856.500000	-0.059643  
857.000000	0.007219   
857.500000	0.040439   
858.000000	0.053234   
858.500000	0.017969   
859.000000	-0.006606  
859.500000	0.025227   
860.000000	0.068113   
860.500000	0.120356   
861.000000	0.149196   
861.500000	0.247356   
862.000000	0.334022   
862.500000	0.352651   
863.000000	0.235674   
863.500000	0.123469   
864.000000	0.049030   
864.500000	0.106287   
865.000000	0.149128   
865.500000	0.124378   
866.000000	-0.002757  
866.500000	0.005878   
867.000000	0.046499   
867.500000	0.115522   
868.000000	-0.022363  
868.500000	-0.054439  
869.000000	-0.050242  
869.500000	0.082378   
870.000000	0.038606   
870.500000	0.009606   
871.000000	-0.045749  
871.500000	-0.021257  
872.000000	-0.072651  
872.500000	-0.115204  
873.000000	-0.127083  
873.500000	-0.128984  
874.000000	-0.106590  
874.500000	-0.133613  
875.000000	-0.128234  
875.500000	-0.091053  
876.000000	-0.033909  
876.500000	0.046060   
877.000000	0.080174   
877.500000	0.087992   
878.000000	-0.008757  
878.500000	-0.045068  
879.000000	-0.088825  
879.500000	-0.036719  
880.000000	-0.068386  
880.500000	-0.104772  
881.000000	-0.102234  
881.500000	-0.025628  
882.000000	0.007840   
882.500000	0.035909   
883.000000	0.103295   
883.500000	0.133712   
884.000000	0.006727   
884.500000	-0.118303  
885.000000	-0.101818  
885.500000	0.107893   
886.000000	0.277659   
886.500000	0.214439   
887.000000	-0.023325  
887.500000	-0.212568  
888.000000	-0.154946  
888.500000	-0.129969  
889.000000	-0.185477  
889.500000	-0.293553  
890.000000	-0.140939  
890.500000	0.016007   
891.000000	0.057757   
891.500000	-0.040462  
892.000000	-0.091356  
892.500000	-0.125954  
893.000000	-0.172454  
893.500000	-0.207924  
894.000000	-0.204371  
894.500000	-0.173704  
895.000000	-0.133750  
895.500000	-0.095196  
896.000000	-0.022227  
896.500000	0.020068   
897.000000	0.028500   
897.500000	-0.002439  
898.000000	-0.056515  
898.500000	-0.023143  
899.000000	0.089674   
899.500000	0.179750   
900.000000	0.016871   
900.500000	-0.405000  

