PE FL                   SPECTRUM    ASCII       PEDS        1.60        
  -1
S12R#39.SP
24/04/15
16:33:52.00
24/04/15
16:35:17.00
Jan

900.500000
1









LS55
405.00
5.00
5.00
SCAN
1
20
100
100
0
400
0
1
0
1
5
ON
900 405 
1 0 0
#HDR
-1
-1
#GR
NM

0.00002384185791015625
0.0
450.000000
0.500000
902
8
161.014553
-0.565931
#DATA
450.000000	-0.032999  
450.500000	-0.108575  
451.000000	-0.077462  
451.500000	0.047007   
452.000000	-0.033840  
452.500000	-0.176643  
453.000000	-0.247083  
453.500000	-0.065651  
454.000000	0.008621   
454.500000	0.057825   
455.000000	0.010333   
455.500000	0.143628   
456.000000	0.172659   
456.500000	0.084530   
457.000000	-0.168719  
457.500000	-0.267946  
458.000000	-0.274969  
458.500000	-0.254856  
459.000000	-0.253863  
459.500000	-0.258825  
460.000000	-0.145946  
460.500000	-0.031515  
461.000000	0.090772   
461.500000	0.119659   
462.000000	0.137439   
462.500000	0.100500   
463.000000	0.106310   
463.500000	0.126272   
464.000000	0.082439   
464.500000	-0.137598  
465.000000	-0.413689  
465.500000	-0.565931  
466.000000	-0.402242  
466.500000	-0.259803  
467.000000	-0.101780  
467.500000	-0.067553  
468.000000	0.012803   
468.500000	-0.150121  
469.000000	-0.321939  
469.500000	-0.402454  
470.000000	-0.206295  
470.500000	-0.083227  
471.000000	-0.054977  
471.500000	-0.112818  
472.000000	-0.018454  
472.500000	-0.035893  
473.000000	-0.057901  
473.500000	-0.138606  
474.000000	0.027121   
474.500000	-0.004371  
475.000000	-0.086787  
475.500000	-0.191833  
476.000000	-0.102363  
476.500000	-0.111007  
477.000000	-0.205840  
477.500000	-0.252340  
478.000000	-0.163143  
478.500000	-0.066871  
479.000000	-0.022272  
479.500000	0.029431   
480.000000	0.008386   
480.500000	-0.014719  
481.000000	0.064871   
481.500000	0.268871   
482.000000	0.312780   
482.500000	0.071863   
483.000000	-0.247909  
483.500000	-0.329371  
484.000000	-0.221795  
484.500000	-0.293128  
485.000000	-0.400598  
485.500000	-0.319795  
486.000000	0.047287   
486.500000	0.189530   
487.000000	0.203469   
487.500000	0.140848   
488.000000	0.203969   
488.500000	0.119030   
489.000000	0.028204   
489.500000	0.082000   
490.000000	0.188265   
490.500000	0.118818   
491.000000	-0.067166  
491.500000	-0.007590  
492.000000	0.229166   
492.500000	0.421795   
493.000000	0.415386   
493.500000	0.381765   
494.000000	0.259886   
494.500000	-0.014537  
495.000000	-0.138068  
495.500000	0.045757   
496.000000	0.399750   
496.500000	0.532674   
497.000000	0.541893   
497.500000	0.466265   
498.000000	0.367613   
498.500000	0.344871   
499.000000	0.520939   
499.500000	0.785530   
500.000000	0.887401   
500.500000	0.933863   
501.000000	0.956833   
501.500000	1.037992   
502.000000	0.933143   
502.500000	0.878037   
503.000000	0.872113   
503.500000	1.091734   
504.000000	1.284053   
504.500000	1.386863   
505.000000	1.275810   
505.500000	1.282795   
506.000000	1.392575   
506.500000	1.424280   
507.000000	1.299492   
507.500000	1.291136   
508.000000	1.539439   
508.500000	1.799750   
509.000000	1.911931   
509.500000	1.931075   
510.000000	2.085090   
510.500000	2.046151   
511.000000	2.023151   
511.500000	2.139856   
512.000000	2.522363   
512.500000	2.696598   
513.000000	2.693477   
513.500000	2.620128   
514.000000	2.824916   
514.500000	2.959287   
515.000000	2.944916   
515.500000	2.775871   
516.000000	2.768196   
516.500000	2.814954   
517.000000	2.950196   
517.500000	2.971280   
518.000000	3.094909   
518.500000	3.123651   
519.000000	3.187250   
519.500000	3.193545   
520.000000	3.129765   
520.500000	3.189265   
521.000000	3.319469   
521.500000	3.596954   
522.000000	3.573621   
522.500000	3.528780   
523.000000	3.471212   
523.500000	3.672613   
524.000000	3.628250   
524.500000	3.495356   
525.000000	3.569249   
525.500000	3.869727   
526.000000	4.247393   
526.500000	4.268818   
527.000000	4.302174   
527.500000	4.407886   
528.000000	4.748871   
528.500000	4.847106   
529.000000	4.940431   
529.500000	4.980181   
530.000000	5.088128   
530.500000	5.141386   
531.000000	5.251295   
531.500000	5.473242   
532.000000	5.822007   
532.500000	6.174348   
533.000000	6.487007   
533.500000	6.681681   
534.000000	6.968439   
534.500000	7.278689   
535.000000	7.669469   
535.500000	7.981803   
536.000000	8.657272   
536.500000	9.267136   
537.000000	9.783484   
537.500000	9.929969   
538.000000	10.399136  
538.500000	10.952378  
539.000000	11.650901  
539.500000	11.961659  
540.000000	12.148621  
540.500000	12.264825  
541.000000	12.717901  
541.500000	13.419977  
542.000000	14.166090  
542.500000	14.608287  
543.000000	14.432500  
543.500000	13.814946  
544.000000	12.995818  
544.500000	12.494530  
545.000000	11.958159  
545.500000	11.472068  
546.000000	10.822825  
546.500000	10.152212  
547.000000	9.254659   
547.500000	8.516204   
548.000000	7.992227   
548.500000	7.588598   
549.000000	6.978393   
549.500000	6.225477   
550.000000	5.776136   
550.500000	5.558477   
551.000000	5.393318   
551.500000	4.799992   
552.000000	4.145507   
552.500000	3.600303   
553.000000	3.516318   
553.500000	3.412810   
554.000000	3.365780   
554.500000	3.242287   
555.000000	3.233265   
555.500000	3.184174   
556.000000	3.250803   
556.500000	3.276303   
557.000000	3.282712   
557.500000	3.224636   
558.000000	3.396212   
558.500000	3.555772   
559.000000	3.567045   
559.500000	3.347909   
560.000000	3.332643   
560.500000	3.332106   
561.000000	3.322780   
561.500000	3.227075   
562.000000	3.448545   
562.500000	3.625477   
563.000000	3.562121   
563.500000	3.124174   
564.000000	2.918143   
564.500000	2.911984   
565.000000	3.128204   
565.500000	3.304196   
566.000000	3.481545   
566.500000	3.502454   
567.000000	3.418954   
567.500000	3.399522   
568.000000	3.395022   
568.500000	3.400371   
569.000000	3.357772   
569.500000	3.419704   
570.000000	3.430166   
570.500000	3.412492   
571.000000	3.272363   
571.500000	3.110613   
572.000000	2.976000   
572.500000	3.035378   
573.000000	3.214803   
573.500000	3.403424   
574.000000	3.534878   
574.500000	3.711454   
575.000000	3.836234   
575.500000	3.798681   
576.000000	3.737507   
576.500000	3.687606   
577.000000	3.586659   
577.500000	3.405469   
578.000000	3.275090   
578.500000	3.239257   
579.000000	3.406166   
579.500000	3.580833   
580.000000	3.829030   
580.500000	3.761492   
581.000000	3.710856   
581.500000	3.608227   
582.000000	3.832090   
582.500000	3.835363   
583.000000	3.764893   
583.500000	3.554166   
584.000000	3.700795   
584.500000	3.846848   
585.000000	3.873939   
585.500000	3.743636   
586.000000	3.730916   
586.500000	3.698446   
587.000000	3.666174   
587.500000	3.556386   
588.000000	3.600500   
588.500000	3.499265   
589.000000	3.458492   
589.500000	3.568181   
590.000000	3.885340   
590.500000	3.917856   
591.000000	3.848492   
591.500000	3.932871   
592.000000	4.258878   
592.500000	4.568863   
593.000000	4.717060   
593.500000	4.685492   
594.000000	4.577287   
594.500000	4.341886   
595.000000	4.243765   
595.500000	4.330098   
596.000000	4.714053   
596.500000	5.085310   
597.000000	5.372424   
597.500000	5.230939   
598.000000	4.890401   
598.500000	4.698318   
599.000000	4.850227   
599.500000	5.213439   
600.000000	5.435825   
600.500000	5.836053   
601.000000	6.108984   
601.500000	6.203909   
602.000000	6.055257   
602.500000	6.411333   
603.000000	7.008022   
603.500000	7.223219   
604.000000	6.634992   
604.500000	6.385083   
605.000000	6.947318   
605.500000	7.903219   
606.000000	8.426863   
606.500000	8.422462   
607.000000	8.018803   
607.500000	7.665560   
608.000000	7.784492   
608.500000	8.220787   
609.000000	8.713939   
609.500000	8.863333   
610.000000	9.137704   
610.500000	9.365825   
611.000000	9.764022   
611.500000	10.181621  
612.000000	10.811992  
612.500000	11.178287  
613.000000	11.362507  
613.500000	11.517007  
614.000000	11.828348  
614.500000	12.406310  
615.000000	13.062886  
615.500000	13.845250  
616.000000	14.430075  
616.500000	14.973204  
617.000000	15.063348  
617.500000	15.171022  
618.000000	15.471234  
618.500000	15.880893  
619.000000	16.390439  
619.500000	16.979848  
620.000000	17.955886  
620.500000	18.724856  
621.000000	19.312916  
621.500000	19.693356  
622.000000	20.527151  
622.500000	21.233409  
623.000000	22.009446  
623.500000	22.657272  
624.000000	23.603371  
624.500000	24.479121  
625.000000	25.671613  
625.500000	26.839113  
626.000000	28.010439  
626.500000	28.712962  
627.000000	29.228833  
627.500000	30.254530  
628.000000	31.931727  
628.500000	33.429795  
629.000000	34.115636  
629.500000	34.718037  
630.000000	35.515598  
630.500000	36.791886  
631.000000	38.359340  
631.500000	40.429287  
632.000000	42.273674  
632.500000	43.513515  
633.000000	44.386121  
633.500000	45.702954  
634.000000	47.459143  
634.500000	49.042469  
635.000000	50.880401  
635.500000	52.498219  
636.000000	54.357424  
636.500000	55.541689  
637.000000	57.062174  
637.500000	58.532053  
638.000000	60.837780  
638.500000	62.620166  
639.000000	63.924954  
639.500000	64.702401  
640.000000	65.924500  
640.500000	68.517689  
641.000000	71.861037  
641.500000	74.812606  
642.000000	75.946378  
642.500000	76.160636  
643.000000	77.064159  
643.500000	79.824431  
644.000000	83.238030  
644.500000	85.777954  
645.000000	87.551931  
645.500000	88.899462  
646.000000	90.363242  
646.500000	92.554765  
647.000000	95.079984  
647.500000	97.339249  
648.000000	98.616689  
648.500000	100.278356 
649.000000	102.155507 
649.500000	104.180848 
650.000000	105.273712 
650.500000	107.080643 
651.000000	109.794878 
651.500000	112.944977 
652.000000	115.261856 
652.500000	116.607537 
653.000000	117.508825 
653.500000	119.091696 
654.000000	121.130878 
654.500000	123.156234 
655.000000	125.269022 
655.500000	127.604568 
656.000000	129.839015 
656.500000	131.053992 
657.000000	131.659159 
657.500000	132.733727 
658.000000	134.307931 
658.500000	136.924015 
659.000000	139.371681 
659.500000	141.745666 
660.000000	143.341742 
660.500000	145.439810 
661.000000	146.640378 
661.500000	147.824098 
662.000000	147.543621 
662.500000	147.542295 
663.000000	148.102227 
663.500000	150.566500 
664.000000	152.598219 
664.500000	154.593318 
665.000000	155.258522 
665.500000	156.395409 
666.000000	156.190431 
666.500000	156.477810 
667.000000	156.800765 
667.500000	157.829446 
668.000000	157.494969 
668.500000	157.048901 
669.000000	157.749492 
669.500000	159.563628 
670.000000	160.953856 
670.500000	161.014553 
671.000000	159.621113 
671.500000	158.401431 
672.000000	157.998060 
672.500000	157.692015 
673.000000	156.502871 
673.500000	155.560954 
674.000000	156.238719 
674.500000	157.683462 
675.000000	158.031727 
675.500000	156.263810 
676.000000	154.965409 
676.500000	153.902015 
677.000000	153.562340 
677.500000	152.282068 
678.000000	150.951181 
678.500000	149.515916 
679.000000	148.701583 
679.500000	147.870787 
680.000000	146.206780 
680.500000	144.233348 
681.000000	142.212090 
681.500000	141.219219 
682.000000	139.846257 
682.500000	138.235196 
683.000000	135.489636 
683.500000	132.850128 
684.000000	130.012356 
684.500000	127.445015 
685.000000	125.166818 
685.500000	122.780083 
686.000000	120.321515 
686.500000	116.835969 
687.000000	113.954507 
687.500000	111.651242 
688.000000	110.376598 
688.500000	107.797628 
689.000000	105.122303 
689.500000	102.491439 
690.000000	101.560174 
690.500000	100.997462 
691.000000	99.174386  
691.500000	95.441159  
692.000000	91.639393  
692.500000	89.454136  
693.000000	87.771318  
693.500000	84.901310  
694.000000	81.134712  
694.500000	78.370901  
695.000000	76.766681  
695.500000	74.958969  
696.000000	73.201121  
696.500000	70.566075  
697.000000	67.857537  
697.500000	65.089053  
698.000000	63.919674  
698.500000	63.063924  
699.000000	62.037704  
699.500000	59.986840  
700.000000	58.943333  
700.500000	57.567500  
701.000000	55.223250  
701.500000	51.963719  
702.000000	50.211590  
702.500000	49.088113  
703.000000	48.034159  
703.500000	46.250280  
704.000000	45.248166  
704.500000	44.517106  
705.000000	43.339393  
705.500000	41.397310  
706.000000	39.829212  
706.500000	38.765553  
707.000000	37.813401  
707.500000	36.629287  
708.000000	35.654856  
708.500000	34.760856  
709.000000	34.095159  
709.500000	33.155325  
710.000000	32.300553  
710.500000	31.303545  
711.000000	30.665659  
711.500000	30.294356  
712.000000	30.294606  
712.500000	29.449272  
713.000000	27.914545  
713.500000	25.947310  
714.000000	24.559681  
714.500000	23.892515  
715.000000	23.836492  
715.500000	23.416265  
716.000000	22.614553  
716.500000	21.637128  
717.000000	20.870636  
717.500000	20.505348  
718.000000	20.481803  
718.500000	20.584848  
719.000000	20.331674  
719.500000	19.663022  
720.000000	18.815893  
720.500000	18.036856  
721.000000	17.272530  
721.500000	16.834946  
722.000000	16.636424  
722.500000	16.561621  
723.000000	16.247037  
723.500000	15.705060  
724.000000	14.986787  
724.500000	14.793696  
725.000000	14.830962  
725.500000	14.631090  
726.000000	13.739492  
726.500000	12.728393  
727.000000	12.123265  
727.500000	12.023340  
728.000000	12.091340  
728.500000	12.142424  
729.000000	11.880143  
729.500000	11.362742  
730.000000	10.940318  
730.500000	10.705825  
731.000000	10.461250  
731.500000	10.255295  
732.000000	10.027719  
732.500000	9.996007   
733.000000	9.902090   
733.500000	9.802462   
734.000000	9.319833   
734.500000	8.791022   
735.000000	8.482189   
735.500000	8.900598   
736.000000	9.212530   
736.500000	9.386310   
737.000000	9.035704   
737.500000	8.673825   
738.000000	8.260772   
738.500000	8.078704   
739.000000	7.837378   
739.500000	7.687780   
740.000000	7.423348   
740.500000	7.098068   
741.000000	6.680848   
741.500000	6.439356   
742.000000	6.434901   
742.500000	6.487060   
743.000000	6.472553   
743.500000	6.440454   
744.000000	6.633469   
744.500000	6.622560   
745.000000	6.592515   
745.500000	6.494878   
746.000000	6.600833   
746.500000	6.425984   
747.000000	6.167545   
747.500000	5.689227   
748.000000	5.532280   
748.500000	5.630712   
749.000000	5.706628   
749.500000	5.538174   
750.000000	5.114727   
750.500000	4.922136   
751.000000	5.003113   
751.500000	5.324045   
752.000000	5.609810   
752.500000	5.653424   
753.000000	5.461424   
753.500000	5.057787   
754.000000	4.695053   
754.500000	4.249613   
755.000000	4.048075   
755.500000	4.044234   
756.000000	4.349537   
756.500000	4.535060   
757.000000	4.491015   
757.500000	4.258651   
758.000000	4.163886   
758.500000	4.132719   
759.000000	4.149856   
759.500000	4.030106   
760.000000	4.018522   
760.500000	3.863234   
761.000000	3.656143   
761.500000	3.475113   
762.000000	3.610083   
762.500000	3.980909   
763.000000	4.179393   
763.500000	4.155446   
764.000000	3.804681   
764.500000	3.407878   
765.000000	3.189295   
765.500000	3.440787   
766.000000	3.825537   
766.500000	4.022310   
767.000000	3.900916   
767.500000	3.688643   
768.000000	3.533553   
768.500000	3.326424   
769.000000	3.193189   
769.500000	3.186250   
770.000000	3.358946   
770.500000	3.386515   
771.000000	3.426878   
771.500000	3.371939   
772.000000	3.421522   
772.500000	3.245424   
773.000000	3.082469   
773.500000	2.908265   
774.000000	2.970765   
774.500000	3.026477   
775.000000	3.055166   
775.500000	2.974348   
776.000000	2.949727   
776.500000	2.984590   
777.000000	3.042416   
777.500000	3.082212   
778.000000	3.073598   
778.500000	2.967803   
779.000000	2.822803   
779.500000	2.734462   
780.000000	2.832795   
780.500000	2.982886   
781.000000	3.032886   
781.500000	2.891795   
782.000000	2.761090   
782.500000	2.761363   
783.000000	2.863234   
783.500000	2.841613   
784.000000	2.588856   
784.500000	2.453166   
785.000000	2.586159   
785.500000	2.804522   
786.000000	2.825393   
786.500000	2.695053   
787.000000	2.699840   
787.500000	2.772825   
788.000000	2.804750   
788.500000	2.802772   
789.000000	2.840674   
789.500000	2.749780   
790.000000	2.546757   
790.500000	2.422772   
791.000000	2.458916   
791.500000	2.567378   
792.000000	2.598787   
792.500000	2.599954   
793.000000	2.557939   
793.500000	2.410848   
794.000000	2.263325   
794.500000	2.320613   
795.000000	2.414121   
795.500000	2.404863   
796.000000	2.293863   
796.500000	2.272348   
797.000000	2.371265   
797.500000	2.429590   
798.000000	2.418674   
798.500000	2.195098   
799.000000	1.930325   
799.500000	1.661954   
800.000000	1.836295   
800.500000	2.061916   
801.000000	2.249568   
801.500000	2.200333   
802.000000	2.197333   
802.500000	2.205500   
803.000000	2.130734   
803.500000	2.062045   
804.000000	1.953446   
804.500000	2.057204   
805.000000	2.047750   
805.500000	2.000530   
806.000000	1.801106   
806.500000	1.742090   
807.000000	1.780393   
807.500000	1.876606   
808.000000	1.716250   
808.500000	1.413984   
809.000000	1.286977   
809.500000	1.379371   
810.000000	1.500484   
810.500000	1.568121   
811.000000	1.590037   
811.500000	1.658750   
812.000000	1.678166   
812.500000	1.466409   
813.000000	1.327265   
813.500000	1.281477   
814.000000	1.469727   
814.500000	1.674901   
815.000000	1.815712   
815.500000	1.789727   
816.000000	1.691386   
816.500000	1.500750   
817.000000	1.332227   
817.500000	1.349856   
818.000000	1.480507   
818.500000	1.686643   
819.000000	1.760295   
819.500000	1.716507   
820.000000	1.643477   
820.500000	1.643590   
821.000000	1.713401   
821.500000	1.952500   
822.000000	2.226500   
822.500000	2.549446   
823.000000	2.666999   
823.500000	2.661113   
824.000000	2.462946   
824.500000	2.238765   
825.000000	2.011356   
825.500000	1.926878   
826.000000	1.988454   
826.500000	2.168893   
827.000000	2.369310   
827.500000	2.508901   
828.000000	2.403606   
828.500000	2.205219   
829.000000	2.032409   
829.500000	1.968219   
830.000000	1.709575   
830.500000	1.455954   
831.000000	1.192477   
831.500000	1.182143   
832.000000	1.102446   
832.500000	1.045030   
833.000000	1.043613   
833.500000	1.153984   
834.000000	1.193969   
834.500000	1.116068   
835.000000	0.950356   
835.500000	0.829075   
836.000000	0.936795   
836.500000	0.962280   
837.000000	0.909098   
837.500000	0.717431   
838.000000	0.667484   
838.500000	0.633007   
839.000000	0.677469   
839.500000	0.706992   
840.000000	0.843136   
840.500000	0.856333   
841.000000	0.812356   
841.500000	0.634356   
842.000000	0.468954   
842.500000	0.363333   
843.000000	0.512931   
843.500000	0.618446   
844.000000	0.605780   
844.500000	0.437946   
845.000000	0.472575   
845.500000	0.536780   
846.000000	0.528590   
846.500000	0.465219   
847.000000	0.444015   
847.500000	0.462871   
848.000000	0.472659   
848.500000	0.360666   
849.000000	0.168666   
849.500000	0.088833   
850.000000	0.196856   
850.500000	0.350924   
851.000000	0.373924   
851.500000	0.253113   
852.000000	0.187848   
852.500000	0.101060   
853.000000	0.029803   
853.500000	0.053515   
854.000000	0.107772   
854.500000	0.132712   
855.000000	0.154833   
855.500000	0.178795   
856.000000	0.144840   
856.500000	0.095356   
857.000000	-0.004386  
857.500000	-0.042143  
858.000000	-0.055204  
858.500000	0.095234   
859.000000	0.269689   
859.500000	0.356924   
860.000000	0.301810   
860.500000	0.288954   
861.000000	0.245636   
861.500000	0.176090   
862.000000	0.043492   
862.500000	-0.025174  
863.000000	-0.101333  
863.500000	-0.146469  
864.000000	-0.200234  
864.500000	-0.100780  
865.000000	-0.082128  
865.500000	-0.034742  
866.000000	-0.031318  
866.500000	-0.043825  
867.000000	-0.084363  
867.500000	-0.065810  
868.000000	-0.030469  
868.500000	0.016401   
869.000000	0.036696   
869.500000	0.019712   
870.000000	-0.002984  
870.500000	-0.077681  
871.000000	-0.127583  
871.500000	-0.096583  
872.000000	-0.083719  
872.500000	-0.088212  
873.000000	-0.161121  
873.500000	-0.246750  
874.000000	-0.208371  
874.500000	-0.039787  
875.000000	0.068143   
875.500000	0.032651   
876.000000	-0.050666  
876.500000	-0.104901  
877.000000	-0.102810  
877.500000	-0.179848  
878.000000	-0.196068  
878.500000	-0.229181  
879.000000	-0.187189  
879.500000	-0.174310  
880.000000	-0.093984  
880.500000	-0.072462  
881.000000	-0.030015  
881.500000	-0.053606  
882.000000	-0.022515  
882.500000	-0.059492  
883.000000	-0.131151  
883.500000	-0.224954  
884.000000	-0.151522  
884.500000	-0.054151  
885.000000	-0.074181  
885.500000	-0.219075  
886.000000	-0.300272  
886.500000	-0.204196  
887.000000	-0.079886  
887.500000	0.015803   
888.000000	0.026795   
888.500000	-0.005446  
889.000000	-0.065431  
889.500000	-0.094939  
890.000000	-0.073984  
890.500000	-0.057560  
891.000000	-0.029575  
891.500000	-0.050689  
892.000000	-0.001007  
892.500000	0.012053   
893.000000	-0.006159  
893.500000	-0.058560  
894.000000	-0.019227  
894.500000	0.046212   
895.000000	0.067257   
895.500000	0.020462   
896.000000	0.027590   
896.500000	0.007575   
897.000000	-0.049022  
897.500000	-0.144818  
898.000000	-0.166401  
898.500000	-0.268931  
899.000000	-0.359977  
899.500000	-0.358500  
900.000000	-0.024757  
900.500000	0.538000   

