PE FL                   SPECTRUM    ASCII       PEDS        1.60        
  -1
S12R#34.SP
24/04/15
16:26:44.00
24/04/15
16:28:09.00
Jan

900.500000
1









LS55
405.00
5.00
5.00
SCAN
1
20
100
100
0
400
0
1
0
1
5
ON
900 405 
1 0 0
#HDR
-1
-1
#GR
NM

0.00002384185791015625
0.0
450.000000
0.500000
902
8
172.155363
-0.340681
#DATA
450.000000	-0.132000  
450.500000	0.044212   
451.000000	0.175219   
451.500000	0.219893   
452.000000	0.201530   
452.500000	0.045939   
453.000000	-0.143265  
453.500000	-0.340681  
454.000000	-0.313166  
454.500000	-0.211060  
455.000000	-0.129674  
455.500000	-0.130719  
456.000000	-0.047416  
456.500000	0.057666   
457.000000	-0.030181  
457.500000	-0.138848  
458.000000	-0.181946  
458.500000	0.053227   
459.000000	0.221583   
459.500000	0.249651   
460.000000	0.043060   
460.500000	-0.026946  
461.000000	0.006954   
461.500000	0.062553   
462.000000	0.087371   
462.500000	0.104515   
463.000000	0.149090   
463.500000	0.074272   
464.000000	0.029303   
464.500000	-0.021280  
465.000000	0.001818   
465.500000	-0.042401  
466.000000	-0.054416  
466.500000	-0.057363  
467.000000	-0.051651  
467.500000	-0.091992  
468.000000	-0.130325  
468.500000	-0.194098  
469.000000	-0.210681  
469.500000	-0.135825  
470.000000	0.027219   
470.500000	0.136128   
471.000000	0.173712   
471.500000	0.012303   
472.000000	-0.135272  
472.500000	-0.209356  
473.000000	-0.182234  
473.500000	-0.133166  
474.000000	-0.040757  
474.500000	0.122613   
475.000000	0.183909   
475.500000	0.068287   
476.000000	-0.103795  
476.500000	-0.121856  
477.000000	-0.119992  
477.500000	-0.106757  
478.000000	-0.072575  
478.500000	0.092098   
479.000000	0.198712   
479.500000	0.214969   
480.000000	0.205393   
480.500000	0.175484   
481.000000	0.084113   
481.500000	-0.020098  
482.000000	0.048984   
482.500000	0.027424   
483.000000	-0.100954  
483.500000	-0.319992  
484.000000	-0.187401  
484.500000	-0.047045  
485.000000	0.148674   
485.500000	0.190378   
486.000000	0.246962   
486.500000	0.219272   
487.000000	0.275128   
487.500000	0.430325   
488.000000	0.478500   
488.500000	0.250818   
489.000000	-0.013348  
489.500000	0.025734   
490.000000	0.089378   
490.500000	0.104416   
491.000000	0.071393   
491.500000	0.128166   
492.000000	0.190439   
492.500000	0.110363   
493.000000	0.014651   
493.500000	-0.050590  
494.000000	-0.076454  
494.500000	-0.038795  
495.000000	0.163742   
495.500000	0.328000   
496.000000	0.324689   
496.500000	0.269174   
497.000000	0.231977   
497.500000	0.378659   
498.000000	0.529583   
498.500000	0.773689   
499.000000	0.878446   
499.500000	0.925992   
500.000000	0.855022   
500.500000	0.888765   
501.000000	0.807901   
501.500000	0.767333   
502.000000	0.774143   
502.500000	0.889909   
503.000000	0.925068   
503.500000	0.872075   
504.000000	0.856128   
504.500000	0.969295   
505.000000	1.214515   
505.500000	1.318234   
506.000000	1.398992   
506.500000	1.396022   
507.000000	1.743378   
507.500000	2.111318   
508.000000	2.361704   
508.500000	2.332575   
509.000000	2.269075   
509.500000	2.130962   
510.000000	2.037992   
510.500000	2.140818   
511.000000	2.445606   
511.500000	2.769431   
512.000000	2.887916   
512.500000	2.825522   
513.000000	2.704090   
513.500000	2.647560   
514.000000	2.872636   
514.500000	3.091628   
515.000000	3.105848   
515.500000	2.893613   
516.000000	2.815272   
516.500000	2.840166   
517.000000	3.006212   
517.500000	3.254666   
518.000000	3.503371   
518.500000	3.583212   
519.000000	3.454939   
519.500000	3.414227   
520.000000	3.414015   
520.500000	3.384719   
521.000000	3.284477   
521.500000	3.328553   
522.000000	3.352871   
522.500000	3.310128   
523.000000	3.360424   
523.500000	3.709848   
524.000000	4.049750   
524.500000	3.886000   
525.000000	3.509901   
525.500000	3.473446   
526.000000	3.895469   
526.500000	4.420303   
527.000000	4.694696   
527.500000	4.780401   
528.000000	4.720128   
528.500000	4.873037   
529.000000	5.040462   
529.500000	5.294924   
530.000000	5.193696   
530.500000	5.347598   
531.000000	5.665924   
531.500000	6.276053   
532.000000	6.375250   
532.500000	6.291954   
533.000000	6.204409   
533.500000	6.612189   
534.000000	7.191924   
534.500000	7.728174   
535.000000	8.152507   
535.500000	8.534227   
536.000000	8.666689   
536.500000	8.493659   
537.000000	8.454287   
537.500000	8.933462   
538.000000	9.899068   
538.500000	10.997696  
539.000000	11.864340  
539.500000	12.403431  
540.000000	12.690310  
540.500000	12.982030  
541.000000	13.477106  
541.500000	13.752393  
542.000000	13.634613  
542.500000	13.343492  
543.000000	13.288575  
543.500000	13.128204  
544.000000	12.861977  
544.500000	12.213340  
545.000000	11.641280  
545.500000	11.109416  
546.000000	10.881409  
546.500000	10.365606  
547.000000	9.734333   
547.500000	8.755136   
548.000000	8.170704   
548.500000	7.683803   
549.000000	7.286106   
549.500000	6.548083   
550.000000	5.867265   
550.500000	5.319810   
551.000000	5.091030   
551.500000	4.753386   
552.000000	4.203939   
552.500000	3.942113   
553.000000	3.856689   
553.500000	3.768939   
554.000000	3.395939   
554.500000	3.226098   
555.000000	3.247113   
555.500000	3.413954   
556.000000	3.326053   
556.500000	3.292439   
557.000000	3.290386   
557.500000	3.334257   
558.000000	3.420795   
558.500000	3.796356   
559.000000	4.109795   
559.500000	4.109030   
560.000000	3.575242   
560.500000	3.109477   
561.000000	2.839446   
561.500000	2.880568   
562.000000	2.966265   
562.500000	3.302015   
563.000000	3.546166   
563.500000	3.588856   
564.000000	3.366181   
564.500000	3.111477   
565.000000	2.901128   
565.500000	2.801651   
566.000000	2.942560   
566.500000	3.105984   
567.000000	3.219530   
567.500000	3.211106   
568.000000	3.283492   
568.500000	3.238742   
569.000000	3.079848   
569.500000	2.954856   
570.000000	3.112121   
570.500000	3.367060   
571.000000	3.571628   
571.500000	3.562340   
572.000000	3.395969   
572.500000	3.099075   
573.000000	3.151674   
573.500000	3.406537   
574.000000	3.691454   
574.500000	3.732704   
575.000000	3.755143   
575.500000	3.680833   
576.000000	3.502916   
576.500000	3.198212   
577.000000	3.187787   
577.500000	3.466053   
578.000000	3.809295   
578.500000	3.967553   
579.000000	3.846492   
579.500000	3.571287   
580.000000	3.371121   
580.500000	3.313696   
581.000000	3.462469   
581.500000	3.612151   
582.000000	3.549613   
582.500000	3.294522   
583.000000	3.170856   
583.500000	3.174325   
584.000000	3.258409   
584.500000	3.317424   
585.000000	3.482628   
585.500000	3.738598   
586.000000	3.901825   
586.500000	3.906446   
587.000000	3.785613   
587.500000	3.553386   
588.000000	3.404446   
588.500000	3.500681   
589.000000	3.727128   
589.500000	3.810962   
590.000000	3.832196   
590.500000	3.891560   
591.000000	4.061522   
591.500000	4.249924   
592.000000	4.432159   
592.500000	4.607030   
593.000000	4.759803   
593.500000	4.818803   
594.000000	4.816757   
594.500000	4.649924   
595.000000	4.475810   
595.500000	4.504053   
596.000000	4.717196   
596.500000	4.752280   
597.000000	4.664363   
597.500000	4.761053   
598.000000	5.179113   
598.500000	5.277378   
599.000000	5.021159   
599.500000	4.853787   
600.000000	5.233030   
600.500000	5.601984   
601.000000	5.774780   
601.500000	5.959416   
602.000000	6.248984   
602.500000	6.233196   
603.000000	5.884227   
603.500000	5.830121   
604.000000	6.308098   
604.500000	6.965742   
605.000000	7.273075   
605.500000	7.261530   
606.000000	7.075901   
606.500000	7.039469   
607.000000	7.351037   
607.500000	7.955257   
608.000000	8.463954   
608.500000	8.637015   
609.000000	8.894742   
609.500000	9.363583   
610.000000	9.833121   
610.500000	9.901939   
611.000000	9.977643   
611.500000	10.103401  
612.000000	10.487060  
612.500000	10.814287  
613.000000	11.269537  
613.500000	11.664893  
614.000000	11.931151  
614.500000	12.317704  
615.000000	12.882477  
615.500000	13.508318  
616.000000	13.998818  
616.500000	14.367924  
617.000000	14.553840  
617.500000	14.546787  
618.000000	15.027795  
618.500000	15.907234  
619.000000	17.028689  
619.500000	17.584765  
620.000000	17.919257  
620.500000	18.101363  
621.000000	18.549181  
621.500000	19.177871  
622.000000	20.300772  
622.500000	21.781583  
623.000000	23.145507  
623.500000	23.947666  
624.000000	24.393727  
624.500000	24.609719  
625.000000	25.183348  
625.500000	25.774462  
626.000000	26.926439  
626.500000	28.173704  
627.000000	29.636272  
627.500000	30.509060  
628.000000	31.509189  
628.500000	32.595340  
629.000000	33.749340  
629.500000	34.464287  
630.000000	35.171507  
630.500000	36.187325  
631.000000	37.402833  
631.500000	38.948325  
632.000000	40.971651  
632.500000	43.046909  
633.000000	44.296931  
633.500000	44.705818  
634.000000	45.690196  
634.500000	47.816022  
635.000000	50.459674  
635.500000	52.544333  
636.000000	53.671628  
636.500000	54.442098  
637.000000	55.658272  
637.500000	57.546893  
638.000000	59.073901  
638.500000	60.294613  
639.000000	61.722128  
639.500000	64.134863  
640.000000	67.032772  
640.500000	69.466765  
641.000000	71.168227  
641.500000	72.431318  
642.000000	73.822075  
642.500000	75.669136  
643.000000	78.076265  
643.500000	80.556545  
644.000000	83.046863  
644.500000	84.437265  
645.000000	85.709931  
645.500000	87.313477  
646.000000	90.418825  
646.500000	93.535272  
647.000000	96.264143  
647.500000	97.913795  
648.000000	99.214454  
648.500000	101.110515 
649.000000	103.790787 
649.500000	106.795325 
650.000000	108.831818 
650.500000	110.943568 
651.000000	112.565727 
651.500000	114.525787 
652.000000	116.347742 
652.500000	118.860189 
653.000000	121.216530 
653.500000	122.977477 
654.000000	123.810265 
654.500000	125.554098 
655.000000	127.649712 
655.500000	130.061696 
656.000000	132.100303 
656.500000	133.152765 
657.000000	134.298984 
657.500000	136.444007 
658.000000	140.625287 
658.500000	144.049931 
659.000000	146.005931 
659.500000	146.270787 
660.000000	147.700401 
660.500000	148.770530 
661.000000	149.902893 
661.500000	151.639787 
662.000000	154.656560 
662.500000	157.258022 
663.000000	158.404636 
663.500000	158.767007 
664.000000	158.850712 
664.500000	159.268159 
665.000000	160.475416 
665.500000	162.553583 
666.000000	164.252568 
666.500000	165.120477 
667.000000	165.755083 
667.500000	166.742045 
668.000000	167.588636 
668.500000	168.176871 
669.000000	168.409340 
669.500000	168.447113 
670.000000	169.020750 
670.500000	169.967454 
671.000000	170.129719 
671.500000	169.662969 
672.000000	168.463454 
672.500000	167.339174 
673.000000	167.123674 
673.500000	168.978333 
674.000000	171.177931 
674.500000	172.155363 
675.000000	170.420431 
675.500000	167.850522 
676.000000	165.204340 
676.500000	163.980257 
677.000000	163.782500 
677.500000	163.907068 
678.000000	163.290075 
678.500000	162.361462 
679.000000	161.072280 
679.500000	159.005477 
680.000000	156.277992 
680.500000	154.643568 
681.000000	153.940750 
681.500000	153.164022 
682.000000	150.586318 
682.500000	147.429787 
683.000000	144.415689 
683.500000	143.316810 
684.000000	142.106901 
684.500000	140.808719 
685.000000	138.361689 
685.500000	135.733053 
686.000000	132.193325 
686.500000	129.585871 
687.000000	127.345704 
687.500000	125.559204 
688.000000	122.223128 
688.500000	118.682386 
689.000000	115.394310 
689.500000	113.580992 
690.000000	111.539522 
690.500000	109.286878 
691.000000	106.457174 
691.500000	104.117575 
692.000000	101.889621 
692.500000	99.721075  
693.000000	96.855537  
693.500000	94.434454  
694.000000	92.688484  
694.500000	90.229500  
695.000000	86.530439  
695.500000	82.857712  
696.000000	81.473772  
696.500000	80.575598  
697.000000	78.706499  
697.500000	75.136712  
698.000000	72.209643  
698.500000	69.879734  
699.000000	68.338386  
699.500000	66.920454  
700.000000	65.142598  
700.500000	62.918272  
701.000000	60.318250  
701.500000	58.354219  
702.000000	56.408772  
702.500000	55.025462  
703.000000	53.543689  
703.500000	52.545643  
704.000000	50.936681  
704.500000	48.695765  
705.000000	46.311181  
705.500000	45.074439  
706.000000	45.119462  
706.500000	44.893840  
707.000000	43.572992  
707.500000	41.310424  
708.000000	39.680151  
708.500000	38.693257  
709.000000	38.339454  
709.500000	37.814742  
710.000000	36.537113  
710.500000	34.582431  
711.000000	32.818734  
711.500000	32.089015  
712.000000	31.715765  
712.500000	31.156674  
713.000000	30.171878  
713.500000	29.318083  
714.000000	28.491954  
714.500000	27.744045  
715.000000	26.672469  
715.500000	25.434484  
716.000000	24.408393  
716.500000	24.290553  
717.000000	24.319916  
717.500000	23.746727  
718.000000	22.649446  
718.500000	21.986151  
719.000000	21.542818  
719.500000	20.820568  
720.000000	19.593181  
720.500000	18.914803  
721.000000	18.796803  
721.500000	18.935159  
722.000000	18.648045  
722.500000	18.117553  
723.000000	17.397075  
723.500000	16.895962  
724.000000	16.485939  
724.500000	16.154810  
725.000000	15.768795  
725.500000	15.428424  
726.000000	15.126651  
726.500000	14.798121  
727.000000	14.314439  
727.500000	13.741856  
728.000000	13.352954  
728.500000	13.093727  
729.000000	12.997992  
729.500000	12.630431  
730.000000	12.304083  
730.500000	12.015265  
731.000000	12.047590  
731.500000	11.895621  
732.000000	11.656840  
732.500000	11.325189  
733.000000	11.039507  
733.500000	10.730318  
734.000000	10.209371  
734.500000	9.905856   
735.000000	9.657037   
735.500000	9.581393   
736.000000	9.390954   
736.500000	9.013181   
737.000000	8.598749   
737.500000	8.418674   
738.000000	8.500181   
738.500000	8.473727   
739.000000	8.353628   
739.500000	7.903060   
740.000000	7.619045   
740.500000	7.392265   
741.000000	7.335287   
741.500000	7.386575   
742.000000	7.496848   
742.500000	7.496492   
743.000000	7.485325   
743.500000	7.315325   
744.000000	6.971454   
744.500000	6.645886   
745.000000	6.455636   
745.500000	6.241636   
746.000000	6.134500   
746.500000	6.198189   
747.000000	6.376568   
747.500000	6.418348   
748.000000	6.126818   
748.500000	5.785795   
749.000000	5.463371   
749.500000	5.493590   
750.000000	5.672151   
750.500000	5.775287   
751.000000	5.368053   
751.500000	5.172931   
752.000000	5.395681   
752.500000	5.709219   
753.000000	5.665075   
753.500000	5.378674   
754.000000	5.213765   
754.500000	5.021757   
755.000000	4.723053   
755.500000	4.352818   
756.000000	4.207946   
756.500000	4.397340   
757.000000	4.689143   
757.500000	4.714401   
758.000000	4.518621   
758.500000	4.451969   
759.000000	4.418674   
759.500000	4.083810   
760.000000	3.833030   
760.500000	3.961287   
761.000000	4.388886   
761.500000	4.385219   
762.000000	4.040492   
762.500000	3.629083   
763.000000	3.658878   
763.500000	3.954840   
764.000000	4.214780   
764.500000	3.937060   
765.000000	3.450636   
765.500000	3.267469   
766.000000	3.635659   
766.500000	4.050128   
767.000000	4.172075   
767.500000	4.014280   
768.000000	3.923750   
768.500000	3.856749   
769.000000	3.692272   
769.500000	3.429030   
770.000000	3.238356   
770.500000	3.333401   
771.000000	3.515484   
771.500000	3.521242   
772.000000	3.234772   
772.500000	3.015833   
773.000000	2.980871   
773.500000	3.185901   
774.000000	3.235984   
774.500000	3.263856   
775.000000	3.276727   
775.500000	3.327734   
776.000000	3.325765   
776.500000	3.262530   
777.000000	3.211553   
777.500000	3.137530   
778.000000	3.042295   
778.500000	2.827818   
779.000000	2.717318   
779.500000	2.659893   
780.000000	2.752651   
780.500000	2.732992   
781.000000	2.729833   
781.500000	2.739166   
782.000000	2.797946   
782.500000	2.744030   
783.000000	2.697257   
783.500000	2.714659   
784.000000	2.844416   
784.500000	3.111666   
785.000000	3.338795   
785.500000	3.374280   
786.000000	3.022742   
786.500000	2.596272   
787.000000	2.505166   
787.500000	2.684280   
788.000000	2.840265   
788.500000	2.736106   
789.000000	2.656348   
789.500000	2.633704   
790.000000	2.784787   
790.500000	2.854590   
791.000000	2.787590   
791.500000	2.642272   
792.000000	2.531424   
792.500000	2.627022   
793.000000	2.620454   
793.500000	2.614856   
794.000000	2.609689   
794.500000	2.711628   
795.000000	2.598969   
795.500000	2.373749   
796.000000	2.231636   
796.500000	2.423356   
797.000000	2.640833   
797.500000	2.631424   
798.000000	2.331287   
798.500000	2.174780   
799.000000	2.304371   
799.500000	2.607371   
800.000000	2.628363   
800.500000	2.301984   
801.000000	1.997174   
801.500000	1.896954   
802.000000	1.973212   
802.500000	1.896196   
803.000000	1.962931   
803.500000	2.051121   
804.000000	2.223348   
804.500000	2.075818   
805.000000	1.888916   
805.500000	1.617075   
806.000000	1.522340   
806.500000	1.369992   
807.000000	1.419795   
807.500000	1.470098   
808.000000	1.546886   
808.500000	1.448219   
809.000000	1.508712   
809.500000	1.616856   
810.000000	1.753250   
810.500000	1.613742   
811.000000	1.422386   
811.500000	1.254598   
812.000000	1.182068   
812.500000	1.260143   
813.000000	1.386348   
813.500000	1.441871   
814.000000	1.341340   
814.500000	1.401484   
815.000000	1.466613   
815.500000	1.450363   
816.000000	1.320962   
816.500000	1.373227   
817.000000	1.550522   
817.500000	1.572037   
818.000000	1.368606   
818.500000	1.239053   
819.000000	1.327583   
819.500000	1.614651   
820.000000	1.909378   
820.500000	2.038378   
821.000000	2.010962   
821.500000	1.958583   
822.000000	2.053151   
822.500000	2.140204   
823.000000	2.258628   
823.500000	2.248689   
824.000000	2.399439   
824.500000	2.526568   
825.000000	2.644356   
825.500000	2.617325   
826.000000	2.449250   
826.500000	2.104833   
827.000000	1.740484   
827.500000	1.615295   
828.000000	1.648628   
828.500000	1.634719   
829.000000	1.435439   
829.500000	1.332295   
830.000000	1.476250   
830.500000	1.550886   
831.000000	1.394053   
831.500000	1.055727   
832.000000	1.028363   
832.500000	1.186159   
833.000000	1.326621   
833.500000	1.177090   
834.000000	1.002234   
834.500000	0.956409   
835.000000	1.017484   
835.500000	1.049893   
836.000000	0.987787   
836.500000	0.988651   
837.000000	0.998189   
837.500000	1.035863   
838.000000	0.939454   
838.500000	0.861507   
839.000000	0.827446   
839.500000	0.849128   
840.000000	0.822757   
840.500000	0.817075   
841.000000	0.833166   
841.500000	0.854681   
842.000000	0.892454   
842.500000	0.751628   
843.000000	0.564151   
843.500000	0.402174   
844.000000	0.608431   
844.500000	0.750704   
845.000000	0.760992   
845.500000	0.544128   
846.000000	0.526386   
846.500000	0.535015   
847.000000	0.432818   
847.500000	0.227886   
848.000000	0.148007   
848.500000	0.201098   
849.000000	0.212484   
849.500000	0.193007   
850.000000	0.147030   
850.500000	0.248098   
851.000000	0.266787   
851.500000	0.198992   
852.000000	0.115128   
852.500000	0.091121   
853.000000	0.068719   
853.500000	0.126878   
854.000000	0.260280   
854.500000	0.291651   
855.000000	0.084878   
855.500000	-0.231795  
856.000000	-0.268787  
856.500000	-0.146924  
857.000000	0.004265   
857.500000	0.080174   
858.000000	0.212750   
858.500000	0.188696   
859.000000	0.051446   
859.500000	-0.117742  
860.000000	-0.073901  
860.500000	-0.042393  
861.000000	-0.070590  
861.500000	-0.156977  
862.000000	-0.152560  
862.500000	-0.065742  
863.000000	0.045643   
863.500000	0.127666   
864.000000	0.096151   
864.500000	-0.002325  
865.000000	-0.119340  
865.500000	-0.079295  
866.000000	0.064454   
866.500000	0.177825   
867.000000	0.154931   
867.500000	0.075431   
868.000000	0.025893   
868.500000	0.024204   
869.000000	0.034075   
869.500000	0.068363   
870.000000	0.127477   
870.500000	0.146522   
871.000000	0.090515   
871.500000	0.040295   
872.000000	0.023045   
872.500000	-0.034090  
873.000000	-0.095090  
873.500000	-0.151727  
874.000000	-0.012166  
874.500000	0.089545   
875.000000	0.091772   
875.500000	-0.093666  
876.000000	-0.176416  
876.500000	-0.179893  
877.000000	-0.130431  
877.500000	-0.092204  
878.000000	-0.001674  
878.500000	0.100128   
879.000000	0.128931   
879.500000	0.109893   
880.000000	0.063045   
880.500000	-0.017439  
881.000000	-0.120219  
881.500000	-0.220727  
882.000000	-0.229416  
882.500000	-0.167704  
883.000000	-0.044477  
883.500000	0.019454   
884.000000	0.011242   
884.500000	-0.071886  
885.000000	-0.103674  
885.500000	-0.095560  
886.000000	-0.042310  
886.500000	-0.023560  
887.000000	-0.002590  
887.500000	-0.022015  
888.000000	-0.011053  
888.500000	-0.000106  
889.000000	0.067053   
889.500000	0.084083   
890.000000	0.063265   
890.500000	0.105257   
891.000000	0.214363   
891.500000	0.238916   
892.000000	0.136196   
892.500000	0.033250   
893.000000	0.053068   
893.500000	0.128840   
894.000000	0.130348   
894.500000	0.052424   
895.000000	-0.017053  
895.500000	-0.020659  
896.000000	0.092060   
896.500000	0.166651   
897.000000	0.124189   
897.500000	0.043045   
898.000000	0.031568   
898.500000	0.066901   
899.000000	0.075863   
899.500000	0.024810   
900.000000	-0.033992  
900.500000	-0.063000  

