PE FL                   SPECTRUM    ASCII       PEDS        1.60        
  -1
S12R#49.SP
24/04/15
16:48:08.00
24/04/15
16:49:33.00
Jan

900.500000
1









LS55
405.00
5.00
5.00
SCAN
1
20
100
100
0
400
0
1
0
1
5
ON
900 405 
1 0 0
#HDR
-1
-1
#GR
NM

0.00002384185791015625
0.0
450.000000
0.500000
902
8
149.324136
-0.738000
#DATA
450.000000	1.053000   
450.500000	0.220833   
451.000000	-0.104022  
451.500000	-0.101530  
452.000000	-0.046909  
452.500000	-0.144325  
453.000000	-0.118045  
453.500000	-0.095409  
454.000000	0.010818   
454.500000	0.006333   
455.000000	-0.028962  
455.500000	-0.172954  
456.000000	-0.277916  
456.500000	-0.316242  
457.000000	-0.197340  
457.500000	-0.105931  
458.000000	-0.015787  
458.500000	-0.007477  
459.000000	0.022954   
459.500000	-0.071909  
460.000000	-0.223424  
460.500000	-0.287090  
461.000000	-0.150992  
461.500000	-0.007606  
462.000000	-0.037053  
462.500000	-0.080560  
463.000000	0.068931   
463.500000	0.329643   
464.000000	0.464462   
464.500000	0.212484   
465.000000	-0.110795  
465.500000	-0.279757  
466.000000	-0.098515  
466.500000	0.057810   
467.000000	0.147651   
467.500000	0.054371   
468.000000	-0.090750  
468.500000	-0.150098  
469.000000	-0.195053  
469.500000	-0.107310  
470.000000	-0.078333  
470.500000	0.025568   
471.000000	0.043840   
471.500000	0.039272   
472.000000	-0.025916  
472.500000	-0.051189  
473.000000	-0.038954  
473.500000	-0.056916  
474.000000	0.001409   
474.500000	0.088893   
475.000000	0.154840   
475.500000	0.155545   
476.000000	0.129181   
476.500000	0.111037   
477.000000	0.098166   
477.500000	0.154068   
478.000000	0.061795   
478.500000	-0.065931  
479.000000	-0.214780  
479.500000	-0.106863  
480.000000	0.003189   
480.500000	0.030492   
481.000000	-0.211371  
481.500000	-0.325128  
482.000000	-0.295856  
482.500000	-0.044818  
483.000000	0.030780   
483.500000	-0.044696  
484.000000	-0.192363  
484.500000	-0.313674  
485.000000	-0.315992  
485.500000	-0.208333  
486.000000	0.105924   
486.500000	0.195689   
487.000000	0.064886   
487.500000	-0.204348  
488.000000	-0.133060  
488.500000	-0.046916  
489.000000	0.055477   
489.500000	0.054795   
490.000000	0.004310   
490.500000	0.010560   
491.000000	0.112575   
491.500000	0.348931   
492.000000	0.363227   
492.500000	0.124772   
493.000000	-0.212348  
493.500000	-0.156689  
494.000000	0.149537   
494.500000	0.292318   
495.000000	0.080500   
495.500000	-0.180681  
496.000000	-0.212272  
496.500000	-0.070636  
497.000000	0.059303   
497.500000	0.267924   
498.000000	0.554037   
498.500000	0.709871   
499.000000	0.637522   
499.500000	0.678303   
500.000000	0.850810   
500.500000	1.000689   
501.000000	0.960863   
501.500000	0.834166   
502.000000	0.818386   
502.500000	0.876356   
503.000000	0.870924   
503.500000	0.821704   
504.000000	0.859568   
504.500000	0.950068   
505.000000	1.047310   
505.500000	1.043924   
506.000000	1.153477   
506.500000	1.531772   
507.000000	1.916787   
507.500000	1.987128   
508.000000	1.771924   
508.500000	1.819174   
509.000000	2.105628   
509.500000	2.390234   
510.000000	2.390295   
510.500000	2.467712   
511.000000	2.612795   
511.500000	2.702401   
512.000000	2.563265   
512.500000	2.519325   
513.000000	2.691606   
513.500000	2.936522   
514.000000	2.998856   
514.500000	2.905143   
515.000000	2.857060   
515.500000	2.879765   
516.000000	2.920992   
516.500000	2.921242   
517.000000	3.052674   
517.500000	3.139272   
518.000000	3.206234   
518.500000	3.128242   
519.000000	3.023537   
519.500000	3.009333   
520.000000	3.162909   
520.500000	3.408704   
521.000000	3.463393   
521.500000	3.380886   
522.000000	3.354310   
522.500000	3.447560   
523.000000	3.457015   
523.500000	3.442977   
524.000000	3.599196   
524.500000	3.674477   
525.000000	3.749227   
525.500000	3.806272   
526.000000	4.048999   
526.500000	4.135265   
527.000000	4.238833   
527.500000	4.467750   
528.000000	4.976893   
528.500000	5.203499   
529.000000	5.247893   
529.500000	5.195484   
530.000000	5.160643   
530.500000	5.238537   
531.000000	5.414522   
531.500000	5.896159   
532.000000	6.365181   
532.500000	6.710878   
533.000000	6.611159   
533.500000	6.457696   
534.000000	6.578106   
534.500000	7.139484   
535.000000	7.747083   
535.500000	8.017068   
536.000000	8.333075   
536.500000	8.801295   
537.000000	9.543810   
537.500000	10.160136  
538.000000	10.630121  
538.500000	11.078598  
539.000000	11.776053  
539.500000	12.744325  
540.000000	13.557227  
540.500000	13.795825  
541.000000	13.727515  
541.500000	13.821439  
542.000000	14.002295  
542.500000	13.898356  
543.000000	13.523787  
543.500000	13.140825  
544.000000	12.824000  
544.500000	12.369606  
545.000000	11.793825  
545.500000	11.098272  
546.000000	10.559492  
546.500000	9.927121   
547.000000	9.205128   
547.500000	8.301159   
548.000000	7.724659   
548.500000	7.514363   
549.000000	7.345030   
549.500000	6.979090   
550.000000	6.373022   
550.500000	5.750272   
551.000000	5.113613   
551.500000	4.878181   
552.000000	4.697068   
552.500000	4.440946   
553.000000	3.843098   
553.500000	3.345734   
554.000000	3.019477   
554.500000	2.929340   
555.000000	2.908757   
555.500000	3.053924   
556.000000	3.244871   
556.500000	3.428295   
557.000000	3.459742   
557.500000	3.426492   
558.000000	3.359045   
558.500000	3.382803   
559.000000	3.472749   
559.500000	3.624121   
560.000000	3.623477   
560.500000	3.427621   
561.000000	3.194045   
561.500000	3.260606   
562.000000	3.381939   
562.500000	3.486037   
563.000000	3.419075   
563.500000	3.310772   
564.000000	3.061621   
564.500000	3.125310   
565.000000	3.258651   
565.500000	3.440022   
566.000000	3.353393   
566.500000	3.348401   
567.000000	3.304318   
567.500000	3.130500   
568.000000	2.837765   
568.500000	2.847280   
569.000000	3.184575   
569.500000	3.516992   
570.000000	3.615909   
570.500000	3.500265   
571.000000	3.236992   
571.500000	3.112696   
572.000000	3.249143   
572.500000	3.492250   
573.000000	3.531454   
573.500000	3.274416   
574.000000	3.074893   
574.500000	3.043000   
575.000000	3.196909   
575.500000	3.422113   
576.000000	3.694022   
576.500000	3.762121   
577.000000	3.563083   
577.500000	3.234803   
578.000000	3.084242   
578.500000	3.242674   
579.000000	3.463833   
579.500000	3.547727   
580.000000	3.439734   
580.500000	3.269545   
581.000000	3.165871   
581.500000	3.135416   
582.000000	3.292272   
582.500000	3.464098   
583.000000	3.584931   
583.500000	3.538818   
584.000000	3.429204   
584.500000	3.372522   
585.000000	3.469765   
585.500000	3.621984   
586.000000	3.792590   
586.500000	3.947151   
587.000000	4.046060   
587.500000	4.019265   
588.000000	3.866954   
588.500000	3.643803   
589.000000	3.563333   
589.500000	3.579462   
590.000000	3.718537   
590.500000	3.881901   
591.000000	4.140560   
591.500000	4.380060   
592.000000	4.644348   
592.500000	4.840477   
593.000000	5.024643   
593.500000	5.064469   
594.000000	5.064053   
594.500000	4.978484   
595.000000	4.971431   
595.500000	4.880227   
596.000000	4.958234   
596.500000	4.849431   
597.000000	4.871409   
597.500000	4.997287   
598.000000	5.506060   
598.500000	5.598333   
599.000000	5.437696   
599.500000	5.092575   
600.000000	5.204734   
600.500000	5.566674   
601.000000	6.224825   
601.500000	6.926924   
602.000000	7.388386   
602.500000	7.314068   
603.000000	6.910227   
603.500000	6.644749   
604.000000	6.599356   
604.500000	6.781272   
605.000000	7.116522   
605.500000	7.521075   
606.000000	7.931159   
606.500000	8.158651   
607.000000	8.161939   
607.500000	8.160219   
608.000000	8.527053   
608.500000	9.043265   
609.000000	9.556083   
609.500000	9.854159   
610.000000	10.122931  
610.500000	10.445840  
611.000000	10.967106  
611.500000	11.450628  
612.000000	11.864053  
612.500000	11.789492  
613.000000	11.700356  
613.500000	11.806348  
614.000000	12.443704  
614.500000	13.184446  
615.000000	14.169113  
615.500000	14.597000  
616.000000	14.979962  
616.500000	15.242128  
617.000000	16.001924  
617.500000	16.372053  
618.000000	16.891742  
618.500000	17.047318  
619.000000	17.624454  
619.500000	18.134348  
620.000000	19.208439  
620.500000	20.304303  
621.000000	21.372931  
621.500000	21.783787  
622.000000	22.195159  
622.500000	22.732871  
623.000000	23.633416  
623.500000	24.672371  
624.000000	25.541128  
624.500000	26.414568  
625.000000	27.402015  
625.500000	28.577492  
626.000000	29.483598  
626.500000	30.510666  
627.000000	31.414189  
627.500000	32.426181  
628.000000	33.422780  
628.500000	34.458318  
629.000000	35.793121  
629.500000	37.104303  
630.000000	38.287530  
630.500000	39.245000  
631.000000	40.359742  
631.500000	41.527098  
632.000000	42.800295  
632.500000	44.535015  
633.000000	46.606174  
633.500000	48.639848  
634.000000	50.272598  
634.500000	51.896712  
635.000000	53.367507  
635.500000	54.405689  
636.000000	55.594219  
636.500000	57.100257  
637.000000	58.356575  
637.500000	59.333242  
638.000000	61.581893  
638.500000	65.196363  
639.000000	67.945909  
639.500000	69.177333  
640.000000	69.702719  
640.500000	71.376522  
641.000000	73.093765  
641.500000	74.795787  
642.000000	75.795113  
642.500000	77.984348  
643.000000	80.329681  
643.500000	82.588931  
644.000000	83.603401  
644.500000	85.361462  
645.000000	88.390257  
645.500000	91.556484  
646.000000	93.355128  
646.500000	93.952424  
647.000000	94.917106  
647.500000	96.435734  
648.000000	98.259249  
648.500000	99.705212  
649.000000	101.085462 
649.500000	103.006643 
650.000000	105.519371 
650.500000	107.943272 
651.000000	109.287242 
651.500000	110.812825 
652.000000	112.305007 
652.500000	113.864613 
653.000000	114.601568 
653.500000	116.045022 
654.000000	118.319446 
654.500000	121.550037 
655.000000	123.716651 
655.500000	124.377666 
656.000000	123.941992 
656.500000	124.663878 
657.000000	127.416598 
657.500000	130.821386 
658.000000	133.746106 
658.500000	135.533681 
659.000000	136.334681 
659.500000	135.819098 
660.000000	135.530840 
660.500000	136.727530 
661.000000	139.453666 
661.500000	141.499151 
662.000000	142.316386 
662.500000	142.532750 
663.000000	142.959007 
663.500000	143.592787 
664.000000	144.668651 
664.500000	145.495484 
665.000000	146.701401 
665.500000	147.274939 
666.000000	147.713477 
666.500000	147.510598 
667.000000	147.650007 
667.500000	147.244636 
668.000000	147.923840 
668.500000	148.031000 
669.000000	147.949250 
669.500000	146.671628 
670.000000	146.694113 
670.500000	147.691939 
671.000000	149.324136 
671.500000	148.821477 
672.000000	147.456962 
672.500000	145.850000 
673.000000	145.984098 
673.500000	146.170045 
674.000000	145.830969 
674.500000	143.775151 
675.000000	141.971886 
675.500000	140.847931 
676.000000	139.856409 
676.500000	137.684871 
677.000000	135.515227 
677.500000	134.710492 
678.000000	134.628000 
678.500000	133.993871 
679.000000	131.804818 
679.500000	129.465060 
680.000000	127.549090 
680.500000	127.020227 
681.000000	125.694659 
681.500000	123.318416 
682.000000	119.814401 
682.500000	118.690128 
683.000000	118.301962 
683.500000	117.104409 
684.000000	112.841098 
684.500000	109.011500 
685.000000	106.401363 
685.500000	105.476045 
686.000000	103.825143 
686.500000	101.763181 
687.000000	98.860871  
687.500000	96.560742  
688.000000	94.915053  
688.500000	94.372106  
689.000000	92.745704  
689.500000	89.919378  
690.000000	86.009128  
690.500000	82.756121  
691.000000	80.381992  
691.500000	79.001075  
692.000000	77.671992  
692.500000	76.356431  
693.000000	74.290977  
693.500000	72.235507  
694.000000	69.960068  
694.500000	67.475909  
695.000000	64.100696  
695.500000	60.960386  
696.000000	58.388484  
696.500000	57.093977  
697.000000	56.338871  
697.500000	55.637037  
698.000000	54.347863  
698.500000	52.480000  
699.000000	50.346159  
699.500000	48.587007  
700.000000	47.445409  
700.500000	45.967045  
701.000000	44.260007  
701.500000	42.950931  
702.000000	42.291159  
702.500000	41.431272  
703.000000	39.833818  
703.500000	38.156227  
704.000000	37.047189  
704.500000	36.761212  
705.000000	36.453598  
705.500000	35.694181  
706.000000	33.892939  
706.500000	32.125636  
707.000000	31.037681  
707.500000	30.712810  
708.000000	29.980825  
708.500000	29.287265  
709.000000	28.526371  
709.500000	28.137893  
710.000000	27.247053  
710.500000	26.616030  
711.000000	26.027166  
711.500000	25.567553  
712.000000	24.509166  
712.500000	23.155522  
713.000000	22.316977  
713.500000	21.959446  
714.000000	21.626916  
714.500000	21.034242  
715.000000	20.524325  
715.500000	20.288893  
716.000000	19.785477  
716.500000	19.218840  
717.000000	18.607795  
717.500000	18.599439  
718.000000	18.057492  
718.500000	17.088742  
719.000000	15.876893  
719.500000	15.283575  
720.000000	15.385068  
720.500000	15.250439  
721.000000	14.744075  
721.500000	13.992371  
722.000000	13.635568  
722.500000	13.108727  
723.000000	12.765136  
723.500000	12.205553  
724.000000	12.092234  
724.500000	12.124765  
725.000000	12.508886  
725.500000	12.660371  
726.000000	12.364553  
726.500000	11.765287  
727.000000	11.325356  
727.500000	10.998340  
728.000000	10.532628  
728.500000	10.359090  
729.000000	10.412719  
729.500000	10.517742  
730.000000	9.939053   
730.500000	9.380037   
731.000000	9.072477   
731.500000	9.199227   
732.000000	9.104401   
732.500000	8.999401   
733.000000	8.636219   
733.500000	8.352037   
734.000000	7.846257   
734.500000	7.500151   
735.000000	7.282113   
735.500000	7.243393   
736.000000	7.434704   
736.500000	7.678583   
737.000000	7.858090   
737.500000	7.623628   
738.000000	7.334090   
738.500000	7.108386   
739.000000	7.196825   
739.500000	7.143583   
740.000000	7.016098   
740.500000	6.680318   
741.000000	6.529909   
741.500000	6.498893   
742.000000	6.610916   
742.500000	6.505250   
743.000000	6.323712   
743.500000	6.195151   
744.000000	6.282810   
744.500000	6.395606   
745.000000	6.087045   
745.500000	5.783257   
746.000000	5.552310   
746.500000	5.400924   
747.000000	4.902613   
747.500000	4.355098   
748.000000	4.146704   
748.500000	4.556083   
749.000000	4.966757   
749.500000	5.108083   
750.000000	5.155060   
750.500000	5.087727   
751.000000	4.952878   
751.500000	4.688143   
752.000000	4.550681   
752.500000	4.508431   
753.000000	4.486356   
753.500000	4.333310   
754.000000	4.446219   
754.500000	4.594749   
755.000000	4.673393   
755.500000	4.566015   
756.000000	4.442446   
756.500000	4.459643   
757.000000	4.503681   
757.500000	4.375916   
758.000000	4.022181   
758.500000	3.563219   
759.000000	3.354825   
759.500000	3.539568   
760.000000	4.026856   
760.500000	4.412128   
761.000000	4.437219   
761.500000	4.014128   
762.000000	3.582295   
762.500000	3.443969   
763.000000	3.746393   
763.500000	3.987825   
764.000000	3.923121   
764.500000	3.551704   
765.000000	3.336530   
765.500000	3.291560   
766.000000	3.502931   
766.500000	3.585863   
767.000000	3.585825   
767.500000	3.412174   
768.000000	3.237598   
768.500000	3.198954   
769.000000	3.383113   
769.500000	3.559984   
770.000000	3.488318   
770.500000	3.214454   
771.000000	3.063689   
771.500000	3.205984   
772.000000	3.442840   
772.500000	3.502712   
773.000000	3.336621   
773.500000	3.087424   
774.000000	3.031545   
774.500000	3.123416   
775.000000	3.139484   
775.500000	3.029689   
776.000000	2.901484   
776.500000	2.952212   
777.000000	3.010219   
777.500000	2.970166   
778.000000	2.907477   
778.500000	2.883000   
779.000000	2.989143   
779.500000	3.108234   
780.000000	3.107348   
780.500000	2.912439   
781.000000	2.788689   
781.500000	2.792280   
782.000000	2.910568   
782.500000	2.865113   
783.000000	2.787643   
783.500000	2.700613   
784.000000	2.688257   
784.500000	2.560742   
785.000000	2.556893   
785.500000	2.592295   
786.000000	2.793363   
786.500000	2.688128   
787.000000	2.487462   
787.500000	2.152689   
788.000000	2.168204   
788.500000	2.359409   
789.000000	2.698212   
789.500000	2.758803   
790.000000	2.649053   
790.500000	2.420045   
791.000000	2.349000   
791.500000	2.392227   
792.000000	2.489477   
792.500000	2.477787   
793.000000	2.402871   
793.500000	2.328090   
794.000000	2.344257   
794.500000	2.305446   
795.000000	2.280401   
795.500000	2.281621   
796.000000	2.379515   
796.500000	2.400924   
797.000000	2.412886   
797.500000	2.416363   
798.000000	2.471719   
798.500000	2.227704   
799.000000	1.969507   
799.500000	1.753818   
800.000000	1.860810   
800.500000	1.983356   
801.000000	2.137431   
801.500000	2.071219   
802.000000	1.925553   
802.500000	1.807886   
803.000000	1.810909   
803.500000	1.840977   
804.000000	1.718772   
804.500000	1.674583   
805.000000	1.632265   
805.500000	1.670121   
806.000000	1.664621   
806.500000	1.815810   
807.000000	1.857022   
807.500000	1.785750   
808.000000	1.548575   
808.500000	1.471318   
809.000000	1.420075   
809.500000	1.361734   
810.000000	1.226348   
810.500000	1.239189   
811.000000	1.479325   
811.500000	1.818916   
812.000000	1.880060   
812.500000	1.542462   
813.000000	1.304007   
813.500000	1.429848   
814.000000	1.769189   
814.500000	1.787840   
815.000000	1.493242   
815.500000	1.195537   
816.000000	1.256840   
816.500000	1.593242   
817.000000	1.846969   
817.500000	1.857325   
818.000000	1.721704   
818.500000	1.709128   
819.000000	1.774621   
819.500000	1.794666   
820.000000	1.714393   
820.500000	1.758553   
821.000000	1.775007   
821.500000	1.814424   
822.000000	1.886863   
822.500000	2.174810   
823.000000	2.248977   
823.500000	2.170916   
824.000000	1.997492   
824.500000	2.047106   
825.000000	2.153037   
825.500000	2.238424   
826.000000	2.422871   
826.500000	2.488500   
827.000000	2.278863   
827.500000	1.823348   
828.000000	1.660053   
828.500000	1.566469   
829.000000	1.485310   
829.500000	1.243181   
830.000000	1.163015   
830.500000	1.144424   
831.000000	1.190977   
831.500000	1.195037   
832.000000	1.190727   
832.500000	1.082143   
833.000000	0.976886   
833.500000	0.998159   
834.000000	1.079174   
834.500000	1.097931   
835.000000	1.034765   
835.500000	1.024022   
836.000000	1.110280   
836.500000	1.182893   
837.000000	1.127446   
837.500000	1.002098   
838.000000	0.938946   
838.500000	0.956696   
839.000000	0.946090   
839.500000	0.892037   
840.000000	0.852007   
840.500000	0.866560   
841.000000	0.860083   
841.500000	0.815189   
842.000000	0.814999   
842.500000	0.838909   
843.000000	0.714340   
843.500000	0.474750   
844.000000	0.295765   
844.500000	0.323863   
845.000000	0.521575   
845.500000	0.661106   
846.000000	0.523651   
846.500000	0.323674   
847.000000	0.215696   
847.500000	0.317469   
848.000000	0.366818   
848.500000	0.405598   
849.000000	0.378151   
849.500000	0.380295   
850.000000	0.270984   
850.500000	0.260234   
851.000000	0.280651   
851.500000	0.239295   
852.000000	0.098310   
852.500000	-0.027681  
853.000000	-0.047492  
853.500000	0.091659   
854.000000	0.352878   
854.500000	0.514477   
855.000000	0.429356   
855.500000	0.229136   
856.000000	0.124939   
856.500000	0.144446   
857.000000	0.117189   
857.500000	0.069166   
858.000000	0.032477   
858.500000	0.099090   
859.000000	0.050363   
859.500000	-0.073272  
860.000000	-0.192250  
860.500000	-0.178522  
861.000000	-0.213772  
861.500000	-0.298946  
862.000000	-0.302856  
862.500000	-0.150992  
863.000000	0.008098   
863.500000	0.071196   
864.000000	0.060583   
864.500000	0.024537   
865.000000	-0.039575  
865.500000	-0.026416  
866.000000	0.055727   
866.500000	0.063568   
867.000000	-0.024507  
867.500000	-0.135825  
868.000000	-0.086765  
868.500000	0.018393   
869.000000	0.094545   
869.500000	-0.010143  
870.000000	-0.099659  
870.500000	-0.131969  
871.000000	-0.107409  
871.500000	-0.129492  
872.000000	-0.172250  
872.500000	-0.169886  
873.000000	-0.081196  
873.500000	0.098757   
874.000000	0.198454   
874.500000	0.106537   
875.000000	-0.140484  
875.500000	-0.255121  
876.000000	-0.204371  
876.500000	-0.081219  
877.000000	-0.063181  
877.500000	-0.048227  
878.000000	-0.003037  
878.500000	0.006022   
879.000000	-0.067560  
879.500000	-0.201143  
880.000000	-0.262159  
880.500000	-0.369606  
881.000000	-0.384924  
881.500000	-0.297204  
882.000000	-0.101484  
882.500000	-0.083212  
883.000000	-0.170393  
883.500000	-0.189636  
884.000000	-0.075060  
884.500000	0.012757   
885.000000	-0.004265  
885.500000	-0.062765  
886.000000	-0.140878  
886.500000	-0.240371  
887.000000	-0.232507  
887.500000	-0.167643  
888.000000	-0.042696  
888.500000	0.041492   
889.000000	0.123742   
889.500000	0.116939   
890.000000	0.072378   
890.500000	0.015500   
891.000000	0.025553   
891.500000	0.038303   
892.000000	-0.060984  
892.500000	-0.150121  
893.000000	-0.199401  
893.500000	-0.168689  
894.000000	-0.129901  
894.500000	-0.051560  
895.000000	-0.023954  
895.500000	0.016333   
896.000000	0.058143   
896.500000	0.123901   
897.000000	0.108075   
897.500000	0.034492   
898.000000	-0.081575  
898.500000	-0.001742  
899.000000	0.167553   
899.500000	0.284833   
900.000000	-0.011833  
900.500000	-0.738000  

