PE FL                   SPECTRUM    ASCII       PEDS        1.60        
  -1
S12R#26.SP
24/04/15
16:15:19.00
24/04/15
16:16:45.00
Jan

900.500000
1









LS55
405.00
5.00
5.00
SCAN
1
20
100
100
0
400
0
1
0
1
5
ON
900 405 
1 0 0
#HDR
-1
-1
#GR
NM

0.00002384185791015625
0.0
450.000000
0.500000
902
8
177.771242
-0.549992
#DATA
450.000000	0.268000   
450.500000	0.310053   
451.000000	0.283742   
451.500000	0.244204   
452.000000	-0.081098  
452.500000	-0.154348  
453.000000	-0.178090  
453.500000	0.029234   
454.000000	-0.165393  
454.500000	-0.379984  
455.000000	-0.549992  
455.500000	-0.333689  
456.000000	-0.034999  
456.500000	0.224113   
457.000000	0.173757   
457.500000	-0.015484  
458.000000	-0.140977  
458.500000	-0.050469  
459.000000	0.014068   
459.500000	0.111787   
460.000000	0.197416   
460.500000	0.309310   
461.000000	0.237446   
461.500000	0.165742   
462.000000	0.119060   
462.500000	0.243219   
463.000000	0.188712   
463.500000	0.078734   
464.000000	-0.103636  
464.500000	-0.034166  
465.000000	0.113424   
465.500000	0.215545   
466.000000	0.079689   
466.500000	-0.046712  
467.000000	-0.075749  
467.500000	-0.056689  
468.000000	-0.056530  
468.500000	-0.107151  
469.000000	-0.165265  
469.500000	-0.227719  
470.000000	-0.275522  
470.500000	-0.210196  
471.000000	-0.087659  
471.500000	0.022204   
472.000000	0.083537   
472.500000	0.095242   
473.000000	0.121090   
473.500000	0.099356   
474.000000	0.016674   
474.500000	0.007507   
475.000000	0.103356   
475.500000	0.214984   
476.000000	0.218530   
476.500000	0.188257   
477.000000	0.097037   
477.500000	0.024340   
478.000000	-0.132984  
478.500000	-0.182681  
479.000000	-0.178386  
479.500000	-0.109492  
480.000000	-0.053590  
480.500000	-0.058598  
481.000000	-0.145143  
481.500000	-0.255507  
482.000000	-0.291939  
482.500000	-0.299643  
483.000000	-0.133878  
483.500000	0.067613   
484.000000	0.153416   
484.500000	-0.058477  
485.000000	-0.312583  
485.500000	-0.326946  
486.000000	-0.223348  
486.500000	-0.110742  
487.000000	-0.147477  
487.500000	-0.173674  
488.000000	-0.198068  
488.500000	-0.166121  
489.000000	-0.084689  
489.500000	0.003598   
490.000000	0.137227   
490.500000	0.089053   
491.000000	0.061181   
491.500000	0.016560   
492.000000	0.075560   
492.500000	0.041696   
493.000000	0.045477   
493.500000	0.195128   
494.000000	0.407651   
494.500000	0.361068   
495.000000	0.183681   
495.500000	0.175303   
496.000000	0.298772   
496.500000	0.310280   
497.000000	0.291909   
497.500000	0.392507   
498.000000	0.523386   
498.500000	0.445553   
499.000000	0.336530   
499.500000	0.470287   
500.000000	0.738022   
500.500000	0.846969   
501.000000	0.782189   
501.500000	0.687727   
502.000000	0.700704   
502.500000	0.901499   
503.000000	1.113613   
503.500000	1.177242   
504.000000	1.002136   
504.500000	0.875257   
505.000000	0.917750   
505.500000	1.090727   
506.000000	1.182833   
506.500000	1.424151   
507.000000	1.677871   
507.500000	1.986992   
508.000000	2.153924   
508.500000	2.279257   
509.000000	2.317250   
509.500000	2.381734   
510.000000	2.444515   
510.500000	2.534696   
511.000000	2.655825   
511.500000	2.727492   
512.000000	2.909265   
512.500000	2.781742   
513.000000	2.640431   
513.500000	2.497863   
514.000000	2.745946   
514.500000	2.953575   
515.000000	3.196825   
515.500000	3.180856   
516.000000	3.137265   
516.500000	2.979560   
517.000000	2.909416   
517.500000	2.916568   
518.000000	2.994568   
518.500000	3.129401   
519.000000	3.318840   
519.500000	3.493477   
520.000000	3.490340   
520.500000	3.361189   
521.000000	3.199128   
521.500000	3.156643   
522.000000	3.219909   
522.500000	3.319537   
523.000000	3.299143   
523.500000	3.308962   
524.000000	3.431037   
524.500000	3.659280   
525.000000	3.888022   
525.500000	4.106537   
526.000000	4.438901   
526.500000	4.763416   
527.000000	5.063030   
527.500000	5.186939   
528.000000	5.087507   
528.500000	4.958545   
529.000000	4.888371   
529.500000	5.052151   
530.000000	5.201189   
530.500000	5.410704   
531.000000	5.652196   
531.500000	5.991537   
532.000000	6.326666   
532.500000	6.428909   
533.000000	6.551295   
533.500000	6.801962   
534.000000	7.263363   
534.500000	7.401234   
535.000000	7.454196   
535.500000	7.791431   
536.000000	8.496931   
536.500000	8.915689   
537.000000	9.004454   
537.500000	9.240643   
538.000000	9.996833   
538.500000	10.758840  
539.000000	11.542560  
539.500000	12.063333  
540.000000	12.423492  
540.500000	12.497863  
541.000000	12.932098  
541.500000	13.589803  
542.000000	14.127151  
542.500000	13.967787  
543.000000	13.609901  
543.500000	13.288446  
544.000000	12.915795  
544.500000	12.267772  
545.000000	11.437598  
545.500000	10.800090  
546.000000	10.108000  
546.500000	9.655712   
547.000000	9.055348   
547.500000	8.720803   
548.000000	8.197810   
548.500000	7.861992   
549.000000	7.261681   
549.500000	6.652030   
550.000000	6.160128   
550.500000	5.834090   
551.000000	5.518780   
551.500000	4.807265   
552.000000	4.144909   
552.500000	3.603598   
553.000000	3.439393   
553.500000	3.441386   
554.000000	3.744295   
554.500000	3.905234   
555.000000	3.680303   
555.500000	3.216659   
556.000000	2.977757   
556.500000	2.965500   
557.000000	3.138840   
557.500000	3.288560   
558.000000	3.485287   
558.500000	3.470454   
559.000000	3.350916   
559.500000	3.189795   
560.000000	3.165757   
560.500000	3.230757   
561.000000	3.224181   
561.500000	3.152659   
562.000000	2.935727   
562.500000	2.883742   
563.000000	2.917984   
563.500000	2.936651   
564.000000	2.962303   
564.500000	3.251159   
565.000000	3.661780   
565.500000	3.761886   
566.000000	3.479628   
566.500000	3.143772   
567.000000	3.124348   
567.500000	3.282750   
568.000000	3.310287   
568.500000	3.294469   
569.000000	3.346416   
569.500000	3.440871   
570.000000	3.270719   
570.500000	2.991893   
571.000000	3.038272   
571.500000	3.410893   
572.000000	3.708636   
572.500000	3.819568   
573.000000	3.902272   
573.500000	3.734439   
574.000000	3.327780   
574.500000	3.005628   
575.000000	3.082590   
575.500000	3.306121   
576.000000	3.321886   
576.500000	3.308780   
577.000000	3.297287   
577.500000	3.320280   
578.000000	3.098303   
578.500000	3.039742   
579.000000	3.118507   
579.500000	3.418431   
580.000000	3.502015   
580.500000	3.612583   
581.000000	3.757310   
581.500000	3.922719   
582.000000	3.765287   
582.500000	3.515462   
583.000000	3.273962   
583.500000	3.212424   
584.000000	3.162530   
584.500000	3.336083   
585.000000	3.462424   
585.500000	3.583196   
586.000000	3.536583   
586.500000	3.450007   
587.000000	3.250643   
587.500000	3.277522   
588.000000	3.588946   
588.500000	4.042439   
589.000000	4.257545   
589.500000	4.189136   
590.000000	3.790053   
590.500000	3.387219   
591.000000	3.054454   
591.500000	3.251886   
592.000000	3.584424   
592.500000	3.934318   
593.000000	4.085962   
593.500000	4.266674   
594.000000	4.401060   
594.500000	4.428666   
595.000000	4.262000   
595.500000	4.224159   
596.000000	4.434590   
596.500000	4.748530   
597.000000	4.953969   
597.500000	5.015250   
598.000000	5.040734   
598.500000	5.113212   
599.000000	5.063530   
599.500000	4.908772   
600.000000	4.912636   
600.500000	4.957696   
601.000000	5.155772   
601.500000	5.280545   
602.000000	5.769121   
602.500000	6.060348   
603.000000	6.219250   
603.500000	6.127659   
604.000000	6.429416   
604.500000	6.836871   
605.000000	7.272318   
605.500000	7.389962   
606.000000	7.287795   
606.500000	7.053234   
607.000000	7.088530   
607.500000	7.609037   
608.000000	8.247363   
608.500000	8.488803   
609.000000	8.528931   
609.500000	8.728128   
610.000000	9.291075   
610.500000	9.262636   
611.000000	9.019651   
611.500000	9.124575   
612.000000	9.998553   
612.500000	10.720863  
613.000000	11.016212  
613.500000	10.879045  
614.000000	11.086143  
614.500000	11.276765  
615.000000	11.607666  
615.500000	12.138401  
616.000000	12.804901  
616.500000	13.062250  
617.000000	13.308901  
617.500000	13.609075  
618.000000	14.451446  
618.500000	15.353181  
619.000000	16.065166  
619.500000	16.514393  
620.000000	17.081696  
620.500000	17.929901  
621.000000	18.790643  
621.500000	19.324871  
622.000000	19.412500  
622.500000	19.863469  
623.000000	20.558628  
623.500000	21.264234  
624.000000	21.659166  
624.500000	22.098409  
625.000000	22.795848  
625.500000	23.993393  
626.000000	25.268674  
626.500000	26.517439  
627.000000	27.651287  
627.500000	29.139181  
628.000000	30.475189  
628.500000	31.159787  
629.000000	31.015666  
629.500000	31.415424  
630.000000	32.608999  
630.500000	34.367068  
631.000000	36.207053  
631.500000	38.207174  
632.000000	39.917393  
632.500000	41.294522  
633.000000	42.160272  
633.500000	42.860772  
634.000000	43.746151  
634.500000	44.873477  
635.000000	46.497136  
635.500000	48.686401  
636.000000	50.961204  
636.500000	52.900742  
637.000000	54.346212  
637.500000	55.520219  
638.000000	56.708272  
638.500000	58.340219  
639.000000	60.080060  
639.500000	62.257295  
640.000000	64.198196  
640.500000	65.435909  
641.000000	66.709825  
641.500000	68.750810  
642.000000	71.427196  
642.500000	74.086553  
643.000000	76.041378  
643.500000	77.685909  
644.000000	79.413939  
644.500000	81.862075  
645.000000	84.173280  
645.500000	85.894537  
646.000000	86.958181  
646.500000	88.881916  
647.000000	91.939356  
647.500000	94.823681  
648.000000	96.409712  
648.500000	97.498553  
649.000000	99.507704  
649.500000	102.651719 
650.000000	106.164954 
650.500000	108.946621 
651.000000	110.715909 
651.500000	111.860856 
652.000000	113.075333 
652.500000	114.718500 
653.000000	117.626515 
653.500000	120.653469 
654.000000	123.415696 
654.500000	125.021416 
655.000000	126.435636 
655.500000	127.673015 
656.000000	129.912159 
656.500000	132.941598 
657.000000	135.522393 
657.500000	137.006742 
658.000000	138.380045 
658.500000	140.974348 
659.000000	142.910181 
659.500000	144.391681 
660.000000	146.293681 
660.500000	150.332636 
661.000000	153.224681 
661.500000	154.141037 
662.000000	153.684977 
662.500000	155.585568 
663.000000	158.221143 
663.500000	160.636454 
664.000000	161.343560 
664.500000	162.684954 
665.000000	164.181280 
665.500000	165.596477 
666.000000	165.675666 
666.500000	166.874030 
667.000000	169.239128 
667.500000	172.226446 
668.000000	174.179719 
668.500000	175.589696 
669.000000	175.779219 
669.500000	175.247704 
670.000000	174.388553 
670.500000	174.721446 
671.000000	175.595575 
671.500000	175.753159 
672.000000	175.147553 
672.500000	175.165409 
673.000000	175.923462 
673.500000	177.031053 
674.000000	177.441909 
674.500000	177.771242 
675.000000	177.268560 
675.500000	176.716250 
676.000000	175.255174 
676.500000	175.002659 
677.000000	174.727083 
677.500000	174.689522 
678.000000	174.308287 
678.500000	174.024356 
679.000000	172.086840 
679.500000	168.734174 
680.000000	166.029151 
680.500000	165.282696 
681.000000	164.735674 
681.500000	161.965984 
682.000000	158.334121 
682.500000	156.829666 
683.000000	156.421303 
683.500000	155.240606 
684.000000	152.255484 
684.500000	148.747598 
685.000000	146.651621 
685.500000	145.754606 
686.000000	145.104575 
686.500000	142.595863 
687.000000	138.804833 
687.500000	134.237000 
688.000000	131.440636 
688.500000	129.081734 
689.000000	127.027015 
689.500000	124.852803 
690.000000	123.456386 
690.500000	121.533371 
691.000000	119.440500 
691.500000	116.335212 
692.000000	113.888393 
692.500000	111.057454 
693.000000	108.609674 
693.500000	105.244151 
694.000000	102.084446 
694.500000	98.839969  
695.000000	96.480098  
695.500000	94.492022  
696.000000	92.109393  
696.500000	89.330409  
697.000000	86.704484  
697.500000	84.482666  
698.000000	81.829462  
698.500000	78.437090  
699.000000	75.396484  
699.500000	73.414818  
700.000000	71.619272  
700.500000	69.331613  
701.000000	67.821090  
701.500000	67.056651  
702.000000	65.760227  
702.500000	63.636250  
703.000000	61.203007  
703.500000	59.238924  
704.000000	57.332590  
704.500000	55.276886  
705.000000	53.505803  
705.500000	51.963492  
706.000000	50.825378  
706.500000	49.283280  
707.000000	47.970454  
707.500000	46.167674  
708.000000	45.181249  
708.500000	43.629196  
709.000000	42.241469  
709.500000	40.770242  
710.000000	40.048575  
710.500000	39.223136  
711.000000	38.345045  
711.500000	37.445280  
712.000000	36.505409  
712.500000	35.177977  
713.000000	33.969189  
713.500000	33.102757  
714.000000	32.578287  
714.500000	31.386333  
715.000000	29.926833  
715.500000	28.757621  
716.000000	28.205530  
716.500000	27.728272  
717.000000	27.266749  
717.500000	26.896681  
718.000000	26.263962  
718.500000	25.010780  
719.000000	23.179803  
719.500000	21.897393  
720.000000	21.686954  
720.500000	22.179030  
721.000000	22.385022  
721.500000	21.829795  
722.000000	20.884515  
722.500000	20.144053  
723.000000	19.458015  
723.500000	18.711439  
724.000000	17.870250  
724.500000	17.517378  
725.000000	17.630030  
725.500000	17.749181  
726.000000	17.276128  
726.500000	16.677469  
727.000000	16.281962  
727.500000	16.119651  
728.000000	15.563143  
728.500000	14.683431  
729.000000	13.664931  
729.500000	13.047689  
730.000000	12.897666  
730.500000	13.155719  
731.000000	13.111053  
731.500000	12.531128  
732.000000	11.702833  
732.500000	11.269431  
733.000000	11.263181  
733.500000	11.175015  
734.000000	10.912787  
734.500000	10.681242  
735.000000	10.594204  
735.500000	10.505446  
736.000000	10.443219  
736.500000	10.178151  
737.000000	9.847727   
737.500000	9.320893   
738.000000	9.014939   
738.500000	8.928818   
739.000000	9.085000   
739.500000	8.952863   
740.000000	8.619045   
740.500000	8.151704   
741.000000	8.049969   
741.500000	8.167113   
742.000000	8.210613   
742.500000	7.828431   
743.000000	7.376090   
743.500000	7.056189   
744.000000	6.924371   
744.500000	6.920795   
745.000000	6.860128   
745.500000	6.883227   
746.000000	6.986007   
746.500000	7.108803   
747.000000	6.907462   
747.500000	6.453022   
748.000000	6.180530   
748.500000	6.085106   
749.000000	6.184719   
749.500000	6.081143   
750.000000	6.149181   
750.500000	5.926378   
751.000000	5.540500   
751.500000	5.066136   
752.000000	5.039166   
752.500000	5.522068   
753.000000	5.919106   
753.500000	5.855189   
754.000000	5.304212   
754.500000	4.941318   
755.000000	4.795090   
755.500000	4.928242   
756.000000	5.069818   
756.500000	5.206583   
757.000000	5.101810   
757.500000	4.862015   
758.000000	4.830318   
758.500000	4.931128   
759.000000	5.137045   
759.500000	5.162795   
760.000000	4.941651   
760.500000	4.620803   
761.000000	4.532015   
761.500000	4.543833   
762.000000	4.295401   
762.500000	3.879704   
763.000000	3.696462   
763.500000	3.931848   
764.000000	4.181840   
764.500000	4.193303   
765.000000	4.060030   
765.500000	3.938181   
766.000000	3.929833   
766.500000	3.742765   
767.000000	3.596742   
767.500000	3.576257   
768.000000	3.792500   
768.500000	3.831128   
769.000000	3.833371   
769.500000	3.873689   
770.000000	3.935772   
770.500000	3.778522   
771.000000	3.636007   
771.500000	3.653469   
772.000000	3.622984   
772.500000	3.521712   
773.000000	3.417409   
773.500000	3.410969   
774.000000	3.439886   
774.500000	3.349545   
775.000000	3.195098   
775.500000	2.990075   
776.000000	2.897507   
776.500000	2.873757   
777.000000	2.974469   
777.500000	3.050742   
778.000000	3.168037   
778.500000	3.241022   
779.000000	3.278318   
779.500000	3.192189   
780.000000	3.031212   
780.500000	2.872295   
781.000000	2.821371   
781.500000	2.831015   
782.000000	2.858257   
782.500000	2.840242   
783.000000	2.821212   
783.500000	2.861583   
784.000000	2.859727   
784.500000	2.959409   
785.000000	3.040803   
785.500000	3.083992   
786.000000	2.914295   
786.500000	2.733507   
787.000000	2.631537   
787.500000	2.703878   
788.000000	2.702106   
788.500000	2.750500   
789.000000	2.875871   
789.500000	2.910924   
790.000000	2.637340   
790.500000	2.363924   
791.000000	2.364098   
791.500000	2.577280   
792.000000	2.526681   
792.500000	2.258121   
793.000000	2.137128   
793.500000	2.300613   
794.000000	2.599242   
794.500000	2.645954   
795.000000	2.432204   
795.500000	2.104575   
796.000000	2.128636   
796.500000	2.269636   
797.000000	2.430325   
797.500000	2.418166   
798.000000	2.402265   
798.500000	2.276037   
799.000000	2.155727   
799.500000	2.208886   
800.000000	2.370803   
800.500000	2.332886   
801.000000	2.058931   
801.500000	1.917424   
802.000000	2.063454   
802.500000	2.159416   
803.000000	2.055431   
803.500000	1.790083   
804.000000	1.728204   
804.500000	1.803545   
805.000000	1.882356   
805.500000	1.758000   
806.000000	1.549212   
806.500000	1.570674   
807.000000	1.750068   
807.500000	1.879272   
808.000000	1.661037   
808.500000	1.404787   
809.000000	1.369363   
809.500000	1.586909   
810.000000	1.661303   
810.500000	1.626310   
811.000000	1.677681   
811.500000	1.758780   
812.000000	1.757159   
812.500000	1.661409   
813.000000	1.608916   
813.500000	1.662083   
814.000000	1.821106   
814.500000	1.838090   
815.000000	1.773871   
815.500000	1.639000   
816.000000	1.753984   
816.500000	1.932113   
817.000000	1.846636   
817.500000	1.595174   
818.000000	1.471219   
818.500000	1.629666   
819.000000	1.654984   
819.500000	1.606196   
820.000000	1.532856   
820.500000	1.664030   
821.000000	1.821401   
821.500000	1.984113   
822.000000	2.149537   
822.500000	2.379954   
823.000000	2.644212   
823.500000	2.791500   
824.000000	2.756522   
824.500000	2.570757   
825.000000	2.469659   
825.500000	2.457515   
826.000000	2.378931   
826.500000	2.212984   
827.000000	2.110431   
827.500000	1.989136   
828.000000	1.705416   
828.500000	1.374780   
829.000000	1.234136   
829.500000	1.291689   
830.000000	1.349083   
830.500000	1.361984   
831.000000	1.260484   
831.500000	1.158143   
832.000000	1.184166   
832.500000	1.236659   
833.000000	1.181287   
833.500000	0.995227   
834.000000	0.921643   
834.500000	1.009636   
835.000000	1.182575   
835.500000	1.217840   
836.000000	1.152189   
836.500000	0.945712   
837.000000	0.827977   
837.500000	0.753219   
838.000000	0.724613   
838.500000	0.749000   
839.000000	0.843992   
839.500000	0.857015   
840.000000	0.809568   
840.500000	0.668439   
841.000000	0.594825   
841.500000	0.557174   
842.000000	0.662204   
842.500000	0.775371   
843.000000	0.859787   
843.500000	0.759166   
844.000000	0.631931   
844.500000	0.437174   
845.000000	0.385977   
845.500000	0.405666   
846.000000	0.377053   
846.500000	0.233424   
847.000000	0.222575   
847.500000	0.289522   
848.000000	0.355803   
848.500000	0.449242   
849.000000	0.542242   
849.500000	0.482181   
850.000000	0.101234   
850.500000	-0.081295  
851.000000	-0.011643  
851.500000	0.281386   
852.000000	0.308712   
852.500000	0.281310   
853.000000	0.158015   
853.500000	0.132022   
854.000000	0.190310   
854.500000	0.213628   
855.000000	0.062401   
855.500000	-0.163848  
856.000000	-0.151909  
856.500000	-0.025053  
857.000000	0.075136   
857.500000	0.022651   
858.000000	-0.024628  
858.500000	0.001999   
859.000000	0.025810   
859.500000	0.015803   
860.000000	-0.018151  
860.500000	0.025166   
861.000000	0.017242   
861.500000	-0.085636  
862.000000	-0.232621  
862.500000	-0.215840  
863.000000	-0.072022  
863.500000	0.037386   
864.000000	0.093030   
864.500000	0.073598   
865.000000	0.047643   
865.500000	-0.017454  
866.000000	0.072545   
866.500000	0.116280   
867.000000	0.133848   
867.500000	0.022143   
868.000000	-0.002272  
868.500000	0.018848   
869.000000	0.103098   
869.500000	0.177750   
870.000000	0.218075   
870.500000	0.115500   
871.000000	-0.053098  
871.500000	-0.113712  
872.000000	-0.076689  
872.500000	-0.049537  
873.000000	-0.146939  
873.500000	-0.274818  
874.000000	-0.322477  
874.500000	-0.203924  
875.000000	-0.048022  
875.500000	0.056401   
876.000000	0.024219   
876.500000	-0.108340  
877.000000	-0.252250  
877.500000	-0.310303  
878.000000	-0.240833  
878.500000	-0.131318  
879.000000	-0.085810  
879.500000	-0.093878  
880.000000	-0.073409  
880.500000	0.059363   
881.000000	0.154871   
881.500000	0.152090   
882.000000	0.035045   
882.500000	0.027590   
883.000000	0.108568   
883.500000	0.166068   
884.000000	0.098848   
884.500000	0.165257   
885.000000	0.334515   
885.500000	0.428674   
886.000000	0.216007   
886.500000	-0.008196  
887.000000	-0.042946  
887.500000	0.058068   
888.000000	0.041015   
888.500000	-0.099765  
889.000000	-0.219886  
889.500000	-0.229848  
890.000000	-0.103280  
890.500000	0.030265   
891.000000	0.110348   
891.500000	0.087181   
892.000000	-0.013196  
892.500000	-0.091962  
893.000000	-0.132492  
893.500000	-0.105189  
894.000000	-0.054166  
894.500000	0.017621   
895.000000	0.012863   
895.500000	-0.009999  
896.000000	-0.071984  
896.500000	-0.056924  
897.000000	-0.046545  
897.500000	-0.036659  
898.000000	-0.072628  
898.500000	-0.051318  
899.000000	-0.031696  
899.500000	-0.012636  
900.000000	-0.034257  
900.500000	-0.065000  

