PE FL                   SPECTRUM    ASCII       PEDS        1.60        
  -1
S12R#16.SP
24/04/15
16:01:04.00
24/04/15
16:02:29.00
Jan

900.500000
1









LS55
405.00
5.00
5.00
SCAN
1
20
100
100
0
400
0
1
0
1
5
ON
900 405 
1 0 0
#HDR
-1
-1
#GR
NM

0.00002384185791015625
0.0
450.000000
0.500000
902
8
186.493416
-0.540242
#DATA
450.000000	0.823000   
450.500000	0.152530   
451.000000	-0.256871  
451.500000	-0.339204  
452.000000	-0.159560  
452.500000	0.015863   
453.000000	0.087856   
453.500000	-0.007780  
454.000000	-0.013575  
454.500000	-0.063075  
455.000000	-0.244265  
455.500000	-0.540242  
456.000000	-0.535250  
456.500000	-0.282651  
457.000000	0.018992   
457.500000	0.158530   
458.000000	0.288181   
458.500000	0.422780   
459.000000	0.350257   
459.500000	0.133007   
460.000000	-0.056871  
460.500000	-0.017363  
461.000000	0.113378   
461.500000	0.161962   
462.000000	-0.055128  
462.500000	-0.303500  
463.000000	-0.335772  
463.500000	-0.119939  
464.000000	0.078219   
464.500000	0.202962   
465.000000	0.217909   
465.500000	0.233803   
466.000000	0.125500   
466.500000	0.056234   
467.000000	-0.086636  
467.500000	-0.069446  
468.000000	-0.064689  
468.500000	-0.023757  
469.000000	-0.098060  
469.500000	-0.190598  
470.000000	-0.286530  
470.500000	-0.285916  
471.000000	-0.230227  
471.500000	-0.157681  
472.000000	-0.112106  
472.500000	-0.095522  
473.000000	0.011386   
473.500000	0.142287   
474.000000	0.214287   
474.500000	0.144462   
475.000000	0.056060   
475.500000	-0.107128  
476.000000	-0.159621  
476.500000	-0.017250  
477.000000	0.251409   
477.500000	0.378757   
478.000000	0.267780   
478.500000	0.155848   
479.000000	0.134280   
479.500000	0.156196   
480.000000	0.074212   
480.500000	-0.040090  
481.000000	-0.053492  
481.500000	0.015772   
482.000000	0.050772   
482.500000	0.006416   
483.000000	-0.029022  
483.500000	-0.018651  
484.000000	0.044946   
484.500000	0.013196   
485.000000	-0.083136  
485.500000	-0.172863  
486.000000	-0.145053  
486.500000	0.007643   
487.000000	0.086590   
487.500000	-0.023810  
488.000000	-0.179568  
488.500000	-0.258522  
489.000000	-0.331628  
489.500000	-0.289204  
490.000000	-0.063022  
490.500000	0.224939   
491.000000	0.304242   
491.500000	0.089560   
492.000000	0.016530   
492.500000	0.133674   
493.000000	0.275590   
493.500000	0.156810   
494.000000	0.044166   
494.500000	0.061053   
495.000000	0.283295   
495.500000	0.346689   
496.000000	0.318454   
496.500000	0.340583   
497.000000	0.564848   
497.500000	0.727681   
498.000000	0.679386   
498.500000	0.485303   
499.000000	0.426659   
499.500000	0.610318   
500.000000	0.798719   
500.500000	0.890272   
501.000000	0.840242   
501.500000	0.790037   
502.000000	0.738424   
502.500000	0.771848   
503.000000	0.936962   
503.500000	1.127318   
504.000000	1.261022   
504.500000	1.333280   
505.000000	1.426825   
505.500000	1.411901   
506.000000	1.365878   
506.500000	1.359204   
507.000000	1.547946   
507.500000	1.674825   
508.000000	1.870757   
508.500000	2.082734   
509.000000	2.256227   
509.500000	2.121310   
510.000000	1.953174   
510.500000	2.073090   
511.000000	2.396969   
511.500000	2.627590   
512.000000	2.474378   
512.500000	2.318795   
513.000000	2.321371   
513.500000	2.612363   
514.000000	2.850628   
514.500000	3.047962   
515.000000	3.186643   
515.500000	3.457553   
516.000000	3.641295   
516.500000	3.597856   
517.000000	3.354325   
517.500000	3.172772   
518.000000	3.136196   
518.500000	3.265030   
519.000000	3.338689   
519.500000	3.407598   
520.000000	3.462712   
520.500000	3.375787   
521.000000	3.165181   
521.500000	3.082075   
522.000000	3.322712   
522.500000	3.577151   
523.000000	3.581909   
523.500000	3.349575   
524.000000	3.290969   
524.500000	3.345363   
525.000000	3.423371   
525.500000	3.431310   
526.000000	3.491128   
526.500000	3.562143   
527.000000	3.615416   
527.500000	3.935598   
528.000000	4.591439   
528.500000	5.223121   
529.000000	5.262181   
529.500000	4.962742   
530.000000	4.885969   
530.500000	5.124219   
531.000000	5.454257   
531.500000	5.661856   
532.000000	5.918840   
532.500000	6.331984   
533.000000	6.929780   
533.500000	7.446060   
534.000000	7.716151   
534.500000	7.758863   
535.000000	7.766901   
535.500000	8.006568   
536.000000	8.354598   
536.500000	9.046863   
537.000000	9.711583   
537.500000	10.150803  
538.000000	10.198931  
538.500000	10.317696  
539.000000	10.833818  
539.500000	11.916803  
540.000000	12.827098  
540.500000	13.458916  
541.000000	13.815939  
541.500000	14.274575  
542.000000	14.451931  
542.500000	14.422219  
543.000000	14.035575  
543.500000	13.609651  
544.000000	13.078181  
544.500000	12.413946  
545.000000	11.699530  
545.500000	10.834477  
546.000000	10.408628  
546.500000	10.173318  
547.000000	10.025030  
547.500000	9.271954   
548.000000	8.525969   
548.500000	7.933583   
549.000000	7.544946   
549.500000	6.922992   
550.000000	6.075901   
550.500000	5.318378   
551.000000	4.807545   
551.500000	4.519674   
552.000000	4.162378   
552.500000	3.787318   
553.000000	3.583416   
553.500000	3.508431   
554.000000	3.397446   
554.500000	3.052045   
555.000000	2.876083   
555.500000	3.030666   
556.000000	3.435280   
556.500000	3.477500   
557.000000	3.289136   
557.500000	3.087272   
558.000000	3.127810   
558.500000	3.179628   
559.000000	3.161060   
559.500000	3.145166   
560.000000	3.266462   
560.500000	3.330727   
561.000000	3.250356   
561.500000	3.130143   
562.000000	3.162462   
562.500000	3.267878   
563.000000	3.298280   
563.500000	3.209234   
564.000000	3.136613   
564.500000	3.107598   
565.000000	3.130818   
565.500000	3.201227   
566.000000	3.282712   
566.500000	3.242303   
567.000000	3.194916   
567.500000	3.204477   
568.000000	3.351431   
568.500000	3.346333   
569.000000	3.493295   
569.500000	3.703318   
570.000000	4.036409   
570.500000	3.832969   
571.000000	3.391651   
571.500000	2.877924   
572.000000	2.907340   
572.500000	3.197303   
573.000000	3.387318   
573.500000	3.206598   
574.000000	2.873757   
574.500000	2.846848   
575.000000	3.030704   
575.500000	3.293515   
576.000000	3.362553   
576.500000	3.474454   
577.000000	3.552234   
577.500000	3.523083   
578.000000	3.365219   
578.500000	3.312212   
579.000000	3.416219   
579.500000	3.521651   
580.000000	3.459045   
580.500000	3.459795   
581.000000	3.546393   
581.500000	3.546962   
582.000000	3.266946   
582.500000	3.070719   
583.000000	3.277780   
583.500000	3.741719   
584.000000	3.888424   
584.500000	3.661659   
585.000000	3.453545   
585.500000	3.475681   
586.000000	3.647530   
586.500000	3.604181   
587.000000	3.453719   
587.500000	3.275962   
588.000000	3.282954   
588.500000	3.199507   
589.000000	3.404303   
589.500000	3.641810   
590.000000	4.016810   
590.500000	3.864500   
591.000000	3.622500   
591.500000	3.539840   
592.000000	3.918234   
592.500000	4.145007   
593.000000	4.230984   
593.500000	4.074727   
594.000000	4.227333   
594.500000	4.421772   
595.000000	4.786757   
595.500000	4.800568   
596.000000	4.672045   
596.500000	4.306606   
597.000000	4.386318   
597.500000	4.798212   
598.000000	5.265765   
598.500000	5.459954   
599.000000	5.493083   
599.500000	5.667143   
600.000000	5.604621   
600.500000	5.257371   
601.000000	4.946219   
601.500000	5.158848   
602.000000	5.473166   
602.500000	5.557401   
603.000000	5.618037   
603.500000	5.913128   
604.000000	6.465053   
604.500000	6.581871   
605.000000	6.338325   
605.500000	6.191969   
606.000000	6.494159   
606.500000	6.984189   
607.000000	7.296492   
607.500000	7.537446   
608.000000	7.740954   
608.500000	8.166962   
609.000000	8.300227   
609.500000	8.463249   
610.000000	8.201704   
610.500000	8.245325   
611.000000	8.578378   
611.500000	9.334606   
612.000000	9.773757   
612.500000	10.102810  
613.000000	10.600068  
613.500000	11.098962  
614.000000	11.201727  
614.500000	10.977636  
615.000000	11.148151  
615.500000	11.599871  
616.000000	11.847386  
616.500000	11.969507  
617.000000	12.245818  
617.500000	13.123916  
618.000000	13.752189  
618.500000	14.431878  
619.000000	14.889704  
619.500000	15.625681  
620.000000	15.979378  
620.500000	16.761598  
621.000000	17.563196  
621.500000	18.188568  
622.000000	17.906560  
622.500000	17.798848  
623.000000	18.356060  
623.500000	19.537651  
624.000000	20.170265  
624.500000	20.641037  
625.000000	21.308901  
625.500000	22.784719  
626.000000	23.964181  
626.500000	24.800431  
627.000000	25.021007  
627.500000	25.629424  
628.000000	26.565143  
628.500000	28.393015  
629.000000	30.354992  
629.500000	32.092340  
630.000000	32.844840  
630.500000	33.119696  
631.000000	33.392787  
631.500000	34.304265  
632.000000	35.976969  
632.500000	38.141560  
633.000000	39.847477  
633.500000	41.005136  
634.000000	42.124424  
634.500000	42.988992  
635.000000	43.748659  
635.500000	44.882446  
636.000000	46.879265  
636.500000	48.169090  
637.000000	49.123704  
637.500000	50.469166  
638.000000	52.881151  
638.500000	54.704560  
639.000000	56.142492  
639.500000	58.065507  
640.000000	61.040318  
640.500000	63.699749  
641.000000	65.851886  
641.500000	67.761704  
642.000000	69.384515  
642.500000	70.706060  
643.000000	72.200848  
643.500000	74.569560  
644.000000	77.326007  
644.500000	79.867848  
645.000000	81.558689  
645.500000	82.650946  
646.000000	83.437795  
646.500000	84.622446  
647.000000	86.790378  
647.500000	89.655931  
648.000000	92.658810  
648.500000	94.977590  
649.000000	97.112901  
649.500000	99.250446  
650.000000	101.586863 
650.500000	103.974916 
651.000000	106.141886 
651.500000	108.355969 
652.000000	111.368287 
652.500000	114.240159 
653.000000	116.395500 
653.500000	117.654462 
654.000000	119.856871 
654.500000	121.976787 
655.000000	124.567818 
655.500000	126.549007 
656.000000	129.654583 
656.500000	131.803969 
657.000000	133.846340 
657.500000	134.645340 
658.000000	135.982196 
658.500000	137.332204 
659.000000	140.065424 
659.500000	143.204750 
660.000000	146.008242 
660.500000	148.020318 
661.000000	150.026742 
661.500000	152.044901 
662.000000	154.422446 
662.500000	156.778189 
663.000000	159.008909 
663.500000	160.360325 
664.000000	161.240196 
664.500000	162.428401 
665.000000	164.761189 
665.500000	167.500280 
666.000000	168.886984 
666.500000	170.077553 
667.000000	170.583015 
667.500000	171.789924 
668.000000	172.770909 
668.500000	174.165272 
669.000000	174.853280 
669.500000	176.031795 
670.000000	177.533893 
670.500000	179.363712 
671.000000	180.517439 
671.500000	181.152462 
672.000000	182.028250 
672.500000	182.314856 
673.000000	182.037962 
673.500000	183.061386 
674.000000	184.900196 
674.500000	186.493416 
675.000000	186.339462 
675.500000	185.763136 
676.000000	184.843871 
676.500000	183.319681 
677.000000	181.348863 
677.500000	180.175098 
678.000000	180.638219 
678.500000	180.626848 
679.000000	180.375469 
679.500000	179.245166 
680.000000	178.910856 
680.500000	177.595992 
681.000000	176.800545 
681.500000	176.519098 
682.000000	176.374666 
682.500000	174.829734 
683.000000	172.954939 
683.500000	171.276833 
684.000000	168.905507 
684.500000	164.922295 
685.000000	161.516500 
685.500000	159.478090 
686.000000	157.853409 
686.500000	154.546878 
687.000000	151.124007 
687.500000	148.881750 
688.000000	148.270424 
688.500000	147.407068 
689.000000	145.704083 
689.500000	142.932939 
690.000000	140.084409 
690.500000	137.331643 
691.000000	134.218992 
691.500000	129.790810 
692.000000	124.797946 
692.500000	121.238424 
693.000000	119.475106 
693.500000	118.353234 
694.000000	116.033371 
694.500000	113.313446 
695.000000	111.111871 
695.500000	109.488969 
696.000000	106.500522 
696.500000	101.935333 
697.000000	97.897878  
697.500000	95.637098  
698.000000	93.916727  
698.500000	90.474515  
699.000000	86.942742  
699.500000	84.861340  
700.000000	83.248257  
700.500000	80.728280  
701.000000	77.445643  
701.500000	75.314590  
702.000000	73.391848  
702.500000	71.417007  
703.000000	68.882901  
703.500000	67.475674  
704.000000	66.524257  
704.500000	65.521378  
705.000000	63.094749  
705.500000	59.966227  
706.000000	57.363719  
706.500000	55.329530  
707.000000	53.604810  
707.500000	52.016431  
708.000000	51.751727  
708.500000	51.764401  
709.000000	51.170818  
709.500000	49.032681  
710.000000	46.770803  
710.500000	44.612424  
711.000000	43.152393  
711.500000	42.072022  
712.000000	41.557318  
712.500000	40.363098  
713.000000	38.804431  
713.500000	37.055204  
714.000000	36.452613  
714.500000	35.701568  
715.000000	34.910583  
715.500000	33.123075  
716.000000	32.230303  
716.500000	31.654522  
717.000000	31.618431  
717.500000	30.581189  
718.000000	29.427871  
718.500000	28.197863  
719.000000	27.486757  
719.500000	26.507151  
720.000000	25.854893  
720.500000	25.199431  
721.000000	24.483128  
721.500000	23.392363  
722.000000	22.649000  
722.500000	22.473037  
723.000000	22.504780  
723.500000	22.171750  
724.000000	21.507325  
724.500000	20.580424  
725.000000	19.758189  
725.500000	19.481257  
726.000000	19.309204  
726.500000	19.003560  
727.000000	18.204113  
727.500000	17.542234  
728.000000	16.840522  
728.500000	16.461954  
729.000000	16.036568  
729.500000	15.905386  
730.000000	15.350325  
730.500000	14.730931  
731.000000	13.911833  
731.500000	13.247204  
732.000000	12.846772  
732.500000	12.875704  
733.000000	12.979962  
733.500000	12.760818  
734.000000	12.362007  
734.500000	12.122840  
735.000000	12.063840  
735.500000	11.684462  
736.000000	11.097469  
736.500000	10.818636  
737.000000	10.767106  
737.500000	10.686878  
738.000000	10.304628  
738.500000	9.896030   
739.000000	9.662439   
739.500000	9.792136   
740.000000	9.861871   
740.500000	9.723060   
741.000000	9.324613   
741.500000	9.005840   
742.000000	9.012242   
742.500000	8.983628   
743.000000	8.793159   
743.500000	8.458212   
744.000000	8.196916   
744.500000	7.943424   
745.000000	7.741984   
745.500000	7.523924   
746.000000	7.315416   
746.500000	7.109727   
747.000000	7.104106   
747.500000	7.320606   
748.000000	7.346962   
748.500000	7.089734   
749.000000	6.826022   
749.500000	6.723583   
750.000000	6.438227   
750.500000	6.152068   
751.000000	6.120507   
751.500000	6.348227   
752.000000	6.458840   
752.500000	6.396560   
753.000000	6.127901   
753.500000	5.618530   
754.000000	5.275560   
754.500000	5.294022   
755.000000	5.568734   
755.500000	5.400113   
756.000000	5.179507   
756.500000	4.783946   
757.000000	4.584219   
757.500000	4.338174   
758.000000	4.509696   
758.500000	4.764787   
759.000000	5.023287   
759.500000	5.005999   
760.000000	4.988643   
760.500000	4.980712   
761.000000	4.947053   
761.500000	4.759325   
762.000000	4.484689   
762.500000	4.388719   
763.000000	4.470340   
763.500000	4.424212   
764.000000	4.224560   
764.500000	3.918530   
765.000000	3.810606   
765.500000	3.985106   
766.000000	4.274575   
766.500000	4.346856   
767.000000	4.259742   
767.500000	4.095030   
768.000000	3.851537   
768.500000	3.570545   
769.000000	3.423075   
769.500000	3.614893   
770.000000	3.814159   
770.500000	3.750992   
771.000000	3.443318   
771.500000	3.263969   
772.000000	3.246742   
772.500000	3.360598   
773.000000	3.361863   
773.500000	3.221583   
774.000000	3.134189   
774.500000	3.307242   
775.000000	3.542416   
775.500000	3.545871   
776.000000	3.270583   
776.500000	3.001742   
777.000000	2.963280   
777.500000	3.047280   
778.000000	3.127037   
778.500000	3.138825   
779.000000	3.079189   
779.500000	2.982772   
780.000000	3.047212   
780.500000	3.164636   
781.000000	3.240840   
781.500000	3.129303   
782.000000	3.013090   
782.500000	2.988499   
783.000000	3.071007   
783.500000	3.047287   
784.000000	2.940083   
784.500000	2.845515   
785.000000	2.880939   
785.500000	2.998310   
786.000000	3.049765   
786.500000	2.834507   
787.000000	2.551431   
787.500000	2.379462   
788.000000	2.601969   
788.500000	2.819545   
789.000000	3.012143   
789.500000	2.943780   
790.000000	2.833659   
790.500000	2.575492   
791.000000	2.447348   
791.500000	2.452992   
792.000000	2.619734   
792.500000	2.576113   
793.000000	2.415446   
793.500000	2.284348   
794.000000	2.325416   
794.500000	2.504719   
795.000000	2.603431   
795.500000	2.589053   
796.000000	2.389712   
796.500000	2.361121   
797.000000	2.309689   
797.500000	2.355939   
798.000000	2.277484   
798.500000	2.318780   
799.000000	2.224712   
799.500000	2.114727   
800.000000	2.036507   
800.500000	2.061780   
801.000000	1.942628   
801.500000	1.729151   
802.000000	1.682734   
802.500000	1.774000   
803.000000	1.780022   
803.500000	1.739174   
804.000000	1.909431   
804.500000	2.192689   
805.000000	2.418272   
805.500000	2.311484   
806.000000	2.196098   
806.500000	2.031856   
807.000000	1.937113   
807.500000	1.667931   
808.000000	1.472196   
808.500000	1.529121   
809.000000	1.833742   
809.500000	2.014893   
810.000000	2.001613   
810.500000	1.950545   
811.000000	1.830121   
811.500000	1.599727   
812.000000	1.320265   
812.500000	1.257136   
813.000000	1.395818   
813.500000	1.595174   
814.000000	1.757575   
814.500000	1.816416   
815.000000	1.600159   
815.500000	1.318007   
816.000000	1.154287   
816.500000	1.301166   
817.000000	1.412924   
817.500000	1.423750   
818.000000	1.351886   
818.500000	1.491924   
819.000000	1.565333   
819.500000	1.522560   
820.000000	1.409757   
820.500000	1.761189   
821.000000	2.209962   
821.500000	2.437393   
822.000000	2.300090   
822.500000	2.245068   
823.000000	2.297159   
823.500000	2.308681   
824.000000	2.204500   
824.500000	2.176424   
825.000000	2.303015   
825.500000	2.420151   
826.000000	2.530265   
826.500000	2.484068   
827.000000	2.397674   
827.500000	2.302727   
828.000000	2.190954   
828.500000	2.130121   
829.000000	2.024719   
829.500000	1.754909   
830.000000	1.303575   
830.500000	1.051810   
831.000000	1.060757   
831.500000	1.257704   
832.000000	1.320075   
832.500000	1.296878   
833.000000	1.180401   
833.500000	1.038037   
834.000000	0.991553   
834.500000	1.089151   
835.000000	1.167446   
835.500000	1.145742   
836.000000	1.072507   
836.500000	1.057522   
837.000000	1.047113   
837.500000	1.045628   
838.000000	1.026325   
838.500000	1.048590   
839.000000	1.057719   
839.500000	0.963409   
840.000000	0.756068   
840.500000	0.618560   
841.000000	0.631265   
841.500000	0.702159   
842.000000	0.581522   
842.500000	0.383515   
843.000000	0.269462   
843.500000	0.359818   
844.000000	0.480325   
844.500000	0.590212   
845.000000	0.609924   
845.500000	0.519606   
846.000000	0.344916   
846.500000	0.252787   
847.000000	0.340901   
847.500000	0.478439   
848.000000	0.537727   
848.500000	0.510522   
849.000000	0.470803   
849.500000	0.390871   
850.000000	0.255742   
850.500000	0.251310   
851.000000	0.280515   
851.500000	0.325462   
852.000000	0.285530   
852.500000	0.248234   
853.000000	0.217378   
853.500000	0.220492   
854.000000	0.250606   
854.500000	0.273234   
855.000000	0.246931   
855.500000	0.114151   
856.000000	0.003136   
856.500000	-0.092371  
857.000000	-0.108234  
857.500000	-0.059378  
858.000000	-0.010886  
858.500000	0.008295   
859.000000	-0.003227  
859.500000	0.063007   
860.000000	0.122113   
860.500000	0.134045   
861.000000	0.035424   
861.500000	-0.019772  
862.000000	0.020356   
862.500000	0.172606   
863.000000	0.089515   
863.500000	-0.144053  
864.000000	-0.340393  
864.500000	-0.193454  
865.000000	0.093545   
865.500000	0.226924   
866.000000	0.086227   
866.500000	-0.025712  
867.000000	-0.020598  
867.500000	0.030856   
868.000000	0.015128   
868.500000	-0.075795  
869.000000	-0.083227  
869.500000	-0.011613  
870.000000	0.065363   
870.500000	0.057575   
871.000000	0.051969   
871.500000	-0.001477  
872.000000	0.011507   
872.500000	0.037522   
873.000000	0.119924   
873.500000	0.201409   
874.000000	0.240053   
874.500000	0.279969   
875.000000	0.252507   
875.500000	0.143007   
876.000000	-0.046159  
876.500000	-0.093469  
877.000000	0.028984   
877.500000	0.150598   
878.000000	0.156446   
878.500000	0.121689   
879.000000	0.167037   
879.500000	0.157250   
880.000000	0.124060   
880.500000	0.102477   
881.000000	0.196500   
881.500000	0.168280   
882.000000	0.017568   
882.500000	-0.121348  
883.000000	-0.114409  
883.500000	-0.122363  
884.000000	-0.136590  
884.500000	-0.140984  
885.000000	-0.035356  
885.500000	0.039522   
886.000000	0.050386   
886.500000	-0.016515  
887.000000	-0.025424  
887.500000	-0.019560  
888.000000	0.011227   
888.500000	-0.012121  
889.000000	-0.031916  
889.500000	-0.054803  
890.000000	-0.050621  
890.500000	-0.049280  
891.000000	-0.026666  
891.500000	-0.011689  
892.000000	-0.006371  
892.500000	-0.002530  
893.000000	-0.008780  
893.500000	-0.031015  
894.000000	-0.108613  
894.500000	-0.182787  
895.000000	-0.151856  
895.500000	0.005924   
896.000000	0.154333   
896.500000	0.141992   
897.000000	-0.012537  
897.500000	-0.169446  
898.000000	-0.185295  
898.500000	-0.114651  
899.000000	-0.034136  
899.500000	-0.022022  
900.000000	-0.027181  
900.500000	0.000000   

