PE FL                   SPECTRUM    ASCII       PEDS        1.60        
  -1
S12R#31.SP
24/04/15
16:22:27.00
24/04/15
16:23:53.00
Jan

900.500000
1









LS55
405.00
5.00
5.00
SCAN
1
20
100
100
0
400
0
1
0
1
5
ON
900 405 
1 0 0
#HDR
-1
-1
#GR
NM

0.00002384185791015625
0.0
450.000000
0.500000
902
8
172.689583
-0.497242
#DATA
450.000000	0.000000   
450.500000	-0.108659  
451.000000	-0.076825  
451.500000	0.046424   
452.000000	0.035227   
452.500000	-0.107863  
453.000000	-0.200719  
453.500000	-0.105659  
454.000000	0.001742   
454.500000	0.085280   
455.000000	0.167681   
455.500000	0.313348   
456.000000	0.287151   
456.500000	0.079840   
457.000000	-0.041083  
457.500000	-0.053500  
458.000000	0.020204   
458.500000	0.037636   
459.000000	0.072727   
459.500000	-0.017159  
460.000000	-0.163780  
460.500000	-0.221507  
461.000000	-0.069901  
461.500000	0.100068   
462.000000	0.130083   
462.500000	0.150386   
463.000000	0.160128   
463.500000	0.072272   
464.000000	-0.086090  
464.500000	-0.153265  
465.000000	-0.112053  
465.500000	-0.004522  
466.000000	0.117712   
466.500000	0.009143   
467.000000	-0.275818  
467.500000	-0.477386  
468.000000	-0.284636  
468.500000	0.018393   
469.000000	0.183681   
469.500000	-0.034196  
470.000000	-0.190090  
470.500000	-0.215515  
471.000000	0.016386   
471.500000	0.163325   
472.000000	0.202803   
472.500000	0.074954   
473.000000	-0.000189  
473.500000	-0.123553  
474.000000	-0.215075  
474.500000	-0.344712  
475.000000	-0.390151  
475.500000	-0.357075  
476.000000	-0.172803  
476.500000	-0.096492  
477.000000	-0.048803  
477.500000	-0.068371  
478.000000	0.096136   
478.500000	0.169901   
479.000000	0.244015   
479.500000	0.123393   
480.000000	0.026371   
480.500000	-0.196818  
481.000000	-0.385053  
481.500000	-0.497242  
482.000000	-0.350924  
482.500000	-0.187121  
483.000000	-0.136159  
483.500000	-0.239121  
484.000000	-0.277856  
484.500000	-0.224886  
485.000000	-0.074477  
485.500000	-0.002060  
486.000000	-0.020022  
486.500000	-0.144462  
487.000000	-0.197159  
487.500000	-0.163303  
488.000000	-0.071590  
488.500000	0.000749   
489.000000	0.043818   
489.500000	0.049386   
490.000000	-0.005560  
490.500000	-0.093575  
491.000000	-0.109303  
491.500000	-0.027090  
492.000000	-0.003840  
492.500000	0.130015   
493.000000	0.233386   
493.500000	0.414098   
494.000000	0.344265   
494.500000	0.228719   
495.000000	0.071030   
495.500000	0.129598   
496.000000	0.213856   
496.500000	0.336174   
497.000000	0.411969   
497.500000	0.444378   
498.000000	0.579598   
498.500000	0.682825   
499.000000	0.772772   
499.500000	0.703037   
500.000000	0.690962   
500.500000	0.733537   
501.000000	0.812371   
501.500000	0.778848   
502.000000	0.657848   
502.500000	0.624606   
503.000000	0.657181   
503.500000	0.823053   
504.000000	0.864265   
504.500000	1.009575   
505.000000	1.117121   
505.500000	1.388704   
506.000000	1.517553   
506.500000	1.500196   
507.000000	1.479878   
507.500000	1.684515   
508.000000	1.902621   
508.500000	2.003803   
509.000000	1.990909   
509.500000	2.061886   
510.000000	2.149651   
510.500000	2.337628   
511.000000	2.612530   
511.500000	2.980598   
512.000000	3.015500   
512.500000	2.746636   
513.000000	2.383712   
513.500000	2.313803   
514.000000	2.536871   
514.500000	2.777924   
515.000000	2.977712   
515.500000	3.095393   
516.000000	3.153484   
516.500000	3.261159   
517.000000	3.333477   
517.500000	3.441515   
518.000000	3.304272   
518.500000	3.233992   
519.000000	3.254136   
519.500000	3.490621   
520.000000	3.480037   
520.500000	3.396787   
521.000000	3.199416   
521.500000	3.238969   
522.000000	3.365901   
522.500000	3.765196   
523.000000	4.101810   
523.500000	4.306401   
524.000000	3.993530   
524.500000	3.606431   
525.000000	3.404151   
525.500000	3.777022   
526.000000	4.256568   
526.500000	4.404863   
527.000000	4.394022   
527.500000	4.482924   
528.000000	4.746393   
528.500000	4.695689   
529.000000	4.673636   
529.500000	4.870878   
530.000000	5.276643   
530.500000	5.398113   
531.000000	5.404151   
531.500000	5.445416   
532.000000	5.756469   
532.500000	6.070628   
533.000000	6.448030   
533.500000	6.579030   
534.000000	6.850590   
534.500000	7.139340   
535.000000	7.732265   
535.500000	7.918060   
536.000000	7.944712   
536.500000	7.996590   
537.000000	8.687446   
537.500000	9.697568   
538.000000	10.500386  
538.500000	10.844469  
539.000000	11.168401  
539.500000	12.029265  
540.000000	12.927833  
540.500000	13.570946  
541.000000	13.586568  
541.500000	13.613803  
542.000000	13.709166  
542.500000	13.925393  
543.000000	13.529166  
543.500000	12.773500  
544.000000	12.006818  
544.500000	11.982204  
545.000000	12.101492  
545.500000	11.732992  
546.000000	10.930530  
546.500000	10.448795  
547.000000	10.017212  
547.500000	9.229924   
548.000000	8.123196   
548.500000	7.289901   
549.000000	6.814818   
549.500000	6.408030   
550.000000	5.974916   
550.500000	5.760583   
551.000000	5.490204   
551.500000	5.047674   
552.000000	4.260007   
552.500000	3.658318   
553.000000	3.399356   
553.500000	3.517439   
554.000000	3.470863   
554.500000	3.419840   
555.000000	3.349871   
555.500000	3.361704   
556.000000	3.234454   
556.500000	3.092128   
557.000000	3.022121   
557.500000	3.079878   
558.000000	3.110969   
558.500000	3.213295   
559.000000	3.310340   
559.500000	3.385878   
560.000000	3.396333   
560.500000	3.375007   
561.000000	3.333992   
561.500000	3.417227   
562.000000	3.558530   
562.500000	3.689818   
563.000000	3.633803   
563.500000	3.472295   
564.000000	3.262522   
564.500000	3.187651   
565.000000	3.032295   
565.500000	3.096780   
566.000000	3.181999   
566.500000	3.320848   
567.000000	3.290621   
567.500000	3.371666   
568.000000	3.338871   
568.500000	3.271606   
569.000000	3.114878   
569.500000	3.134295   
570.000000	3.142204   
570.500000	3.183992   
571.000000	3.286946   
571.500000	3.455090   
572.000000	3.400621   
572.500000	3.191553   
573.000000	3.155696   
573.500000	3.319984   
574.000000	3.391681   
574.500000	3.249636   
575.000000	3.240962   
575.500000	3.348696   
576.000000	3.421856   
576.500000	3.296098   
577.000000	3.216772   
577.500000	3.426765   
578.000000	3.808189   
578.500000	3.890946   
579.000000	3.595280   
579.500000	3.286757   
580.000000	3.194128   
580.500000	3.304386   
581.000000	3.317189   
581.500000	3.214924   
582.000000	3.025704   
582.500000	2.956689   
583.000000	3.025969   
583.500000	3.383159   
584.000000	3.649568   
584.500000	3.738545   
585.000000	3.598613   
585.500000	3.569053   
586.000000	3.668628   
586.500000	3.845151   
587.000000	3.968742   
587.500000	4.033295   
588.000000	3.923628   
588.500000	3.880136   
589.000000	3.974310   
589.500000	4.256204   
590.000000	4.347924   
590.500000	4.191727   
591.000000	3.984159   
591.500000	3.991810   
592.000000	4.061484   
592.500000	3.977840   
593.000000	3.853606   
593.500000	3.775287   
594.000000	4.132719   
594.500000	4.488628   
595.000000	4.602196   
595.500000	4.309234   
596.000000	4.043242   
596.500000	4.284545   
597.000000	5.059916   
597.500000	5.834560   
598.000000	5.873060   
598.500000	5.464962   
599.000000	5.191212   
599.500000	5.396954   
600.000000	5.650303   
600.500000	5.575712   
601.000000	5.323689   
601.500000	5.194333   
602.000000	5.589280   
602.500000	6.072060   
603.000000	6.393234   
603.500000	6.209143   
604.000000	6.232825   
604.500000	6.495681   
605.000000	6.895954   
605.500000	7.062318   
606.000000	7.285500   
606.500000	7.504083   
607.000000	7.692651   
607.500000	7.849530   
608.000000	8.259143   
608.500000	8.729393   
609.000000	8.979863   
609.500000	9.132742   
610.000000	9.474651   
610.500000	9.717643   
611.000000	9.930431   
611.500000	10.037227  
612.000000	10.429287  
612.500000	10.896780  
613.000000	11.400681  
613.500000	11.819053  
614.000000	12.110083  
614.500000	12.475015  
615.000000	12.626689  
615.500000	13.034340  
616.000000	13.323136  
616.500000	13.975340  
617.000000	14.148628  
617.500000	14.269825  
618.000000	14.564984  
618.500000	15.344166  
619.000000	16.195916  
619.500000	16.860659  
620.000000	17.872378  
620.500000	18.915666  
621.000000	19.793871  
621.500000	19.892628  
622.000000	20.054060  
622.500000	20.449696  
623.000000	21.361492  
623.500000	22.070159  
624.000000	22.596583  
624.500000	23.167765  
625.000000	24.161856  
625.500000	25.474833  
626.000000	26.802075  
626.500000	28.020068  
627.000000	28.909613  
627.500000	29.562674  
628.000000	30.257689  
628.500000	31.852234  
629.000000	33.590446  
629.500000	34.691007  
630.000000	35.435174  
630.500000	36.658159  
631.000000	38.678507  
631.500000	40.436871  
632.000000	41.616825  
632.500000	42.725159  
633.000000	43.730962  
633.500000	44.373393  
634.000000	44.865325  
634.500000	46.106371  
635.000000	48.224674  
635.500000	51.090416  
636.000000	53.365409  
636.500000	54.927015  
637.000000	55.965174  
637.500000	57.473931  
638.000000	59.231969  
638.500000	60.688901  
639.000000	61.895500  
639.500000	63.675833  
640.000000	65.760719  
640.500000	67.553431  
641.000000	68.811174  
641.500000	70.385234  
642.000000	71.937303  
642.500000	73.947871  
643.000000	76.168901  
643.500000	78.367992  
644.000000	79.594825  
644.500000	81.241060  
645.000000	83.267060  
645.500000	85.698484  
646.000000	88.142212  
646.500000	90.924492  
647.000000	93.663840  
647.500000	95.848462  
648.000000	97.455803  
648.500000	99.341530  
649.000000	101.813583 
649.500000	104.104507 
650.000000	106.206780 
650.500000	108.445416 
651.000000	110.857090 
651.500000	113.221901 
652.000000	114.948674 
652.500000	116.633780 
653.000000	118.855795 
653.500000	121.846159 
654.000000	124.288977 
654.500000	126.587439 
655.000000	127.961742 
655.500000	129.705318 
656.000000	131.627280 
656.500000	133.769446 
657.000000	135.885409 
657.500000	137.819166 
658.000000	140.097681 
658.500000	141.582318 
659.000000	142.904462 
659.500000	143.842295 
660.000000	146.694643 
660.500000	149.021545 
661.000000	149.793121 
661.500000	149.063181 
662.000000	150.217962 
662.500000	153.077606 
663.000000	154.904659 
663.500000	154.886462 
664.000000	155.012325 
664.500000	156.266287 
665.000000	157.376083 
665.500000	159.056098 
666.000000	161.290772 
666.500000	162.893000 
667.000000	163.033378 
667.500000	163.842121 
668.000000	166.323204 
668.500000	168.739954 
669.000000	169.354893 
669.500000	169.345878 
670.000000	169.193121 
670.500000	169.283992 
671.000000	169.996621 
671.500000	171.543545 
672.000000	172.420568 
672.500000	172.493848 
673.000000	172.335356 
673.500000	172.689583 
674.000000	172.156553 
674.500000	170.747924 
675.000000	170.163606 
675.500000	170.518977 
676.000000	170.071560 
676.500000	168.529893 
677.000000	166.363424 
677.500000	165.217000 
678.000000	165.165371 
678.500000	165.101500 
679.000000	164.007121 
679.500000	162.079848 
680.000000	160.802098 
680.500000	160.223053 
681.000000	160.051053 
681.500000	158.148772 
682.000000	156.810863 
682.500000	154.069825 
683.000000	151.021189 
683.500000	146.682939 
684.000000	144.388734 
684.500000	142.191810 
685.000000	141.238007 
685.500000	139.292909 
686.000000	137.815454 
686.500000	135.613227 
687.000000	133.718204 
687.500000	132.255484 
688.000000	129.958356 
688.500000	125.771909 
689.000000	121.226833 
689.500000	118.131401 
690.000000	116.207833 
690.500000	114.713053 
691.000000	112.985446 
691.500000	110.192492 
692.000000	106.494310 
692.500000	103.182462 
693.000000	101.281734 
693.500000	99.506356  
694.000000	96.646939  
694.500000	93.212409  
695.000000	89.693196  
695.500000	87.264272  
696.000000	85.386583  
696.500000	83.715871  
697.000000	81.043515  
697.500000	78.489772  
698.000000	76.386939  
698.500000	74.422037  
699.000000	71.703636  
699.500000	69.170484  
700.000000	67.179386  
700.500000	65.516007  
701.000000	64.195439  
701.500000	62.899310  
702.000000	61.606931  
702.500000	59.601522  
703.000000	57.146734  
703.500000	54.179984  
704.000000	51.743977  
704.500000	50.406590  
705.000000	49.792787  
705.500000	48.769499  
706.000000	46.843499  
706.500000	44.836234  
707.000000	43.254909  
707.500000	42.139416  
708.000000	41.268022  
708.500000	40.982522  
709.000000	41.040212  
709.500000	40.350204  
710.000000	38.836681  
710.500000	37.180234  
711.000000	36.173106  
711.500000	35.146386  
712.000000	33.594909  
712.500000	32.222946  
713.000000	31.543909  
713.500000	31.346992  
714.000000	30.398378  
714.500000	29.375606  
715.000000	28.025136  
715.500000	27.348492  
716.000000	26.444393  
716.500000	26.090075  
717.000000	25.350303  
717.500000	24.736204  
718.000000	24.090651  
718.500000	23.864719  
719.000000	23.255939  
719.500000	22.114098  
720.000000	21.477295  
720.500000	21.277651  
721.000000	21.029886  
721.500000	19.821151  
722.000000	18.745681  
722.500000	18.060590  
723.000000	17.879416  
723.500000	17.855878  
724.000000	17.747431  
724.500000	17.269280  
725.000000	16.370333  
725.500000	15.643204  
726.000000	15.187734  
726.500000	15.076257  
727.000000	14.914886  
727.500000	14.498606  
728.000000	13.938712  
728.500000	13.526750  
729.000000	13.257522  
729.500000	13.101553  
730.000000	12.940333  
730.500000	12.874984  
731.000000	12.350878  
731.500000	11.653409  
732.000000	11.102772  
732.500000	11.196151  
733.000000	11.257121  
733.500000	11.072371  
734.000000	10.777386  
734.500000	10.715053  
735.000000	10.588386  
735.500000	10.290053  
736.000000	9.774606   
736.500000	9.308742   
737.000000	8.719553   
737.500000	8.347583   
738.000000	8.268863   
738.500000	8.534712   
739.000000	8.736848   
739.500000	8.605446   
740.000000	8.373454   
740.500000	7.994666   
741.000000	7.827681   
741.500000	7.594954   
742.000000	7.545886   
742.500000	7.235522   
743.000000	6.962469   
743.500000	6.723227   
744.000000	6.750969   
744.500000	6.883295   
745.000000	6.752931   
745.500000	6.439090   
746.000000	6.150606   
746.500000	6.360363   
747.000000	6.711530   
747.500000	6.920181   
748.000000	6.562568   
748.500000	6.184393   
749.000000	5.771219   
749.500000	5.520825   
750.000000	5.265878   
750.500000	5.213643   
751.000000	5.213348   
751.500000	5.299628   
752.000000	5.389901   
752.500000	5.396863   
753.000000	5.245068   
753.500000	4.951878   
754.000000	4.901962   
754.500000	5.075507   
755.000000	5.361060   
755.500000	5.349196   
756.000000	5.082174   
756.500000	4.617522   
757.000000	4.384462   
757.500000	4.337439   
758.000000	4.481901   
758.500000	4.811598   
759.000000	5.127280   
759.500000	5.086522   
760.000000	4.453909   
760.500000	3.879348   
761.000000	3.670666   
761.500000	4.086393   
762.000000	4.408825   
762.500000	4.645431   
763.000000	4.436053   
763.500000	4.278484   
764.000000	4.252537   
764.500000	4.386477   
765.000000	4.318909   
765.500000	4.098969   
766.000000	3.915939   
766.500000	3.937212   
767.000000	4.094151   
767.500000	4.163681   
768.000000	4.101507   
768.500000	3.892060   
769.000000	3.677674   
769.500000	3.516856   
770.000000	3.442325   
770.500000	3.506621   
771.000000	3.620833   
771.500000	3.608257   
772.000000	3.448121   
772.500000	3.270689   
773.000000	3.255166   
773.500000	3.259628   
774.000000	3.225613   
774.500000	3.265030   
775.000000	3.338598   
775.500000	3.327196   
776.000000	3.168151   
776.500000	3.160106   
777.000000	3.309977   
777.500000	3.428946   
778.000000	3.208477   
778.500000	2.868204   
779.000000	2.653901   
779.500000	2.663378   
780.000000	2.898840   
780.500000	3.092174   
781.000000	3.135219   
781.500000	3.037833   
782.000000	3.034689   
782.500000	3.038257   
783.000000	2.908416   
783.500000	2.673318   
784.000000	2.575325   
784.500000	2.737712   
785.000000	2.989553   
785.500000	3.075606   
786.000000	2.973909   
786.500000	2.786651   
787.000000	2.719265   
787.500000	2.595159   
788.000000	2.542159   
788.500000	2.492939   
789.000000	2.587242   
789.500000	2.642272   
790.000000	2.789636   
790.500000	2.854643   
791.000000	2.892954   
791.500000	2.798371   
792.000000	2.784030   
792.500000	2.763772   
793.000000	2.785272   
793.500000	2.715969   
794.000000	2.751719   
794.500000	2.673484   
795.000000	2.597590   
795.500000	2.434856   
796.000000	2.271007   
796.500000	1.978825   
797.000000	1.851568   
797.500000	1.973969   
798.000000	2.313613   
798.500000	2.536568   
799.000000	2.627196   
799.500000	2.546022   
800.000000	2.326295   
800.500000	2.041265   
801.000000	1.947053   
801.500000	2.067280   
802.000000	2.121000   
802.500000	2.113500   
803.000000	2.088015   
803.500000	2.092106   
804.000000	1.970848   
804.500000	1.836780   
805.000000	1.778356   
805.500000	1.785825   
806.000000	1.802015   
806.500000	1.760174   
807.000000	1.799628   
807.500000	1.818257   
808.000000	1.934901   
808.500000	1.923083   
809.000000	1.857462   
809.500000	1.632606   
810.000000	1.464378   
810.500000	1.404348   
811.000000	1.595234   
811.500000	1.829416   
812.000000	1.801431   
812.500000	1.651060   
813.000000	1.461909   
813.500000	1.594166   
814.000000	1.753689   
814.500000	1.891810   
815.000000	1.893310   
815.500000	1.827303   
816.000000	1.654151   
816.500000	1.478954   
817.000000	1.387257   
817.500000	1.315227   
818.000000	1.293242   
818.500000	1.201060   
819.000000	1.228825   
819.500000	1.352507   
820.000000	1.584287   
820.500000	1.896083   
821.000000	2.162825   
821.500000	2.332871   
822.000000	2.364446   
822.500000	2.349204   
823.000000	2.228803   
823.500000	2.197242   
824.000000	2.125181   
824.500000	2.208628   
825.000000	2.272795   
825.500000	2.442325   
826.000000	2.524106   
826.500000	2.452984   
827.000000	2.353113   
827.500000	2.273219   
828.000000	2.230590   
828.500000	1.896401   
829.000000	1.562689   
829.500000	1.264946   
830.000000	1.225598   
830.500000	1.205484   
831.000000	1.258401   
831.500000	1.273477   
832.000000	1.229325   
832.500000	1.112439   
833.000000	1.027234   
833.500000	1.018462   
834.000000	1.053219   
834.500000	1.093795   
835.000000	1.145628   
835.500000	1.083704   
836.000000	0.893651   
836.500000	0.748045   
837.000000	0.823863   
837.500000	1.017333   
838.000000	1.073750   
838.500000	1.010992   
839.000000	0.865621   
839.500000	0.740522   
840.000000	0.633356   
840.500000	0.703265   
841.000000	0.873325   
841.500000	0.908856   
842.000000	0.805621   
842.500000	0.725924   
843.000000	0.763469   
843.500000	0.735310   
844.000000	0.606734   
844.500000	0.440818   
845.000000	0.347121   
845.500000	0.307325   
846.000000	0.462015   
846.500000	0.575666   
847.000000	0.516492   
847.500000	0.288174   
848.000000	0.251121   
848.500000	0.300356   
849.000000	0.313393   
849.500000	0.151424   
850.000000	0.045090   
850.500000	-0.031840  
851.000000	-0.098007  
851.500000	-0.081462  
852.000000	0.071242   
852.500000	0.226727   
853.000000	0.312780   
853.500000	0.337431   
854.000000	0.269545   
854.500000	0.235818   
855.000000	0.164977   
855.500000	0.120795   
856.000000	-0.014234  
856.500000	-0.085469  
857.000000	-0.082454  
857.500000	0.032143   
858.000000	0.118007   
858.500000	0.110492   
859.000000	0.073484   
859.500000	-0.058636  
860.000000	-0.130098  
860.500000	-0.158340  
861.000000	-0.066454  
861.500000	0.083106   
862.000000	0.198090   
862.500000	0.247431   
863.000000	0.122136   
863.500000	-0.006181  
864.000000	-0.132469  
864.500000	-0.182856  
865.000000	-0.222166  
865.500000	-0.139750  
866.000000	0.052166   
866.500000	0.234916   
867.000000	0.245196   
867.500000	0.174878   
868.000000	0.057272   
868.500000	-0.052856  
869.000000	-0.131492  
869.500000	-0.069371  
870.000000	-0.006727  
870.500000	0.061719   
871.000000	0.036007   
871.500000	0.008227   
872.000000	-0.062303  
872.500000	-0.143136  
873.000000	-0.156204  
873.500000	-0.105250  
874.000000	-0.030727  
874.500000	-0.062196  
875.000000	-0.129863  
875.500000	-0.212007  
876.000000	-0.087962  
876.500000	0.000636   
877.000000	0.031977   
877.500000	-0.032833  
878.000000	-0.008992  
878.500000	0.045477   
879.000000	0.118045   
879.500000	0.052757   
880.000000	-0.028393  
880.500000	-0.089749  
881.000000	-0.061431  
881.500000	0.031356   
882.000000	0.083500   
882.500000	0.050583   
883.000000	-0.029613  
883.500000	-0.061825  
884.000000	-0.046606  
884.500000	0.012628   
885.000000	0.006037   
885.500000	-0.050477  
886.000000	-0.118318  
886.500000	-0.115477  
887.000000	-0.079825  
887.500000	-0.097613  
888.000000	-0.164098  
888.500000	-0.140969  
889.000000	-0.068196  
889.500000	-0.041651  
890.000000	-0.114984  
890.500000	-0.121000  
891.000000	-0.091901  
891.500000	-0.089954  
892.000000	-0.142681  
892.500000	-0.137886  
893.000000	-0.078893  
893.500000	-0.018325  
894.000000	-0.002106  
894.500000	0.038363   
895.000000	0.077484   
895.500000	0.075484   
896.000000	0.000772   
896.500000	-0.039416  
897.000000	-0.054295  
897.500000	-0.054568  
898.000000	-0.075909  
898.500000	-0.065424  
899.000000	-0.027212  
899.500000	0.050151   
900.000000	0.194045   
900.500000	0.431999   

