PE FL                   SPECTRUM    ASCII       PEDS        1.60        
  -1
S01_IN~4.SP
24/04/11
16:09:02.00
24/04/11
16:09:02.00
Jan

896.500000
1









LS55
405.00
5.00
5.00
SCAN
1
20
100
100
0
400
0
1
0
1
5
ON
736 405 
1 0 0
#HDR
-1
-1
#GR
NM

0.00002384185791015625
0.0
450.000000
0.500000
894
8
404.912441
-0.223311
#DATA
450.000000	-0.032999  
450.500000	0.069215   
451.000000	0.163265   
451.500000	0.183174   
452.000000	0.107846   
452.500000	0.051033   
453.000000	0.021057   
453.500000	0.025465   
454.000000	0.080005   
454.500000	0.208044   
455.000000	0.309552   
455.500000	0.355951   
456.000000	0.361283   
456.500000	0.298452   
457.000000	0.249760   
457.500000	0.192925   
458.000000	0.192410   
458.500000	0.199141   
459.000000	0.204406   
459.500000	0.184417   
460.000000	0.093641   
460.500000	0.072946   
461.000000	0.062376   
461.500000	0.067604   
462.000000	0.104682   
462.500000	0.154576   
463.000000	0.173782   
463.500000	0.099591   
464.000000	0.050604   
464.500000	0.012970   
465.000000	0.006066   
465.500000	0.021632   
466.000000	0.081181   
466.500000	0.118463   
467.000000	0.098703   
467.500000	0.058569   
468.000000	0.018636   
468.500000	-0.008656  
469.000000	-0.025903  
469.500000	0.004619   
470.000000	0.060497   
470.500000	0.085094   
471.000000	0.053653   
471.500000	0.016721   
472.000000	-0.003280  
472.500000	0.002437   
473.000000	0.058645   
473.500000	0.164742   
474.000000	0.263897   
474.500000	0.279567   
475.000000	0.253122   
475.500000	0.192441   
476.000000	0.109435   
476.500000	0.006823   
477.000000	-0.030506  
477.500000	0.009016   
478.000000	0.102565   
478.500000	0.194755   
479.000000	0.285873   
479.500000	0.346584   
480.000000	0.329521   
480.500000	0.274693   
481.000000	0.194053   
481.500000	0.134745   
482.000000	0.080576   
482.500000	0.054207   
483.000000	0.077879   
483.500000	0.098979   
484.000000	0.162699   
484.500000	0.211346   
485.000000	0.213012   
485.500000	0.186688   
486.000000	0.130560   
486.500000	0.065638   
487.000000	-0.025443  
487.500000	-0.019224  
488.000000	0.079617   
488.500000	0.176645   
489.000000	0.239458   
489.500000	0.285025   
490.000000	0.291335   
490.500000	0.203825   
491.000000	0.137486   
491.500000	0.141749   
492.000000	0.179243   
492.500000	0.214756   
493.000000	0.266298   
493.500000	0.312070   
494.000000	0.290630   
494.500000	0.220302   
495.000000	0.174539   
495.500000	0.180922   
496.000000	0.207135   
496.500000	0.257792   
497.000000	0.323215   
497.500000	0.382428   
498.000000	0.399471   
498.500000	0.426196   
499.000000	0.466233   
499.500000	0.507873   
500.000000	0.555714   
500.500000	0.604367   
501.000000	0.649218   
501.500000	0.671677   
502.000000	0.698846   
502.500000	0.742751   
503.000000	0.784410   
503.500000	0.825445   
504.000000	0.857641   
504.500000	0.867014   
505.000000	0.858263   
505.500000	0.851970   
506.000000	0.860512   
506.500000	0.903612   
507.000000	0.941742   
507.500000	0.992111   
508.000000	1.038547   
508.500000	1.055102   
509.000000	1.022419   
509.500000	0.990189   
510.000000	1.021298   
510.500000	1.086107   
511.000000	1.239461   
511.500000	1.444740   
512.000000	1.674482   
512.500000	1.853424   
513.000000	1.928831   
513.500000	1.922512   
514.000000	1.856743   
514.500000	1.766332   
515.000000	1.660146   
515.500000	1.638330   
516.000000	1.727983   
516.500000	1.879966   
517.000000	2.057951   
517.500000	2.286875   
518.000000	2.472306   
518.500000	2.551267   
519.000000	2.566165   
519.500000	2.585337   
520.000000	2.588705   
520.500000	2.556142   
521.000000	2.619896   
521.500000	2.681543   
522.000000	2.701807   
522.500000	2.689441   
523.000000	2.698562   
523.500000	2.742122   
524.000000	2.788990   
524.500000	2.869805   
525.000000	3.046868   
525.500000	3.278471   
526.000000	3.483102   
526.500000	3.703653   
527.000000	3.920729   
527.500000	4.122400   
528.000000	4.179849   
528.500000	4.253844   
529.000000	4.353480   
529.500000	4.460135   
530.000000	4.592256   
530.500000	4.724094   
531.000000	5.011875   
531.500000	5.197248   
532.000000	5.425055   
532.500000	5.566417   
533.000000	5.706512   
533.500000	5.869910   
534.000000	5.969760   
534.500000	6.188742   
535.000000	6.415313   
535.500000	6.773434   
536.000000	7.091910   
536.500000	7.431792   
537.000000	7.809669   
537.500000	8.125113   
538.000000	8.489157   
538.500000	8.810115   
539.000000	9.247415   
539.500000	9.683437   
540.000000	10.109358  
540.500000	10.519178  
541.000000	10.899365  
541.500000	11.285673  
542.000000	11.560671  
542.500000	11.770068  
543.000000	11.883244  
543.500000	11.907753  
544.000000	11.823794  
544.500000	11.631037  
545.000000	11.465109  
545.500000	11.266276  
546.000000	11.091545  
546.500000	10.909337  
547.000000	10.782454  
547.500000	10.720139  
548.000000	10.569137  
548.500000	10.485489  
549.000000	10.417679  
549.500000	10.325782  
550.000000	10.214319  
550.500000	10.175324  
551.000000	10.282252  
551.500000	10.329395  
552.000000	10.439519  
552.500000	10.508168  
553.000000	10.457152  
553.500000	10.322439  
554.000000	10.239740  
554.500000	10.292428  
555.000000	10.373027  
555.500000	10.642988  
556.000000	11.002556  
556.500000	11.310571  
557.000000	11.539335  
557.500000	11.775129  
558.000000	11.971332  
558.500000	12.182356  
559.000000	12.449358  
559.500000	12.729372  
560.000000	12.989562  
560.500000	13.210202  
561.000000	13.494094  
561.500000	13.819677  
562.000000	14.249387  
562.500000	14.830873  
563.000000	15.500350  
563.500000	16.175055  
564.000000	16.841717  
564.500000	17.397302  
565.000000	17.917437  
565.500000	18.440469  
566.000000	19.008317  
566.500000	19.615020  
567.000000	20.234927  
567.500000	21.011283  
568.000000	21.754716  
568.500000	22.575608  
569.000000	23.466916  
569.500000	24.365257  
570.000000	25.196291  
570.500000	25.994482  
571.000000	26.750074  
571.500000	27.379050  
572.000000	27.937742  
572.500000	28.795204  
573.000000	29.752430  
573.500000	30.731840  
574.000000	31.767411  
574.500000	32.871480  
575.000000	33.757228  
575.500000	34.432441  
576.000000	35.265708  
576.500000	36.057261  
577.000000	36.824302  
577.500000	37.542565  
578.000000	38.460499  
578.500000	39.340508  
579.000000	40.306500  
579.500000	41.439089  
580.000000	42.539738  
580.500000	43.664502  
581.000000	44.512794  
581.500000	45.227000  
582.000000	45.664547  
582.500000	46.306278  
583.000000	47.171170  
583.500000	48.200903  
584.000000	49.425022  
584.500000	50.775031  
585.000000	52.066159  
585.500000	53.073532  
586.000000	54.072220  
586.500000	55.094619  
587.000000	56.192645  
587.500000	57.380103  
588.000000	58.765424  
588.500000	60.341269  
589.000000	61.832139  
589.500000	63.239287  
590.000000	64.521693  
590.500000	65.859276  
591.000000	67.385259  
591.500000	69.095307  
592.000000	71.033751  
592.500000	73.018736  
593.000000	75.019003  
593.500000	76.742695  
594.000000	78.220545  
594.500000	79.656018  
595.000000	80.975168  
595.500000	82.438185  
596.000000	84.134604  
596.500000	86.181311  
597.000000	88.253651  
597.500000	90.264480  
598.000000	92.524951  
598.500000	94.809384  
599.000000	96.881094  
599.500000	98.919968  
600.000000	101.099148 
600.500000	102.979690 
601.000000	104.648970 
601.500000	106.399755 
602.000000	108.353443 
602.500000	110.369617 
603.000000	112.568220 
603.500000	115.190018 
604.000000	117.903118 
604.500000	120.377640 
605.000000	122.828686 
605.500000	125.433009 
606.000000	128.161055 
606.500000	130.983912 
607.000000	134.041124 
607.500000	137.292729 
608.000000	140.493597 
608.500000	143.689348 
609.000000	146.956489 
609.500000	150.354693 
610.000000	153.404059 
610.500000	156.042866 
611.000000	159.042233 
611.500000	162.324181 
612.000000	165.842873 
612.500000	169.782348 
613.000000	174.634094 
613.500000	179.399502 
614.000000	183.467647 
614.500000	187.190545 
615.000000	190.524220 
615.500000	193.439608 
616.000000	195.746048 
616.500000	198.803897 
617.000000	202.640890 
617.500000	206.724944 
618.000000	211.185667 
618.500000	216.200376 
619.000000	221.618651 
619.500000	226.058109 
620.000000	229.881562 
620.500000	233.552558 
621.000000	237.000224 
621.500000	240.330107 
622.000000	244.114291 
622.500000	248.966987 
623.000000	253.979788 
623.500000	258.741335 
624.000000	263.637328 
624.500000	268.367897 
625.000000	272.368847 
625.500000	275.989237 
626.000000	280.080452 
626.500000	284.397983 
627.000000	288.862265 
627.500000	294.108250 
628.000000	299.908048 
628.500000	305.319795 
629.000000	310.288135 
629.500000	315.207105 
630.000000	319.874988 
630.500000	323.724048 
631.000000	327.398988 
631.500000	331.367944 
632.000000	334.704096 
632.500000	337.787363 
633.000000	341.255458 
633.500000	345.130157 
634.000000	348.950000 
634.500000	352.920790 
635.000000	357.476751 
635.500000	361.602443 
636.000000	365.178398 
636.500000	368.603844 
637.000000	371.849992 
637.500000	374.730317 
638.000000	377.085773 
638.500000	379.338452 
639.000000	381.498799 
639.500000	383.479283 
640.000000	385.935512 
640.500000	388.822820 
641.000000	391.684471 
641.500000	393.976621 
642.000000	395.875302 
642.500000	397.262222 
643.000000	397.817922 
643.500000	397.963975 
644.000000	397.962205 
644.500000	398.815656 
645.000000	400.087580 
645.500000	401.691677 
646.000000	403.216480 
646.500000	404.439209 
647.000000	404.912441 
647.500000	404.246949 
648.000000	403.698727 
648.500000	403.246270 
649.000000	402.766879 
649.500000	402.237087 
650.000000	402.067172 
650.500000	401.717419 
651.000000	400.082202 
651.500000	397.894525 
652.000000	395.460302 
652.500000	392.744935 
653.000000	389.456484 
653.500000	386.626465 
654.000000	384.177016 
654.500000	381.908192 
655.000000	380.088766 
655.500000	378.449992 
656.000000	376.698263 
656.500000	374.259621 
657.000000	371.635758 
657.500000	368.693851 
658.000000	365.199280 
658.500000	361.537220 
659.000000	357.789547 
659.500000	353.898651 
660.000000	349.720601 
660.500000	345.781658 
661.000000	341.753740 
661.500000	337.373231 
662.000000	332.788790 
662.500000	328.240599 
663.000000	323.690769 
663.500000	319.073717 
664.000000	314.876584 
664.500000	310.781165 
665.000000	306.883155 
665.500000	302.517491 
666.000000	297.454241 
666.500000	291.707719 
667.000000	285.703215 
667.500000	279.793977 
668.000000	273.964174 
668.500000	268.762868 
669.000000	263.931883 
669.500000	258.986205 
670.000000	253.659755 
670.500000	248.415706 
671.000000	243.034319 
671.500000	237.741595 
672.000000	232.966894 
672.500000	228.418519 
673.000000	223.623938 
673.500000	218.101914 
674.000000	212.287686 
674.500000	205.999758 
675.000000	199.867150 
675.500000	194.193801 
676.000000	189.370450 
676.500000	184.777011 
677.000000	180.392128 
677.500000	176.060170 
678.000000	171.261320 
678.500000	166.237471 
679.000000	161.212423 
679.500000	156.603196 
680.000000	152.184231 
680.500000	148.231940 
681.000000	144.599257 
681.500000	140.865502 
682.000000	137.052558 
682.500000	133.179265 
683.000000	129.437222 
683.500000	125.564608 
684.000000	121.871721 
684.500000	118.550076 
685.000000	115.349315 
685.500000	111.985024 
686.000000	108.703191 
686.500000	105.467877 
687.000000	102.261393 
687.500000	99.210857  
688.000000	96.459538  
688.500000	93.922549  
689.000000	91.301239  
689.500000	88.777018  
690.000000	86.288948  
690.500000	83.893693  
691.000000	81.599653  
691.500000	79.344801  
692.000000	77.024640  
692.500000	74.440825  
693.000000	71.828764  
693.500000	69.204836  
694.000000	66.782380  
694.500000	64.777641  
695.000000	63.271849  
695.500000	62.026098  
696.000000	60.950873  
696.500000	59.777719  
697.000000	58.438484  
697.500000	56.828443  
698.000000	55.042723  
698.500000	53.204992  
699.000000	51.364981  
699.500000	49.684402  
700.000000	48.079599  
700.500000	46.506372  
701.000000	45.057168  
701.500000	43.653142  
702.000000	42.395589  
702.500000	41.400833  
703.000000	40.696903  
703.500000	40.078580  
704.000000	39.328669  
704.500000	38.453113  
705.000000	37.518359  
705.500000	36.455372  
706.000000	35.398122  
706.500000	34.471155  
707.000000	33.591254  
707.500000	32.712673  
708.000000	31.792176  
708.500000	31.094658  
709.000000	30.513369  
709.500000	29.990333  
710.000000	29.545356  
710.500000	28.993298  
711.000000	28.404517  
711.500000	27.525018  
712.000000	26.715933  
712.500000	26.020632  
713.000000	25.479621  
713.500000	24.952610  
714.000000	24.423035  
714.500000	23.959955  
715.000000	23.309512  
715.500000	22.576252  
716.000000	21.847417  
716.500000	21.293740  
717.000000	20.767423  
717.500000	20.295012  
718.000000	20.048779  
718.500000	19.796107  
719.000000	19.481875  
719.500000	19.068064  
720.000000	18.705474  
720.500000	18.288009  
721.000000	17.828515  
721.500000	17.388070  
722.000000	16.956773  
722.500000	16.548675  
723.000000	16.130072  
723.500000	15.802612  
724.000000	15.529719  
724.500000	15.384018  
725.000000	15.194742  
725.500000	14.917012  
726.000000	14.652094  
726.500000	14.279430  
727.000000	13.920163  
727.500000	13.532320  
728.000000	13.276554  
728.500000	13.063513  
729.000000	12.844712  
729.500000	12.729081  
730.000000	12.576688  
730.500000	12.445244  
731.000000	12.243680  
731.500000	11.998743  
732.000000	11.731133  
732.500000	11.371510  
733.000000	11.063923  
733.500000	10.804936  
734.000000	10.692304  
734.500000	10.694129  
735.000000	10.712617  
735.500000	10.759024  
736.000000	10.662608  
736.500000	10.456725  
737.000000	10.118307  
737.500000	9.773764   
738.000000	9.494515   
738.500000	9.220307   
739.000000	9.072313   
739.500000	8.976992   
740.000000	8.911621   
740.500000	8.759259   
741.000000	8.622361   
741.500000	8.661734   
742.000000	8.705868   
742.500000	8.766469   
743.000000	8.805204   
743.500000	8.788274   
744.000000	8.577215   
744.500000	8.242289   
745.000000	7.876743   
745.500000	7.531204   
746.000000	7.255424   
746.500000	7.072545   
747.000000	6.948573   
747.500000	6.880350   
748.000000	6.907387   
748.500000	6.904115   
749.000000	6.829005   
749.500000	6.828064   
750.000000	6.857465   
750.500000	6.826042   
751.000000	6.752840   
751.500000	6.778480   
752.000000	6.759460   
752.500000	6.590410   
753.000000	6.351680   
753.500000	6.066397   
754.000000	5.787868   
754.500000	5.629393   
755.000000	5.652244   
755.500000	5.851077   
756.000000	6.111181   
756.500000	6.319391   
757.000000	6.356267   
757.500000	6.197831   
758.000000	5.928220   
758.500000	5.637055   
759.000000	5.378558   
759.500000	5.267575   
760.000000	5.241805   
760.500000	5.228163   
761.000000	5.180300   
761.500000	5.130384   
762.000000	5.018870   
762.500000	4.911719   
763.000000	4.847096   
763.500000	4.876640   
764.000000	4.926012   
764.500000	4.978100   
765.000000	5.036434   
765.500000	4.997200   
766.000000	4.898734   
766.500000	4.754053   
767.000000	4.672834   
767.500000	4.584946   
768.000000	4.486244   
768.500000	4.410953   
769.000000	4.389465   
769.500000	4.410300   
770.000000	4.379131   
770.500000	4.380159   
771.000000	4.343332   
771.500000	4.214469   
772.000000	3.979035   
772.500000	3.811092   
773.000000	3.733435   
773.500000	3.683564   
774.000000	3.734549   
774.500000	3.810135   
775.000000	3.859808   
775.500000	3.791701   
776.000000	3.753163   
776.500000	3.769222   
777.000000	3.771755   
777.500000	3.797411   
778.000000	3.778712   
778.500000	3.691035   
779.000000	3.539161   
779.500000	3.410888   
780.000000	3.333858   
780.500000	3.254307   
781.000000	3.260653   
781.500000	3.270732   
782.000000	3.232844   
782.500000	3.183141   
783.000000	3.164764   
783.500000	3.177972   
784.000000	3.156729   
784.500000	3.190437   
785.000000	3.264849   
785.500000	3.289706   
786.000000	3.268558   
786.500000	3.236506   
787.000000	3.206779   
787.500000	3.136146   
788.000000	3.080309   
788.500000	3.061153   
789.000000	3.050128   
789.500000	3.029120   
790.000000	3.006168   
790.500000	2.972224   
791.000000	2.932957   
791.500000	2.884808   
792.000000	2.827320   
792.500000	2.790085   
793.000000	2.780833   
793.500000	2.790384   
794.000000	2.808463   
794.500000	2.821534   
795.000000	2.824749   
795.500000	2.798690   
796.000000	2.767282   
796.500000	2.749226   
797.000000	2.720771   
797.500000	2.721116   
798.000000	2.742044   
798.500000	2.731760   
799.000000	2.702421   
799.500000	2.686333   
800.000000	2.702513   
800.500000	2.714721   
801.000000	2.726261   
801.500000	2.750170   
802.000000	2.738847   
802.500000	2.702068   
803.000000	2.666528   
803.500000	2.610205   
804.000000	2.528333   
804.500000	2.420792   
805.000000	2.302944   
805.500000	2.160254   
806.000000	2.036745   
806.500000	1.969001   
807.000000	1.947385   
807.500000	1.962460   
808.000000	2.024207   
808.500000	2.060092   
809.000000	2.101584   
809.500000	2.165165   
810.000000	2.230886   
810.500000	2.255745   
811.000000	2.207209   
811.500000	2.123771   
812.000000	2.017176   
812.500000	1.915187   
813.000000	1.909491   
813.500000	1.940289   
814.000000	1.979827   
814.500000	2.012463   
815.000000	1.992732   
815.500000	1.918562   
816.000000	1.788144   
816.500000	1.708417   
817.000000	1.731695   
817.500000	1.820024   
818.000000	1.970404   
818.500000	2.072307   
819.000000	2.134630   
819.500000	2.108330   
820.000000	2.037810   
820.500000	1.999461   
821.000000	2.044294   
821.500000	2.195812   
822.000000	2.407708   
822.500000	2.650994   
823.000000	2.882782   
823.500000	2.995627   
824.000000	3.022484   
824.500000	2.990037   
825.000000	2.930050   
825.500000	2.841834   
826.000000	2.735261   
826.500000	2.682610   
827.000000	2.583298   
827.500000	2.456265   
828.000000	2.335176   
828.500000	2.208526   
829.000000	2.084289   
829.500000	1.961586   
830.000000	1.908853   
830.500000	1.837011   
831.000000	1.728575   
831.500000	1.632090   
832.000000	1.532645   
832.500000	1.421051   
833.000000	1.330530   
833.500000	1.289710   
834.000000	1.258050   
834.500000	1.176801   
835.000000	1.084259   
835.500000	1.004853   
836.000000	0.921834   
836.500000	0.874081   
837.000000	0.848113   
837.500000	0.849040   
838.000000	0.849608   
838.500000	0.852656   
839.000000	0.865411   
839.500000	0.880777   
840.000000	0.902038   
840.500000	0.918081   
841.000000	0.929972   
841.500000	0.947027   
842.000000	0.955758   
842.500000	0.950764   
843.000000	0.934441   
843.500000	0.896506   
844.000000	0.831300   
844.500000	0.740933   
845.000000	0.636489   
845.500000	0.558155   
846.000000	0.516660   
846.500000	0.535461   
847.000000	0.574677   
847.500000	0.643183   
848.000000	0.675556   
848.500000	0.638666   
849.000000	0.543454   
849.500000	0.436410   
850.000000	0.341912   
850.500000	0.239491   
851.000000	0.213706   
851.500000	0.238957   
852.000000	0.246831   
852.500000	0.215072   
853.000000	0.183092   
853.500000	0.132274   
854.000000	0.047428   
854.500000	-0.000020  
855.000000	-0.012196  
855.500000	0.013732   
856.000000	0.047862   
856.500000	0.106246   
857.000000	0.152274   
857.500000	0.193920   
858.000000	0.230307   
858.500000	0.236871   
859.000000	0.233057   
859.500000	0.219745   
860.000000	0.196343   
860.500000	0.128628   
861.000000	0.072359   
861.500000	0.064376   
862.000000	0.045330   
862.500000	0.024367   
863.000000	0.017604   
863.500000	0.021870   
864.000000	0.010332   
864.500000	-0.004139  
865.000000	0.040380   
865.500000	0.099782   
866.000000	0.138866   
866.500000	0.149654   
867.000000	0.160534   
867.500000	0.153647   
868.000000	0.111820   
868.500000	0.118424   
869.000000	0.116636   
869.500000	0.105185   
870.000000	0.074291   
870.500000	0.050552   
871.000000	0.032595   
871.500000	0.003619   
872.000000	0.026680   
872.500000	0.040341   
873.000000	0.067042   
873.500000	0.095743   
874.000000	0.134289   
874.500000	0.155530   
875.000000	0.140484   
875.500000	0.134801   
876.000000	0.090701   
876.500000	0.037730   
877.000000	0.009300   
877.500000	-0.002209  
878.000000	0.009740   
878.500000	0.033526   
879.000000	0.069840   
879.500000	0.084927   
880.000000	0.076014   
880.500000	0.038343   
881.000000	-0.010962  
881.500000	-0.064306  
882.000000	-0.104372  
882.500000	-0.108165  
883.000000	-0.067011  
883.500000	0.018499   
884.000000	0.096638   
884.500000	0.171510   
885.000000	0.209602   
885.500000	0.219860   
886.000000	0.208185   
886.500000	0.164428   
887.000000	0.133667   
887.500000	0.079957   
888.000000	0.062573   
888.500000	0.033319   
889.000000	0.011586   
889.500000	-0.026968  
890.000000	-0.103675  
890.500000	-0.168612  
891.000000	-0.223311  
891.500000	-0.220851  
892.000000	-0.190435  
892.500000	-0.094233  
893.000000	-0.005309  
893.500000	0.036311   
894.000000	0.052324   
894.500000	0.037495   
895.000000	-0.005096  
895.500000	-0.072115  
896.000000	-0.078905  
896.500000	-0.079051  

