PE FL                   SPECTRUM    ASCII       PEDS        1.60        
  -1
S00BC7~1.SP
24/04/11
16:30:25.00
24/04/11
16:30:25.00
Jan

896.500000
1









LS55
405.00
5.00
5.00
SCAN
1
20
100
100
0
400
0
1
0
1
5
ON
736 405 
1 0 0
#HDR
-1
-1
#GR
NM

0.00002384185791015625
0.0
450.000000
0.500000
894
8
343.710580
-0.270000
#DATA
450.000000	-0.270000  
450.500000	-0.070576  
451.000000	0.073853   
451.500000	0.136979   
452.000000	0.152107   
452.500000	0.091243   
453.000000	-0.006207  
453.500000	-0.101484  
454.000000	-0.119191  
454.500000	-0.090244  
455.000000	-0.009536  
455.500000	0.135562   
456.000000	0.289044   
456.500000	0.388502   
457.000000	0.423131   
457.500000	0.416556   
458.000000	0.340985   
458.500000	0.239380   
459.000000	0.126836   
459.500000	0.030519   
460.000000	-0.045612  
460.500000	-0.073727  
461.000000	-0.049790  
461.500000	-0.016120  
462.000000	0.055333   
462.500000	0.120105   
463.000000	0.144254   
463.500000	0.129599   
464.000000	0.090782   
464.500000	0.062903   
465.000000	0.056846   
465.500000	0.102089   
466.000000	0.185649   
466.500000	0.253430   
467.000000	0.309578   
467.500000	0.307719   
468.000000	0.262265   
468.500000	0.180962   
469.000000	0.116933   
469.500000	0.102712   
470.000000	0.098812   
470.500000	0.156818   
471.000000	0.219257   
471.500000	0.257135   
472.000000	0.228575   
472.500000	0.188833   
473.000000	0.172849   
473.500000	0.134666   
474.000000	0.123445   
474.500000	0.124747   
475.000000	0.163922   
475.500000	0.171365   
476.000000	0.172018   
476.500000	0.191161   
477.000000	0.211137   
477.500000	0.240769   
478.000000	0.259857   
478.500000	0.256042   
479.000000	0.222558   
479.500000	0.185810   
480.000000	0.127320   
480.500000	0.086072   
481.000000	0.068233   
481.500000	0.064057   
482.000000	0.067643   
482.500000	0.078411   
483.000000	0.076551   
483.500000	0.066170   
484.000000	0.052666   
484.500000	0.029981   
485.000000	-0.002153  
485.500000	-0.020007  
486.000000	-0.002673  
486.500000	0.016953   
487.000000	0.093899   
487.500000	0.192755   
488.000000	0.269423   
488.500000	0.274102   
489.000000	0.223855   
489.500000	0.169966   
490.000000	0.097666   
490.500000	0.121762   
491.000000	0.199890   
491.500000	0.283649   
492.000000	0.349721   
492.500000	0.380196   
493.000000	0.331398   
493.500000	0.225554   
494.000000	0.160712   
494.500000	0.122998   
495.000000	0.126018   
495.500000	0.161024   
496.000000	0.275699   
496.500000	0.380823   
497.000000	0.481727   
497.500000	0.577719   
498.000000	0.613504   
498.500000	0.634486   
499.000000	0.552886   
499.500000	0.495107   
500.000000	0.429029   
500.500000	0.428079   
501.000000	0.466027   
501.500000	0.506437   
502.000000	0.615972   
502.500000	0.661452   
503.000000	0.711896   
503.500000	0.726805   
504.000000	0.769526   
504.500000	0.779909   
505.000000	0.784734   
505.500000	0.861074   
506.000000	0.929879   
506.500000	1.012649   
507.000000	1.070020   
507.500000	1.133411   
508.000000	1.136476   
508.500000	1.104517   
509.000000	1.122367   
509.500000	1.169628   
510.000000	1.273697   
510.500000	1.406150   
511.000000	1.560222   
511.500000	1.691189   
512.000000	1.712623   
512.500000	1.712812   
513.000000	1.677294   
513.500000	1.670007   
514.000000	1.670109   
514.500000	1.693035   
515.000000	1.751027   
515.500000	1.797280   
516.000000	1.897933   
516.500000	2.033194   
517.000000	2.212630   
517.500000	2.376727   
518.000000	2.520614   
518.500000	2.602949   
519.000000	2.643230   
519.500000	2.670074   
520.000000	2.697096   
520.500000	2.754122   
521.000000	2.807272   
521.500000	2.859961   
522.000000	2.834200   
522.500000	2.788820   
523.000000	2.767695   
523.500000	2.808931   
524.000000	2.914400   
524.500000	3.066202   
525.000000	3.301222   
525.500000	3.455938   
526.000000	3.579814   
526.500000	3.692658   
527.000000	3.824343   
527.500000	3.956539   
528.000000	4.094280   
528.500000	4.399220   
529.000000	4.679649   
529.500000	4.909972   
530.000000	5.055547   
530.500000	5.223174   
531.000000	5.297103   
531.500000	5.254523   
532.000000	5.322057   
532.500000	5.509040   
533.000000	5.797218   
533.500000	6.084278   
534.000000	6.508884   
534.500000	6.863378   
535.000000	7.091701   
535.500000	7.245115   
536.000000	7.429499   
536.500000	7.689764   
537.000000	7.900680   
537.500000	8.236027   
538.000000	8.563562   
538.500000	8.928220   
539.000000	9.238224   
539.500000	9.562304   
540.000000	9.967048   
540.500000	10.381981  
541.000000	10.818756  
541.500000	11.138235  
542.000000	11.393205  
542.500000	11.544231  
543.000000	11.570198  
543.500000	11.520740  
544.000000	11.442792  
544.500000	11.386658  
545.000000	11.261671  
545.500000	11.114224  
546.000000	11.038283  
546.500000	10.966628  
547.000000	10.859782  
547.500000	10.723089  
548.000000	10.622248  
548.500000	10.501927  
549.000000	10.299406  
549.500000	10.151968  
550.000000	10.053758  
550.500000	10.031385  
551.000000	10.024168  
551.500000	10.030283  
552.000000	10.055664  
552.500000	10.073020  
553.000000	10.090953  
553.500000	10.104074  
554.000000	10.181181  
554.500000	10.326426  
555.000000	10.489894  
555.500000	10.640896  
556.000000	10.746615  
556.500000	10.906474  
557.000000	11.159706  
557.500000	11.402363  
558.000000	11.688211  
558.500000	12.011486  
559.000000	12.367003  
559.500000	12.583100  
560.000000	12.848345  
560.500000	13.269807  
561.000000	13.626844  
561.500000	13.989964  
562.000000	14.317074  
562.500000	14.750768  
563.000000	15.108628  
563.500000	15.563289  
564.000000	16.215482  
564.500000	16.844580  
565.000000	17.498183  
565.500000	17.952202  
566.000000	18.364768  
566.500000	18.638560  
567.000000	19.018560  
567.500000	19.583688  
568.000000	20.247922  
568.500000	21.020829  
569.000000	21.747567  
569.500000	22.549810  
570.000000	23.258985  
570.500000	23.957328  
571.000000	24.701938  
571.500000	25.434961  
572.000000	26.131113  
572.500000	26.860576  
573.000000	27.675072  
573.500000	28.401447  
574.000000	29.166443  
574.500000	29.911359  
575.000000	30.690658  
575.500000	31.425751  
576.000000	32.222554  
576.500000	33.119586  
577.000000	34.044831  
577.500000	35.080473  
578.000000	36.090172  
578.500000	37.149760  
579.000000	38.103961  
579.500000	38.860009  
580.000000	39.384677  
580.500000	39.706352  
581.000000	39.879363  
581.500000	40.021278  
582.000000	40.427805  
582.500000	41.339176  
583.000000	42.463640  
583.500000	43.729421  
584.000000	45.123395  
584.500000	46.374267  
585.000000	47.380387  
585.500000	48.160233  
586.000000	48.973519  
586.500000	49.798378  
587.000000	50.507463  
587.500000	51.275721  
588.000000	52.162925  
588.500000	53.177109  
589.000000	54.452447  
589.500000	56.013107  
590.000000	57.836818  
590.500000	59.659510  
591.000000	61.500166  
591.500000	63.154122  
592.000000	64.574218  
592.500000	65.917755  
593.000000	67.149812  
593.500000	68.411742  
594.000000	69.702732  
594.500000	71.306654  
595.000000	73.172408  
595.500000	74.978766  
596.000000	76.804996  
596.500000	78.615619  
597.000000	80.405929  
597.500000	82.168191  
598.000000	83.852113  
598.500000	85.711777  
599.000000	87.609421  
599.500000	89.574434  
600.000000	91.521725  
600.500000	93.518228  
601.000000	95.621202  
601.500000	97.659020  
602.000000	99.899734  
602.500000	102.039541 
603.000000	104.515756 
603.500000	107.254001 
604.000000	110.060844 
604.500000	112.693890 
605.000000	115.242873 
605.500000	117.829925 
606.000000	119.898332 
606.500000	122.030205 
607.000000	124.471858 
607.500000	127.319710 
608.000000	130.028897 
608.500000	132.416985 
609.000000	135.004899 
609.500000	137.143345 
610.000000	139.264734 
610.500000	141.429994 
611.000000	144.331231 
611.500000	147.832575 
612.000000	151.238432 
612.500000	154.922745 
613.000000	158.676964 
613.500000	162.255371 
614.000000	165.099241 
614.500000	167.943285 
615.000000	171.154035 
615.500000	174.056610 
616.000000	176.918959 
616.500000	179.952801 
617.000000	183.182729 
617.500000	186.374705 
618.000000	189.902623 
618.500000	193.850795 
619.000000	198.111777 
619.500000	202.705391 
620.000000	207.418009 
620.500000	211.989567 
621.000000	216.234710 
621.500000	220.081435 
622.000000	223.187641 
622.500000	225.856211 
623.000000	228.874512 
623.500000	232.252983 
624.000000	235.814467 
624.500000	239.790662 
625.000000	244.340192 
625.500000	248.580478 
626.000000	252.333012 
626.500000	256.201491 
627.000000	260.058478 
627.500000	263.917697 
628.000000	267.543619 
628.500000	271.135614 
629.000000	274.924617 
629.500000	278.537491 
630.000000	282.396786 
630.500000	286.289421 
631.000000	290.253588 
631.500000	293.702014 
632.000000	296.653009 
632.500000	299.817551 
633.000000	302.936215 
633.500000	306.290319 
634.000000	309.871382 
634.500000	313.598343 
635.000000	316.955944 
635.500000	319.506664 
636.000000	321.760562 
636.500000	323.287951 
637.000000	324.514599 
637.500000	325.934085 
638.000000	327.427118 
638.500000	328.756771 
639.000000	330.376851 
639.500000	332.753625 
640.000000	335.403450 
640.500000	338.317213 
641.000000	341.040654 
641.500000	342.950578 
642.000000	343.705491 
642.500000	343.368588 
643.000000	342.333077 
643.500000	340.953293 
644.000000	340.404076 
644.500000	340.725400 
645.000000	341.365925 
645.500000	342.484016 
646.000000	343.504178 
646.500000	343.710580 
647.000000	343.354302 
647.500000	342.900256 
648.000000	342.499133 
648.500000	341.394712 
649.000000	340.299907 
649.500000	339.500398 
650.000000	338.405256 
650.500000	337.024755 
651.000000	335.650671 
651.500000	334.321454 
652.000000	332.706161 
652.500000	330.818717 
653.000000	328.979714 
653.500000	326.794115 
654.000000	324.729693 
654.500000	323.089384 
655.000000	321.081356 
655.500000	318.672113 
656.000000	315.483764 
656.500000	311.978153 
657.000000	307.587094 
657.500000	303.360972 
658.000000	300.031489 
658.500000	297.353773 
659.000000	294.912159 
659.500000	292.348736 
660.000000	289.759955 
660.500000	286.228513 
661.000000	282.040217 
661.500000	277.643061 
662.000000	273.474792 
662.500000	269.147860 
663.000000	264.570358 
663.500000	259.954137 
664.000000	255.346248 
664.500000	250.415897 
665.000000	245.589736 
665.500000	240.916196 
666.000000	236.255987 
666.500000	231.830170 
667.000000	227.269038 
667.500000	222.934280 
668.000000	218.387287 
668.500000	214.042820 
669.000000	209.522215 
669.500000	204.740447 
670.000000	199.822126 
670.500000	194.996825 
671.000000	190.268365 
671.500000	185.662435 
672.000000	181.430658 
672.500000	177.304916 
673.000000	173.165816 
673.500000	168.879168 
674.000000	164.661068 
674.500000	160.323623 
675.000000	156.158751 
675.500000	152.148209 
676.000000	148.283827 
676.500000	144.396307 
677.000000	140.443289 
677.500000	136.562471 
678.000000	132.730042 
678.500000	129.081736 
679.000000	125.756198 
679.500000	122.878374 
680.000000	120.026211 
680.500000	117.203649 
681.000000	114.216871 
681.500000	110.970649 
682.000000	107.412307 
682.500000	103.667803 
683.000000	100.126293 
683.500000	96.645037  
684.000000	93.428113  
684.500000	90.465382  
685.000000	87.924059  
685.500000	85.698324  
686.000000	83.628849  
686.500000	81.889102  
687.000000	80.064330  
687.500000	78.205126  
688.000000	76.013252  
688.500000	73.740725  
689.000000	71.340866  
689.500000	68.860833  
690.000000	66.595530  
690.500000	64.344617  
691.000000	62.197207  
691.500000	60.017823  
692.000000	58.087469  
692.500000	56.384339  
693.000000	54.804716  
693.500000	53.465884  
694.000000	52.313619  
694.500000	51.165089  
695.000000	49.679048  
695.500000	48.181749  
696.000000	46.727109  
696.500000	45.242502  
697.000000	43.638730  
697.500000	42.330747  
698.000000	41.332473  
698.500000	40.320575  
699.000000	39.506820  
699.500000	38.885215  
700.000000	38.272818  
700.500000	37.493614  
701.000000	36.511005  
701.500000	35.510460  
702.000000	34.351434  
702.500000	33.279480  
703.000000	32.451625  
703.500000	31.783170  
704.000000	31.278788  
704.500000	30.679374  
705.000000	29.992723  
705.500000	29.182560  
706.000000	28.245664  
706.500000	27.301597  
707.000000	26.403539  
707.500000	25.699725  
708.000000	25.051148  
708.500000	24.504038  
709.000000	24.083102  
709.500000	23.644692  
710.000000	23.190929  
710.500000	22.690398  
711.000000	22.232187  
711.500000	21.720877  
712.000000	21.218320  
712.500000	20.754706  
713.000000	20.365311  
713.500000	20.061565  
714.000000	19.624593  
714.500000	19.138105  
715.000000	18.593851  
715.500000	18.000985  
716.000000	17.386536  
716.500000	16.985500  
717.000000	16.888037  
717.500000	16.828079  
718.000000	16.721185  
718.500000	16.514729  
719.000000	16.134326  
719.500000	15.482046  
720.000000	14.843688  
720.500000	14.336194  
721.000000	14.008912  
721.500000	13.806196  
722.000000	13.696512  
722.500000	13.589003  
723.000000	13.373484  
723.500000	13.147519  
724.000000	12.866463  
724.500000	12.635359  
725.000000	12.462959  
725.500000	12.344615  
726.000000	12.186137  
726.500000	11.958226  
727.000000	11.722059  
727.500000	11.427369  
728.000000	11.111489  
728.500000	10.812884  
729.000000	10.638217  
729.500000	10.551348  
730.000000	10.482669  
730.500000	10.522599  
731.000000	10.543890  
731.500000	10.469680  
732.000000	10.307207  
732.500000	10.076211  
733.000000	9.787528   
733.500000	9.417500   
734.000000	9.150723   
734.500000	8.947003   
735.000000	8.810204   
735.500000	8.720285   
736.000000	8.643838   
736.500000	8.599092   
737.000000	8.457484   
737.500000	8.333385   
738.000000	8.150471   
738.500000	8.053653   
739.000000	7.931660   
739.500000	7.778059   
740.000000	7.711756   
740.500000	7.623142   
741.000000	7.562970   
741.500000	7.408096   
742.000000	7.326931   
742.500000	7.238575   
743.000000	7.082319   
743.500000	6.967551   
744.000000	6.824795   
744.500000	6.803220   
745.000000	6.793953   
745.500000	6.850430   
746.000000	6.913695   
746.500000	7.017317   
747.000000	7.039061   
747.500000	6.882862   
748.000000	6.722710   
748.500000	6.566931   
749.000000	6.389400   
749.500000	6.215393   
750.000000	6.192539   
750.500000	6.173541   
751.000000	6.102591   
751.500000	6.037252   
752.000000	5.976975   
752.500000	5.904461   
753.000000	5.770421   
753.500000	5.719335   
754.000000	5.601100   
754.500000	5.487278   
755.000000	5.299807   
755.500000	5.072654   
756.000000	4.875532   
756.500000	4.704233   
757.000000	4.665400   
757.500000	4.678515   
758.000000	4.831953   
758.500000	4.998564   
759.000000	5.094350   
759.500000	5.185447   
760.000000	5.177478   
760.500000	5.160647   
761.000000	5.044400   
761.500000	4.971582   
762.000000	4.869949   
762.500000	4.741474   
763.000000	4.691942   
763.500000	4.668961   
764.000000	4.745897   
764.500000	4.864454   
765.000000	4.953671   
765.500000	4.961139   
766.000000	4.851775   
766.500000	4.663059   
767.000000	4.377918   
767.500000	4.170150   
768.000000	4.077918   
768.500000	4.045100   
769.000000	4.081532   
769.500000	4.170586   
770.000000	4.234157   
770.500000	4.199421   
771.000000	4.100602   
771.500000	3.996406   
772.000000	3.850126   
772.500000	3.685157   
773.000000	3.569333   
773.500000	3.504330   
774.000000	3.467810   
774.500000	3.523311   
775.000000	3.566369   
775.500000	3.646191   
776.000000	3.688649   
776.500000	3.687591   
777.000000	3.640834   
777.500000	3.552933   
778.000000	3.512567   
778.500000	3.414634   
779.000000	3.335578   
779.500000	3.270011   
780.000000	3.204658   
780.500000	3.133886   
781.000000	3.089957   
781.500000	3.135404   
782.000000	3.168411   
782.500000	3.201951   
783.000000	3.248435   
783.500000	3.264287   
784.000000	3.235276   
784.500000	3.193786   
785.000000	3.153662   
785.500000	3.070914   
786.000000	2.997588   
786.500000	2.975254   
787.000000	2.986300   
787.500000	3.026992   
788.000000	3.088333   
788.500000	3.161584   
789.000000	3.159489   
789.500000	3.126374   
790.000000	3.094888   
790.500000	3.063560   
791.000000	3.076003   
791.500000	3.099582   
792.000000	3.125682   
792.500000	3.126309   
793.000000	3.096948   
793.500000	3.061313   
794.000000	3.005428   
794.500000	2.984116   
795.000000	2.950315   
795.500000	2.917701   
796.000000	2.873181   
796.500000	2.811610   
797.000000	2.746126   
797.500000	2.687612   
798.000000	2.670369   
798.500000	2.645512   
799.000000	2.639209   
799.500000	2.620061   
800.000000	2.565322   
800.500000	2.514090   
801.000000	2.443289   
801.500000	2.382766   
802.000000	2.298463   
802.500000	2.232643   
803.000000	2.182862   
803.500000	2.120526   
804.000000	2.098014   
804.500000	2.123955   
805.000000	2.129643   
805.500000	2.116248   
806.000000	2.075493   
806.500000	2.039521   
807.000000	1.992844   
807.500000	1.965315   
808.000000	2.021237   
808.500000	2.111473   
809.000000	2.192931   
809.500000	2.228144   
810.000000	2.233447   
810.500000	2.226909   
811.000000	2.181213   
811.500000	2.137641   
812.000000	2.093545   
812.500000	2.068486   
813.000000	2.048411   
813.500000	2.070270   
814.000000	2.137866   
814.500000	2.194129   
815.000000	2.226562   
815.500000	2.218063   
816.000000	2.178029   
816.500000	2.061309   
817.000000	1.965833   
817.500000	1.899029   
818.000000	1.836899   
818.500000	1.853710   
819.000000	1.838545   
819.500000	1.862423   
820.000000	1.861076   
820.500000	1.907128   
821.000000	2.025732   
821.500000	2.136087   
822.000000	2.329884   
822.500000	2.475181   
823.000000	2.616090   
823.500000	2.654389   
824.000000	2.653820   
824.500000	2.625326   
825.000000	2.563521   
825.500000	2.565111   
826.000000	2.554131   
826.500000	2.547534   
827.000000	2.420291   
827.500000	2.242489   
828.000000	2.045690   
828.500000	1.880955   
829.000000	1.754018   
829.500000	1.693890   
830.000000	1.695456   
830.500000	1.650166   
831.000000	1.565128   
831.500000	1.450857   
832.000000	1.366833   
832.500000	1.302743   
833.000000	1.306838   
833.500000	1.321272   
834.000000	1.306640   
834.500000	1.226714   
835.000000	1.122209   
835.500000	1.031038   
836.000000	0.958534   
836.500000	0.977717   
837.000000	1.014953   
837.500000	1.058866   
838.000000	1.058666   
838.500000	1.031556   
839.000000	0.963643   
839.500000	0.880840   
840.000000	0.843218   
840.500000	0.843107   
841.000000	0.842218   
841.500000	0.840948   
842.000000	0.864187   
842.500000	0.825079   
843.000000	0.754346   
843.500000	0.677343   
844.000000	0.636435   
844.500000	0.582669   
845.000000	0.574510   
845.500000	0.617504   
846.000000	0.619755   
846.500000	0.622152   
847.000000	0.575667   
847.500000	0.544549   
848.000000	0.478823   
848.500000	0.406528   
849.000000	0.357176   
849.500000	0.300419   
850.000000	0.288068   
850.500000	0.252027   
851.000000	0.219584   
851.500000	0.210512   
852.000000	0.209118   
852.500000	0.238448   
853.000000	0.251571   
853.500000	0.300126   
854.000000	0.333634   
854.500000	0.326415   
855.000000	0.325673   
855.500000	0.292061   
856.000000	0.281588   
856.500000	0.242116   
857.000000	0.204038   
857.500000	0.158755   
858.000000	0.098803   
858.500000	0.056063   
859.000000	0.012243   
859.500000	0.013693   
860.000000	0.027437   
860.500000	0.077009   
861.000000	0.108283   
861.500000	0.133814   
862.000000	0.162385   
862.500000	0.189090   
863.000000	0.180955   
863.500000	0.140983   
864.000000	0.098111   
864.500000	0.053176   
865.000000	0.029046   
865.500000	0.043423   
866.000000	0.104376   
866.500000	0.156209   
867.000000	0.190623   
867.500000	0.166549   
868.000000	0.103230   
868.500000	0.039198   
869.000000	-0.031359  
869.500000	-0.087710  
870.000000	-0.103617  
870.500000	-0.079204  
871.000000	-0.066820  
871.500000	-0.042786  
872.000000	-0.016910  
872.500000	0.012419   
873.000000	-0.010547  
873.500000	-0.043089  
874.000000	-0.091293  
874.500000	-0.152102  
875.000000	-0.203487  
875.500000	-0.248925  
876.000000	-0.245977  
876.500000	-0.247406  
877.000000	-0.196894  
877.500000	-0.153884  
878.000000	-0.127805  
878.500000	-0.112534  
879.000000	-0.121756  
879.500000	-0.119324  
880.000000	-0.124614  
880.500000	-0.095916  
881.000000	-0.053560  
881.500000	-0.023157  
882.000000	-0.013756  
882.500000	-0.000419  
883.000000	0.017287   
883.500000	0.007784   
884.000000	0.019211   
884.500000	0.035881   
885.000000	0.044194   
885.500000	0.024807   
886.000000	0.005617   
886.500000	-0.001983  
887.000000	-0.007272  
887.500000	0.009055   
888.000000	0.011337   
888.500000	0.012205   
889.000000	-0.019222  
889.500000	-0.059881  
890.000000	-0.093775  
890.500000	-0.133248  
891.000000	-0.122936  
891.500000	-0.106562  
892.000000	-0.053294  
892.500000	-0.002328  
893.000000	0.035816   
893.500000	0.048129   
894.000000	0.010228   
894.500000	-0.047415  
895.000000	-0.127864  
895.500000	-0.193285  
896.000000	-0.224823  
896.500000	-0.206734  

