PE FL                   SPECTRUM    ASCII       PEDS        1.60        
  -1
S00383~1.SP
24/04/11
16:31:51.00
24/04/11
16:31:51.00
Jan

896.500000
1









LS55
405.00
5.00
5.00
SCAN
1
20
100
100
0
400
0
1
0
1
5
ON
736 405 
1 0 0
#HDR
-1
-1
#GR
NM

0.00002384185791015625
0.0
450.000000
0.500000
894
8
347.158628
-0.227582
#DATA
450.000000	0.032000   
450.500000	0.090970   
451.000000	0.193634   
451.500000	0.269970   
452.000000	0.282382   
452.500000	0.272879   
453.000000	0.248100   
453.500000	0.150423   
454.000000	0.020525   
454.500000	-0.041526  
455.000000	-0.073831  
455.500000	-0.066291  
456.000000	-0.025690  
456.500000	0.033996   
457.000000	0.093012   
457.500000	0.118942   
458.000000	0.172280   
458.500000	0.183066   
459.000000	0.155530   
459.500000	0.132465   
460.000000	0.076213   
460.500000	0.007363   
461.000000	-0.064981  
461.500000	-0.091102  
462.000000	-0.089423  
462.500000	-0.074465  
463.000000	0.005640   
463.500000	0.088454   
464.000000	0.147241   
464.500000	0.187191   
465.000000	0.174562   
465.500000	0.127172   
466.000000	0.043332   
466.500000	-0.032244  
467.000000	-0.040571  
467.500000	-0.024502  
468.000000	0.034961   
468.500000	0.063593   
469.000000	0.038601   
469.500000	-0.016543  
470.000000	-0.099474  
470.500000	-0.143771  
471.000000	-0.146905  
471.500000	-0.080467  
472.000000	-0.022734  
472.500000	0.002526   
473.000000	0.012413   
473.500000	-0.022076  
474.000000	-0.059341  
474.500000	-0.072484  
475.000000	-0.001614  
475.500000	0.072807   
476.000000	0.151723   
476.500000	0.199222   
477.000000	0.188115   
477.500000	0.134662   
478.000000	0.072166   
478.500000	0.045602   
479.000000	-0.015437  
479.500000	-0.043526  
480.000000	-0.040543  
480.500000	-0.048118  
481.000000	-0.061601  
481.500000	-0.056756  
482.000000	-0.022946  
482.500000	-0.053582  
483.000000	-0.034730  
483.500000	0.009241   
484.000000	0.052083   
484.500000	0.124300   
485.000000	0.204031   
485.500000	0.270738   
486.000000	0.239968   
486.500000	0.221821   
487.000000	0.225257   
487.500000	0.226139   
488.000000	0.291853   
488.500000	0.337445   
489.000000	0.355888   
489.500000	0.275131   
490.000000	0.181250   
490.500000	0.089135   
491.000000	-0.012263  
491.500000	-0.024487  
492.000000	0.000228   
492.500000	0.072441   
493.000000	0.156760   
493.500000	0.214523   
494.000000	0.255604   
494.500000	0.215807   
495.000000	0.169775   
495.500000	0.114656   
496.000000	0.078951   
496.500000	0.072397   
497.000000	0.121478   
497.500000	0.220834   
498.000000	0.307291   
498.500000	0.386285   
499.000000	0.441525   
499.500000	0.511936   
500.000000	0.555753   
500.500000	0.587753   
501.000000	0.617283   
501.500000	0.624858   
502.000000	0.625493   
502.500000	0.630243   
503.000000	0.679615   
503.500000	0.707497   
504.000000	0.746599   
504.500000	0.749536   
505.000000	0.767302   
505.500000	0.802868   
506.000000	0.841903   
506.500000	0.899853   
507.000000	0.946764   
507.500000	0.989005   
508.000000	0.969627   
508.500000	0.976914   
509.000000	1.038257   
509.500000	1.130118   
510.000000	1.222467   
510.500000	1.289411   
511.000000	1.390406   
511.500000	1.411231   
512.000000	1.363141   
512.500000	1.352539   
513.000000	1.421359   
513.500000	1.536530   
514.000000	1.655814   
514.500000	1.810395   
515.000000	1.939495   
515.500000	2.006261   
516.000000	2.030128   
516.500000	2.051278   
517.000000	2.112185   
517.500000	2.174489   
518.000000	2.237719   
518.500000	2.305610   
519.000000	2.364495   
519.500000	2.386087   
520.000000	2.357380   
520.500000	2.333478   
521.000000	2.398684   
521.500000	2.529486   
522.000000	2.668981   
522.500000	2.810846   
523.000000	2.975168   
523.500000	3.106473   
524.000000	3.172051   
524.500000	3.226380   
525.000000	3.287677   
525.500000	3.375660   
526.000000	3.432738   
526.500000	3.555725   
527.000000	3.712172   
527.500000	3.826864   
528.000000	3.949374   
528.500000	4.031276   
529.000000	4.186443   
529.500000	4.349397   
530.000000	4.590493   
530.500000	4.878022   
531.000000	5.198408   
531.500000	5.535677   
532.000000	5.790695   
532.500000	6.047461   
533.000000	6.239970   
533.500000	6.353437   
534.000000	6.447476   
534.500000	6.511578   
535.000000	6.578957   
535.500000	6.711630   
536.000000	6.971794   
536.500000	7.397189   
537.000000	7.874096   
537.500000	8.412051   
538.000000	8.937447   
538.500000	9.332712   
539.000000	9.684914   
539.500000	9.984205   
540.000000	10.265224  
540.500000	10.517111  
541.000000	10.789050  
541.500000	11.046855  
542.000000	11.254120  
542.500000	11.477606  
543.000000	11.621256  
543.500000	11.636050  
544.000000	11.557387  
544.500000	11.383224  
545.000000	11.164903  
545.500000	10.897070  
546.000000	10.700124  
546.500000	10.550367  
547.000000	10.464723  
547.500000	10.440350  
548.000000	10.425497  
548.500000	10.382723  
549.000000	10.306736  
549.500000	10.210534  
550.000000	10.052215  
550.500000	9.929141   
551.000000	9.857877   
551.500000	9.846771   
552.000000	9.862948   
552.500000	9.895992   
553.000000	9.923864   
553.500000	9.890085   
554.000000	9.843784   
554.500000	9.828541   
555.000000	9.978038   
555.500000	10.236977  
556.000000	10.495951  
556.500000	10.636630  
557.000000	10.797484  
557.500000	10.934647  
558.000000	11.063055  
558.500000	11.302699  
559.000000	11.741053  
559.500000	12.237066  
560.000000	12.520844  
560.500000	12.816076  
561.000000	13.062372  
561.500000	13.267779  
562.000000	13.491218  
562.500000	13.863912  
563.000000	14.373829  
563.500000	14.816319  
564.000000	15.297001  
564.500000	15.831653  
565.000000	16.456807  
565.500000	17.191823  
566.000000	18.073589  
566.500000	19.014719  
567.000000	19.834838  
567.500000	20.567723  
568.000000	21.231890  
568.500000	21.858115  
569.000000	22.471777  
569.500000	23.253732  
570.000000	24.102545  
570.500000	24.899092  
571.000000	25.593591  
571.500000	26.157270  
572.000000	26.638152  
572.500000	26.977148  
573.000000	27.559176  
573.500000	28.392825  
574.000000	29.329662  
574.500000	30.328441  
575.000000	31.202910  
575.500000	32.028129  
576.000000	32.568714  
576.500000	33.157974  
577.000000	33.853983  
577.500000	34.609949  
578.000000	35.412120  
578.500000	36.263786  
579.000000	37.152087  
579.500000	37.737354  
580.000000	38.294658  
580.500000	38.809706  
581.000000	39.331632  
581.500000	39.767990  
582.000000	40.267578  
582.500000	41.078536  
583.000000	41.943172  
583.500000	42.959628  
584.000000	44.093773  
584.500000	45.284795  
585.000000	46.372897  
585.500000	47.349217  
586.000000	48.377063  
586.500000	49.498660  
587.000000	50.665259  
587.500000	51.970046  
588.000000	53.237380  
588.500000	54.469231  
589.000000	55.623018  
589.500000	56.623701  
590.000000	57.882441  
590.500000	59.258825  
591.000000	61.044556  
591.500000	63.022146  
592.000000	65.041287  
592.500000	66.952547  
593.000000	68.484447  
593.500000	69.768063  
594.000000	70.800567  
594.500000	71.971302  
595.000000	73.360218  
595.500000	75.155126  
596.000000	77.134176  
596.500000	79.142183  
597.000000	81.365371  
597.500000	83.426710  
598.000000	85.420929  
598.500000	87.269987  
599.000000	89.272491  
599.500000	91.089868  
600.000000	92.675192  
600.500000	94.369448  
601.000000	96.150894  
601.500000	98.160166  
602.000000	100.323391 
602.500000	103.009992 
603.000000	105.607736 
603.500000	107.855016 
604.000000	109.895196 
604.500000	111.662426 
605.000000	113.343910 
605.500000	115.098712 
606.000000	117.503923 
606.500000	120.198389 
607.000000	123.269513 
607.500000	126.673445 
608.000000	129.996846 
608.500000	133.087909 
609.000000	135.996324 
609.500000	138.950248 
610.000000	141.579933 
610.500000	143.893115 
611.000000	146.332833 
611.500000	148.754615 
612.000000	150.925205 
612.500000	153.567020 
613.000000	156.850619 
613.500000	160.396131 
614.000000	163.984543 
614.500000	167.662660 
615.000000	171.556710 
615.500000	175.049814 
616.000000	178.448897 
616.500000	182.138564 
617.000000	185.866371 
617.500000	189.387443 
618.000000	192.576493 
618.500000	195.978721 
619.000000	199.643797 
619.500000	203.514231 
620.000000	207.807582 
620.500000	212.095487 
621.000000	216.173983 
621.500000	219.475933 
622.000000	222.104066 
622.500000	225.117703 
623.000000	228.043209 
623.500000	231.416970 
624.000000	235.387645 
624.500000	239.803951 
625.000000	244.161998 
625.500000	247.838168 
626.000000	251.714124 
626.500000	255.354094 
627.000000	258.678506 
627.500000	262.068424 
628.000000	265.361051 
628.500000	269.019024 
629.000000	272.441185 
629.500000	276.197376 
630.000000	280.362283 
630.500000	284.578977 
631.000000	289.025912 
631.500000	292.928716 
632.000000	296.576829 
632.500000	299.929068 
633.000000	302.525543 
633.500000	305.008428 
634.000000	307.539309 
634.500000	310.161454 
635.000000	313.032218 
635.500000	316.054487 
636.000000	319.466109 
636.500000	322.722525 
637.000000	325.635341 
637.500000	328.103053 
638.000000	329.678521 
638.500000	331.316712 
639.000000	332.557918 
639.500000	333.652135 
640.000000	334.835231 
640.500000	336.014358 
641.000000	337.324076 
641.500000	338.134074 
642.000000	339.152747 
642.500000	340.401424 
643.000000	341.107901 
643.500000	341.970764 
644.000000	342.892183 
644.500000	343.358166 
645.000000	343.768155 
645.500000	344.232951 
646.000000	345.139768 
646.500000	345.783035 
647.000000	346.542066 
647.500000	347.158628 
648.000000	346.852512 
648.500000	346.115118 
649.000000	344.872549 
649.500000	342.968840 
650.000000	340.627205 
650.500000	338.143833 
651.000000	336.187456 
651.500000	333.960181 
652.000000	331.941109 
652.500000	330.291543 
653.000000	328.470335 
653.500000	326.471742 
654.000000	323.766139 
654.500000	321.203938 
655.000000	318.244847 
655.500000	315.208608 
656.000000	312.343261 
656.500000	309.889821 
657.000000	307.338586 
657.500000	303.998020 
658.000000	300.596157 
658.500000	296.640593 
659.000000	292.487035 
659.500000	288.433326 
660.000000	285.308703 
660.500000	282.294246 
661.000000	279.180044 
661.500000	275.895716 
662.000000	272.239014 
662.500000	267.908812 
663.000000	263.256847 
663.500000	258.941484 
664.000000	254.437153 
664.500000	249.861987 
665.000000	245.002632 
665.500000	240.109204 
666.000000	235.180853 
666.500000	230.105606 
667.000000	225.489038 
667.500000	221.144346 
668.000000	216.946486 
668.500000	212.727358 
669.000000	208.273751 
669.500000	203.953246 
670.000000	199.501502 
670.500000	195.293979 
671.000000	191.191541 
671.500000	186.929372 
672.000000	182.707246 
672.500000	178.161463 
673.000000	173.422096 
673.500000	168.545270 
674.000000	163.898018 
674.500000	159.204578 
675.000000	154.510053 
675.500000	150.059664 
676.000000	145.887784 
676.500000	141.852000 
677.000000	138.020664 
677.500000	134.602951 
678.000000	131.300298 
678.500000	128.000413 
679.000000	124.472315 
679.500000	121.028864 
680.000000	117.626564 
680.500000	114.149061 
681.000000	110.895764 
681.500000	107.849766 
682.000000	105.011038 
682.500000	101.980853 
683.000000	99.067454  
683.500000	96.385157  
684.000000	93.626899  
684.500000	91.012398  
685.000000	88.532437  
685.500000	86.190588  
686.000000	83.586795  
686.500000	80.939562  
687.000000	78.413465  
687.500000	75.784640  
688.000000	73.312337  
688.500000	71.079172  
689.000000	69.106202  
689.500000	67.398185  
690.000000	65.864441  
690.500000	64.494480  
691.000000	62.969282  
691.500000	61.350734  
692.000000	59.559176  
692.500000	57.600810  
693.000000	55.728458  
693.500000	53.968000  
694.000000	52.228979  
694.500000	50.583929  
695.000000	49.111684  
695.500000	47.711649  
696.000000	46.302435  
696.500000	44.986647  
697.000000	43.817862  
697.500000	42.698506  
698.000000	41.528476  
698.500000	40.442988  
699.000000	39.356152  
699.500000	38.339588  
700.000000	37.376137  
700.500000	36.509434  
701.000000	35.655270  
701.500000	34.718269  
702.000000	33.686818  
702.500000	32.691543  
703.000000	31.752133  
703.500000	30.897627  
704.000000	30.153762  
704.500000	29.500489  
705.000000	28.837322  
705.500000	28.023053  
706.000000	27.279936  
706.500000	26.570176  
707.000000	25.874150  
707.500000	25.220432  
708.000000	24.635697  
708.500000	24.133649  
709.000000	23.661001  
709.500000	23.376395  
710.000000	23.179818  
710.500000	23.063769  
711.000000	22.884003  
711.500000	22.457233  
712.000000	21.747235  
712.500000	20.835150  
713.000000	19.871510  
713.500000	19.020205  
714.000000	18.382061  
714.500000	18.031293  
715.000000	17.810771  
715.500000	17.653627  
716.000000	17.479022  
716.500000	17.242897  
717.000000	17.061126  
717.500000	16.836888  
718.000000	16.641426  
718.500000	16.407432  
719.000000	16.177992  
719.500000	15.802909  
720.000000	15.193269  
720.500000	14.649743  
721.000000	14.124987  
721.500000	13.701957  
722.000000	13.401354  
722.500000	13.245961  
723.000000	13.124727  
723.500000	12.916159  
724.000000	12.715502  
724.500000	12.470400  
725.000000	12.255233  
725.500000	12.059148  
726.000000	11.864170  
726.500000	11.642614  
727.000000	11.445339  
727.500000	11.231554  
728.000000	11.037847  
728.500000	10.853257  
729.000000	10.740775  
729.500000	10.617246  
730.000000	10.383938  
730.500000	10.212751  
731.000000	10.005146  
731.500000	9.836554   
732.000000	9.687612   
732.500000	9.584100   
733.000000	9.508560   
733.500000	9.331044   
734.000000	9.085027   
734.500000	8.732909   
735.000000	8.453163   
735.500000	8.235519   
736.000000	8.079142   
736.500000	8.000534   
737.000000	7.985170   
737.500000	7.943367   
738.000000	7.832018   
738.500000	7.643628   
739.000000	7.441847   
739.500000	7.266755   
740.000000	7.151179   
740.500000	7.084194   
741.000000	7.047246   
741.500000	7.093799   
742.000000	7.131129   
742.500000	7.126237   
743.000000	7.096712   
743.500000	7.107011   
744.000000	7.125146   
744.500000	7.046499   
745.000000	7.044105   
745.500000	7.036877   
746.000000	6.983547   
746.500000	6.854408   
747.000000	6.732083   
747.500000	6.639866   
748.000000	6.505987   
748.500000	6.417508   
749.000000	6.319729   
749.500000	6.218545   
750.000000	6.110617   
750.500000	6.016803   
751.000000	5.927022   
751.500000	5.878499   
752.000000	5.863261   
752.500000	5.876141   
753.000000	5.851441   
753.500000	5.767027   
754.000000	5.655473   
754.500000	5.433523   
755.000000	5.241500   
755.500000	5.074541   
756.000000	4.965293   
756.500000	4.962630   
757.000000	5.015597   
757.500000	5.097627   
758.000000	5.085051   
758.500000	5.016252   
759.000000	4.934792   
759.500000	4.798775   
760.000000	4.694838   
760.500000	4.667717   
761.000000	4.720808   
761.500000	4.791348   
762.000000	4.804061   
762.500000	4.885658   
763.000000	4.946606   
763.500000	4.953423   
764.000000	4.901781   
764.500000	4.825743   
765.000000	4.708753   
765.500000	4.501458   
766.000000	4.329870   
766.500000	4.271031   
767.000000	4.300252   
767.500000	4.360619   
768.000000	4.407818   
768.500000	4.410239   
769.000000	4.335769   
769.500000	4.162063   
770.000000	3.970109   
770.500000	3.809250   
771.000000	3.650081   
771.500000	3.526857   
772.000000	3.483918   
772.500000	3.531048   
773.000000	3.597424   
773.500000	3.708471   
774.000000	3.858369   
774.500000	3.938153   
775.000000	3.898454   
775.500000	3.783929   
776.000000	3.617387   
776.500000	3.443454   
777.000000	3.317602   
777.500000	3.300766   
778.000000	3.293627   
778.500000	3.272378   
779.000000	3.306252   
779.500000	3.321189   
780.000000	3.342012   
780.500000	3.370576   
781.000000	3.456426   
781.500000	3.498328   
782.000000	3.427962   
782.500000	3.361285   
783.000000	3.220374   
783.500000	3.107651   
784.000000	3.057860   
784.500000	3.147920   
785.000000	3.276374   
785.500000	3.333202   
786.000000	3.384617   
786.500000	3.315847   
787.000000	3.197920   
787.500000	3.074042   
788.000000	2.994660   
788.500000	2.938576   
789.000000	2.904502   
789.500000	2.917148   
790.000000	2.890408   
790.500000	2.842211   
791.000000	2.819000   
791.500000	2.808332   
792.000000	2.778246   
792.500000	2.753690   
793.000000	2.711367   
793.500000	2.646307   
794.000000	2.570035   
794.500000	2.506081   
795.000000	2.461345   
795.500000	2.431686   
796.000000	2.440174   
796.500000	2.457090   
797.000000	2.487756   
797.500000	2.534072   
798.000000	2.556103   
798.500000	2.566998   
799.000000	2.568890   
799.500000	2.600202   
800.000000	2.616387   
800.500000	2.613109   
801.000000	2.594768   
801.500000	2.510189   
802.000000	2.375111   
802.500000	2.187792   
803.000000	2.016248   
803.500000	1.894326   
804.000000	1.812790   
804.500000	1.825580   
805.000000	1.861124   
805.500000	1.883213   
806.000000	1.862205   
806.500000	1.876721   
807.000000	1.901745   
807.500000	1.906267   
808.000000	1.993192   
808.500000	2.083139   
809.000000	2.147569   
809.500000	2.155862   
810.000000	2.176382   
810.500000	2.145456   
811.000000	2.018549   
811.500000	1.954090   
812.000000	1.938243   
812.500000	1.939389   
813.000000	1.972410   
813.500000	2.111883   
814.000000	2.201944   
814.500000	2.180083   
815.000000	2.091166   
815.500000	1.966957   
816.000000	1.798300   
816.500000	1.671419   
817.000000	1.673840   
817.500000	1.752254   
818.000000	1.847465   
818.500000	1.923640   
819.000000	2.018558   
819.500000	2.082625   
820.000000	2.109313   
820.500000	2.138695   
821.000000	2.216309   
821.500000	2.316870   
822.000000	2.383897   
822.500000	2.493951   
823.000000	2.578458   
823.500000	2.611914   
824.000000	2.570914   
824.500000	2.554395   
825.000000	2.560866   
825.500000	2.535411   
826.000000	2.575974   
826.500000	2.595755   
827.000000	2.593764   
827.500000	2.508513   
828.000000	2.387448   
828.500000	2.309317   
829.000000	2.207294   
829.500000	2.158706   
830.000000	2.086174   
830.500000	1.992736   
831.000000	1.863719   
831.500000	1.685697   
832.000000	1.551012   
832.500000	1.432903   
833.000000	1.346910   
833.500000	1.257358   
834.000000	1.151536   
834.500000	1.055654   
835.000000	0.958408   
835.500000	0.925191   
836.000000	0.935827   
836.500000	0.982487   
837.000000	1.046573   
837.500000	1.085812   
838.000000	1.104942   
838.500000	1.106565   
839.000000	1.079623   
839.500000	1.036870   
840.000000	0.976632   
840.500000	0.896571   
841.000000	0.796884   
841.500000	0.708346   
842.000000	0.647467   
842.500000	0.611755   
843.000000	0.596302   
843.500000	0.593500   
844.000000	0.569502   
844.500000	0.549849   
845.000000	0.508324   
845.500000	0.473647   
846.000000	0.449910   
846.500000	0.443573   
847.000000	0.454515   
847.500000	0.476771   
848.000000	0.535063   
848.500000	0.572647   
849.000000	0.577385   
849.500000	0.549996   
850.000000	0.512042   
850.500000	0.455350   
851.000000	0.386434   
851.500000	0.352532   
852.000000	0.334597   
852.500000	0.311424   
853.000000	0.280521   
853.500000	0.247756   
854.000000	0.183231   
854.500000	0.130604   
855.000000	0.098441   
855.500000	0.099380   
856.000000	0.113435   
856.500000	0.138690   
857.000000	0.171289   
857.500000	0.168387   
858.000000	0.152267   
858.500000	0.119025   
859.000000	0.101243   
859.500000	0.089133   
860.000000	0.114925   
860.500000	0.185239   
861.000000	0.234784   
861.500000	0.247996   
862.000000	0.216983   
862.500000	0.172931   
863.000000	0.124430   
863.500000	0.069196   
864.000000	0.048168   
864.500000	0.058692   
865.000000	0.047471   
865.500000	0.011886   
866.000000	-0.021751  
866.500000	-0.039070  
867.000000	-0.048372  
867.500000	-0.039788  
868.000000	-0.002771  
868.500000	0.016159   
869.000000	-0.002228  
869.500000	-0.044226  
870.000000	-0.076478  
870.500000	-0.108363  
871.000000	-0.129717  
871.500000	-0.146352  
872.000000	-0.140723  
872.500000	-0.134009  
873.000000	-0.132790  
873.500000	-0.125393  
874.000000	-0.102270  
874.500000	-0.064858  
875.000000	-0.075200  
875.500000	-0.107133  
876.000000	-0.139163  
876.500000	-0.182382  
877.000000	-0.221402  
877.500000	-0.227582  
878.000000	-0.169300  
878.500000	-0.115775  
879.000000	-0.051148  
879.500000	0.036753   
880.000000	0.111237   
880.500000	0.174116   
881.000000	0.194578   
881.500000	0.201371   
882.000000	0.149369   
882.500000	0.097406   
883.000000	0.070730   
883.500000	0.060209   
884.000000	0.094899   
884.500000	0.151120   
885.000000	0.208211   
885.500000	0.178493   
886.000000	0.099836   
886.500000	0.010243   
887.000000	-0.094081  
887.500000	-0.177983  
888.000000	-0.209979  
888.500000	-0.204810  
889.000000	-0.198291  
889.500000	-0.198534  
890.000000	-0.175914  
890.500000	-0.108608  
891.000000	-0.058612  
891.500000	-0.019044  
892.000000	0.000953   
892.500000	-0.005931  
893.000000	-0.068730  
893.500000	-0.157807  
894.000000	-0.204595  
894.500000	-0.215374  
895.000000	-0.191684  
895.500000	-0.161599  
896.000000	-0.101109  
896.500000	-0.040415  

