PE FL                   SPECTRUM    ASCII       PEDS        1.60        
  -1
S00B97~1.SP
24/04/11
16:21:52.00
24/04/11
16:21:52.00
Jan

896.500000
1









LS55
405.00
5.00
5.00
SCAN
1
20
100
100
0
400
0
1
0
1
5
ON
736 405 
1 0 0
#HDR
-1
-1
#GR
NM

0.00002384185791015625
0.0
450.000000
0.500000
894
8
363.511001
-0.251901
#DATA
450.000000	-0.203000  
450.500000	-0.127931  
451.000000	-0.070465  
451.500000	-0.040491  
452.000000	-0.069987  
452.500000	-0.043283  
453.000000	-0.006445  
453.500000	0.020174   
454.000000	0.076261   
454.500000	0.075816   
455.000000	0.041304   
455.500000	0.000244   
456.000000	-0.017445  
456.500000	-0.061191  
457.000000	-0.054059  
457.500000	0.053228   
458.000000	0.140361   
458.500000	0.214018   
459.000000	0.283024   
459.500000	0.294578   
460.000000	0.176128   
460.500000	0.057749   
461.000000	-0.051627  
461.500000	-0.166096  
462.000000	-0.196161  
462.500000	-0.106554  
463.000000	0.044573   
463.500000	0.161419   
464.000000	0.276820   
464.500000	0.356517   
465.000000	0.340187   
465.500000	0.268640   
466.000000	0.239185   
466.500000	0.218012   
467.000000	0.223170   
467.500000	0.241871   
468.000000	0.265575   
468.500000	0.254421   
469.000000	0.138807   
469.500000	0.002782   
470.000000	-0.139230  
470.500000	-0.189879  
471.000000	-0.171343  
471.500000	-0.101799  
472.000000	0.008152   
472.500000	0.080922   
473.000000	0.133855   
473.500000	0.122729   
474.000000	0.118066   
474.500000	0.119102   
475.000000	0.066146   
475.500000	-0.002628  
476.000000	-0.088903  
476.500000	-0.183931  
477.000000	-0.251901  
477.500000	-0.241788  
478.000000	-0.156474  
478.500000	-0.063111  
479.000000	0.061801   
479.500000	0.184602   
480.000000	0.228946   
480.500000	0.206126   
481.000000	0.149697   
481.500000	0.057554   
482.000000	-0.078124  
482.500000	-0.176543  
483.000000	-0.173938  
483.500000	-0.111920  
484.000000	0.034059   
484.500000	0.227621   
485.000000	0.367319   
485.500000	0.430775   
486.000000	0.405732   
486.500000	0.364638   
487.000000	0.289170   
487.500000	0.246779   
488.000000	0.245903   
488.500000	0.209333   
489.000000	0.210680   
489.500000	0.189823   
490.000000	0.182168   
490.500000	0.137395   
491.000000	0.102645   
491.500000	0.130367   
492.000000	0.132966   
492.500000	0.163801   
493.000000	0.200736   
493.500000	0.254324   
494.000000	0.283074   
494.500000	0.317070   
495.000000	0.378575   
495.500000	0.407545   
496.000000	0.433011   
496.500000	0.466502   
497.000000	0.467810   
497.500000	0.423363   
498.000000	0.367717   
498.500000	0.344599   
499.000000	0.360391   
499.500000	0.433849   
500.000000	0.558448   
500.500000	0.687495   
501.000000	0.788313   
501.500000	0.856480   
502.000000	0.866035   
502.500000	0.851545   
503.000000	0.834471   
503.500000	0.819113   
504.000000	0.806411   
504.500000	0.839693   
505.000000	0.901987   
505.500000	0.915756   
506.000000	0.898367   
506.500000	0.839239   
507.000000	0.760092   
507.500000	0.665461   
508.000000	0.636332   
508.500000	0.713532   
509.000000	0.824261   
509.500000	0.983339   
510.000000	1.145768   
510.500000	1.270879   
511.000000	1.350395   
511.500000	1.442231   
512.000000	1.545896   
512.500000	1.631701   
513.000000	1.768610   
513.500000	1.906265   
514.000000	1.995890   
514.500000	2.064853   
515.000000	2.161098   
515.500000	2.225139   
516.000000	2.211975   
516.500000	2.243469   
517.000000	2.290864   
517.500000	2.301890   
518.000000	2.316545   
518.500000	2.405202   
519.000000	2.478395   
519.500000	2.505797   
520.000000	2.586686   
520.500000	2.655558   
521.000000	2.701228   
521.500000	2.725779   
522.000000	2.762181   
522.500000	2.767294   
523.000000	2.720894   
523.500000	2.716011   
524.000000	2.763656   
524.500000	2.883981   
525.000000	3.047693   
525.500000	3.247124   
526.000000	3.469339   
526.500000	3.650254   
527.000000	3.800942   
527.500000	3.909246   
528.000000	4.054328   
528.500000	4.188165   
529.000000	4.244304   
529.500000	4.321586   
530.000000	4.422844   
530.500000	4.536109   
531.000000	4.640064   
531.500000	4.861558   
532.000000	5.194153   
532.500000	5.438165   
533.000000	5.639408   
533.500000	5.854875   
534.000000	6.074285   
534.500000	6.197230   
535.000000	6.407491   
535.500000	6.760148   
536.000000	7.101740   
536.500000	7.459057   
537.000000	7.798276   
537.500000	8.100220   
538.000000	8.355141   
538.500000	8.622567   
539.000000	9.042823   
539.500000	9.573855   
540.000000	10.192291  
540.500000	10.780280  
541.000000	11.290812  
541.500000	11.634020  
542.000000	11.751881  
542.500000	11.759747  
543.000000	11.775821  
543.500000	11.792936  
544.000000	11.752458  
544.500000	11.724204  
545.000000	11.656925  
545.500000	11.466256  
546.000000	11.222899  
546.500000	11.095020  
547.000000	11.013608  
547.500000	10.921461  
548.000000	10.873734  
548.500000	10.784048  
549.000000	10.621651  
549.500000	10.360632  
550.000000	10.084011  
550.500000	9.822287   
551.000000	9.664536   
551.500000	9.600252   
552.000000	9.647087   
552.500000	9.782285   
553.000000	9.967640   
553.500000	10.113296  
554.000000	10.207150  
554.500000	10.239287  
555.000000	10.275116  
555.500000	10.409252  
556.000000	10.610560  
556.500000	10.941716  
557.000000	11.276495  
557.500000	11.632168  
558.000000	11.862779  
558.500000	12.027651  
559.000000	12.201213  
559.500000	12.387502  
560.000000	12.709781  
560.500000	13.007610  
561.000000	13.489944  
561.500000	13.984814  
562.000000	14.472096  
562.500000	14.978458  
563.000000	15.414435  
563.500000	15.884079  
564.000000	16.209755  
564.500000	16.614369  
565.000000	17.001461  
565.500000	17.476901  
566.000000	18.039910  
566.500000	18.669141  
567.000000	19.533610  
567.500000	20.358176  
568.000000	21.300961  
568.500000	22.161439  
569.000000	23.089066  
569.500000	23.961211  
570.000000	24.690428  
570.500000	25.521361  
571.000000	26.322812  
571.500000	27.064682  
572.000000	27.623057  
572.500000	28.237493  
573.000000	28.758363  
573.500000	29.144155  
574.000000	29.627432  
574.500000	30.351838  
575.000000	31.224651  
575.500000	32.153519  
576.000000	33.232128  
576.500000	34.440884  
577.000000	35.696324  
577.500000	36.838834  
578.000000	37.819710  
578.500000	38.644946  
579.000000	39.113608  
579.500000	39.371263  
580.000000	39.610762  
580.500000	40.083849  
581.000000	40.725441  
581.500000	41.432651  
582.000000	42.306369  
582.500000	43.273949  
583.000000	44.350294  
583.500000	45.574556  
584.000000	47.138788  
584.500000	48.724012  
585.000000	50.047838  
585.500000	51.032170  
586.000000	51.694998  
586.500000	52.103115  
587.000000	52.518586  
587.500000	53.574341  
588.000000	54.953319  
588.500000	56.463526  
589.000000	57.819460  
589.500000	59.243640  
590.000000	60.301059  
590.500000	61.045098  
591.000000	62.198551  
591.500000	63.578905  
592.000000	65.157074  
592.500000	66.789051  
593.000000	68.775625  
593.500000	70.673448  
594.000000	72.394515  
594.500000	74.124486  
595.000000	75.878100  
595.500000	77.601185  
596.000000	79.197296  
596.500000	81.040569  
597.000000	83.033910  
597.500000	85.010133  
598.000000	86.982217  
598.500000	88.926014  
599.000000	90.838213  
599.500000	92.742157  
600.000000	94.794996  
600.500000	97.081929  
601.000000	99.338128  
601.500000	101.564046 
602.000000	103.752384 
602.500000	105.772500 
603.000000	107.716551 
603.500000	109.722141 
604.000000	112.168298 
604.500000	114.707628 
605.000000	117.537643 
605.500000	120.146382 
606.000000	122.611257 
606.500000	125.005617 
607.000000	127.496410 
607.500000	130.168699 
608.000000	132.848769 
608.500000	135.841333 
609.000000	138.516974 
609.500000	141.067217 
610.000000	143.679745 
610.500000	146.436684 
611.000000	149.638178 
611.500000	153.287083 
612.000000	157.598354 
612.500000	161.682846 
613.000000	165.300328 
613.500000	168.589233 
614.000000	171.610714 
614.500000	174.566547 
615.000000	177.604916 
615.500000	180.823892 
616.000000	184.127194 
616.500000	187.512717 
617.000000	190.922584 
617.500000	194.460129 
618.000000	198.199189 
618.500000	202.261031 
619.000000	206.260463 
619.500000	210.149784 
620.000000	214.328339 
620.500000	218.145983 
621.000000	222.059131 
621.500000	225.965766 
622.000000	229.807573 
622.500000	233.308356 
623.000000	236.629254 
623.500000	240.304196 
624.000000	244.004487 
624.500000	248.037111 
625.000000	252.523089 
625.500000	256.973493 
626.000000	261.109319 
626.500000	265.213447 
627.000000	269.497725 
627.500000	273.638467 
628.000000	277.468786 
628.500000	281.768606 
629.000000	285.914610 
629.500000	289.791569 
630.000000	293.491742 
630.500000	297.084371 
631.000000	301.159953 
631.500000	304.638871 
632.000000	308.200690 
632.500000	311.792999 
633.000000	315.458740 
633.500000	318.996881 
634.000000	322.252354 
634.500000	325.669261 
635.000000	328.843558 
635.500000	331.774020 
636.000000	334.607673 
636.500000	337.218866 
637.000000	339.808278 
637.500000	342.260176 
638.000000	344.420569 
638.500000	346.416782 
639.000000	348.307428 
639.500000	350.255610 
640.000000	351.904630 
640.500000	353.263981 
641.000000	354.974923 
641.500000	356.244384 
642.000000	356.953361 
642.500000	357.694833 
643.000000	358.528636 
643.500000	359.522139 
644.000000	360.557499 
644.500000	361.729322 
645.000000	362.843933 
645.500000	363.415957 
646.000000	363.511001 
646.500000	362.996877 
647.000000	362.696435 
647.500000	362.371788 
648.000000	361.937428 
648.500000	361.701621 
649.000000	361.553727 
649.500000	361.190818 
650.000000	360.345697 
650.500000	359.274612 
651.000000	357.841944 
651.500000	355.743929 
652.000000	353.101280 
652.500000	350.425610 
653.000000	347.577929 
653.500000	344.971656 
654.000000	342.428706 
654.500000	340.017560 
655.000000	337.251092 
655.500000	334.368352 
656.000000	331.562115 
656.500000	328.478534 
657.000000	326.123844 
657.500000	323.722263 
658.000000	321.780076 
658.500000	319.433257 
659.000000	316.570293 
659.500000	313.152881 
660.000000	308.601721 
660.500000	303.781615 
661.000000	298.064094 
661.500000	292.903935 
662.000000	288.061040 
662.500000	283.977098 
663.000000	280.568810 
663.500000	276.826111 
664.000000	273.361810 
664.500000	269.025519 
665.000000	264.498274 
665.500000	259.830931 
666.000000	255.093476 
666.500000	250.733283 
667.000000	246.095174 
667.500000	241.855786 
668.000000	237.413217 
668.500000	233.049597 
669.000000	228.380397 
669.500000	223.073200 
670.000000	217.672270 
670.500000	212.028792 
671.000000	206.616256 
671.500000	201.503402 
672.000000	197.063881 
672.500000	193.152957 
673.000000	189.359376 
673.500000	185.174922 
674.000000	180.443653 
674.500000	175.462510 
675.000000	170.305990 
675.500000	165.046192 
676.000000	159.823788 
676.500000	155.180738 
677.000000	150.769450 
677.500000	146.388411 
678.000000	142.459730 
678.500000	139.000562 
679.000000	135.492907 
679.500000	131.928493 
680.000000	128.674554 
680.500000	125.541480 
681.000000	122.277909 
681.500000	118.931944 
682.000000	115.646801 
682.500000	112.182246 
683.000000	108.559024 
683.500000	105.067168 
684.000000	101.899003 
684.500000	99.045931  
685.000000	96.406020  
685.500000	94.092756  
686.000000	91.924853  
686.500000	89.702946  
687.000000	87.437736  
687.500000	85.198575  
688.000000	82.866853  
688.500000	80.397467  
689.000000	77.803374  
689.500000	75.257621  
690.000000	72.771703  
690.500000	70.407211  
691.000000	68.146261  
691.500000	65.904864  
692.000000	63.840001  
692.500000	61.912320  
693.000000	59.993376  
693.500000	58.216497  
694.000000	56.732142  
694.500000	55.475218  
695.000000	54.126701  
695.500000	52.845870  
696.000000	51.646998  
696.500000	50.236599  
697.000000	48.683686  
697.500000	47.169667  
698.000000	45.892831  
698.500000	44.636272  
699.000000	43.524584  
699.500000	42.589842  
700.000000	41.689135  
700.500000	40.624100  
701.000000	39.441946  
701.500000	38.294651  
702.000000	37.099892  
702.500000	36.124743  
703.000000	35.371846  
703.500000	34.798528  
704.000000	34.061647  
704.500000	33.268187  
705.000000	32.331851  
705.500000	31.261120  
706.000000	30.156385  
706.500000	29.175701  
707.000000	28.430730  
707.500000	27.648842  
708.000000	27.001692  
708.500000	26.346556  
709.000000	25.785302  
709.500000	25.127654  
710.000000	24.589671  
710.500000	24.185410  
711.000000	23.837083  
711.500000	23.535087  
712.000000	23.107090  
712.500000	22.741385  
713.000000	22.228749  
713.500000	21.709038  
714.000000	21.192324  
714.500000	20.624081  
715.000000	20.077226  
715.500000	19.455476  
716.000000	18.978883  
716.500000	18.468285  
717.000000	17.943168  
717.500000	17.545645  
718.000000	17.222120  
718.500000	16.977256  
719.000000	16.704818  
719.500000	16.497335  
720.000000	16.216124  
720.500000	15.773448  
721.000000	15.336113  
721.500000	14.810415  
722.000000	14.351751  
722.500000	13.885499  
723.000000	13.532640  
723.500000	13.279925  
724.000000	13.110272  
724.500000	13.010398  
725.000000	12.928782  
725.500000	12.986371  
726.000000	12.984423  
726.500000	12.961215  
727.000000	12.848280  
727.500000	12.706708  
728.000000	12.465753  
728.500000	12.073211  
729.000000	11.733187  
729.500000	11.352391  
730.000000	11.039172  
730.500000	10.798727  
731.000000	10.671873  
731.500000	10.596990  
732.000000	10.512417  
732.500000	10.494157  
733.000000	10.342651  
733.500000	10.191964  
734.000000	10.050231  
734.500000	9.903580   
735.000000	9.845473   
735.500000	9.807890   
736.000000	9.829864   
736.500000	9.685113   
737.000000	9.463385   
737.500000	9.160638   
738.000000	8.715100   
738.500000	8.289109   
739.000000	7.926515   
739.500000	7.735589   
740.000000	7.598237   
740.500000	7.602397   
741.000000	7.672532   
741.500000	7.651205   
742.000000	7.687228   
742.500000	7.713558   
743.000000	7.702243   
743.500000	7.662424   
744.000000	7.679627   
744.500000	7.675649   
745.000000	7.564300   
745.500000	7.447291   
746.000000	7.306465   
746.500000	7.016666   
747.000000	6.690493   
747.500000	6.469539   
748.000000	6.325460   
748.500000	6.225048   
749.000000	6.229764   
749.500000	6.361404   
750.000000	6.365055   
750.500000	6.299161   
751.000000	6.206964   
751.500000	6.080131   
752.000000	5.923272   
752.500000	5.810419   
753.000000	5.802901   
753.500000	5.766987   
754.000000	5.739897   
754.500000	5.719252   
755.000000	5.680293   
755.500000	5.623621   
756.000000	5.599625   
756.500000	5.528346   
757.000000	5.452341   
757.500000	5.430313   
758.000000	5.419139   
758.500000	5.405907   
759.000000	5.375948   
759.500000	5.380990   
760.000000	5.286107   
760.500000	5.136452   
761.000000	5.035298   
761.500000	4.964554   
762.000000	4.896530   
762.500000	4.877287   
763.000000	4.895421   
763.500000	4.905424   
764.000000	4.856038   
764.500000	4.752022   
765.000000	4.665530   
765.500000	4.584660   
766.000000	4.515552   
766.500000	4.465551   
767.000000	4.471920   
767.500000	4.494829   
768.000000	4.415862   
768.500000	4.271174   
769.000000	4.077933   
769.500000	3.886730   
770.000000	3.707081   
770.500000	3.600955   
771.000000	3.626031   
771.500000	3.696474   
772.000000	3.740580   
772.500000	3.752133   
773.000000	3.778962   
773.500000	3.792473   
774.000000	3.786653   
774.500000	3.768838   
775.000000	3.769285   
775.500000	3.706669   
776.000000	3.565569   
776.500000	3.480940   
777.000000	3.429302   
777.500000	3.400354   
778.000000	3.405215   
778.500000	3.415194   
779.000000	3.385910   
779.500000	3.285779   
780.000000	3.203866   
780.500000	3.128584   
781.000000	3.100614   
781.500000	3.160695   
782.000000	3.247730   
782.500000	3.313434   
783.000000	3.326393   
783.500000	3.321100   
784.000000	3.252515   
784.500000	3.156656   
785.000000	3.073593   
785.500000	3.010241   
786.000000	3.004517   
786.500000	3.032842   
787.000000	3.098209   
787.500000	3.142387   
788.000000	3.169948   
788.500000	3.146974   
789.000000	3.073951   
789.500000	2.997372   
790.000000	2.934057   
790.500000	2.885729   
791.000000	2.880448   
791.500000	2.923974   
792.000000	2.972838   
792.500000	2.970406   
793.000000	2.954413   
793.500000	2.914469   
794.000000	2.851053   
794.500000	2.786183   
795.000000	2.727439   
795.500000	2.709745   
796.000000	2.696307   
796.500000	2.700124   
797.000000	2.690499   
797.500000	2.686040   
798.000000	2.689233   
798.500000	2.667705   
799.000000	2.675411   
799.500000	2.705519   
800.000000	2.758838   
800.500000	2.784333   
801.000000	2.785595   
801.500000	2.778962   
802.000000	2.710434   
802.500000	2.631022   
803.000000	2.545998   
803.500000	2.486486   
804.000000	2.444033   
804.500000	2.398858   
805.000000	2.371141   
805.500000	2.332584   
806.000000	2.356063   
806.500000	2.362361   
807.000000	2.365975   
807.500000	2.353948   
808.000000	2.296727   
808.500000	2.213844   
809.000000	2.148313   
809.500000	2.174348   
810.000000	2.229853   
810.500000	2.324428   
811.000000	2.429387   
811.500000	2.459562   
812.000000	2.386927   
812.500000	2.280829   
813.000000	2.152877   
813.500000	1.973612   
814.000000	1.813541   
814.500000	1.692070   
815.000000	1.628532   
815.500000	1.581022   
816.000000	1.570660   
816.500000	1.615384   
817.000000	1.630634   
817.500000	1.621994   
818.000000	1.585725   
818.500000	1.618649   
819.000000	1.734630   
819.500000	1.882471   
820.000000	2.104356   
820.500000	2.315502   
821.000000	2.489333   
821.500000	2.560768   
822.000000	2.600506   
822.500000	2.651743   
823.000000	2.663391   
823.500000	2.659990   
824.000000	2.647857   
824.500000	2.598797   
825.000000	2.542916   
825.500000	2.492244   
826.000000	2.453076   
826.500000	2.384525   
827.000000	2.273749   
827.500000	2.108348   
828.000000	1.847875   
828.500000	1.599565   
829.000000	1.410992   
829.500000	1.312664   
830.000000	1.294270   
830.500000	1.348415   
831.000000	1.437853   
831.500000	1.452029   
832.000000	1.434758   
832.500000	1.384738   
833.000000	1.312918   
833.500000	1.222536   
834.000000	1.157090   
834.500000	1.138538   
835.000000	1.118601   
835.500000	1.115697   
836.000000	1.116692   
836.500000	1.087983   
837.000000	1.044755   
837.500000	0.990742   
838.000000	0.929877   
838.500000	0.869836   
839.000000	0.841539   
839.500000	0.823461   
840.000000	0.784333   
840.500000	0.765692   
841.000000	0.768773   
841.500000	0.745374   
842.000000	0.712139   
842.500000	0.669962   
843.000000	0.626070   
843.500000	0.545857   
844.000000	0.487365   
844.500000	0.477899   
845.000000	0.469660   
845.500000	0.483215   
846.000000	0.506734   
846.500000	0.533838   
847.000000	0.539957   
847.500000	0.523254   
848.000000	0.495820   
848.500000	0.447512   
849.000000	0.392677   
849.500000	0.350402   
850.000000	0.319176   
850.500000	0.305467   
851.000000	0.303092   
851.500000	0.300773   
852.000000	0.297675   
852.500000	0.242218   
853.000000	0.230103   
853.500000	0.241871   
854.000000	0.268441   
854.500000	0.300849   
855.000000	0.316072   
855.500000	0.320304   
856.000000	0.247933   
856.500000	0.194849   
857.000000	0.156473   
857.500000	0.135875   
858.000000	0.125387   
858.500000	0.110775   
859.000000	0.084000   
859.500000	0.037374   
860.000000	-0.001218  
860.500000	-0.052465  
861.000000	-0.060374  
861.500000	-0.051454  
862.000000	-0.030931  
862.500000	-0.028118  
863.000000	0.009879   
863.500000	0.062949   
864.000000	0.084959   
864.500000	0.139356   
865.000000	0.177573   
865.500000	0.189037   
866.000000	0.179920   
866.500000	0.169079   
867.000000	0.159842   
867.500000	0.125985   
868.000000	0.115280   
868.500000	0.097198   
869.000000	0.061142   
869.500000	0.055280   
870.000000	0.052564   
870.500000	0.062519   
871.000000	0.078621   
871.500000	0.099230   
872.000000	0.110076   
872.500000	0.072215   
873.000000	0.064738   
873.500000	0.068343   
874.000000	0.074738   
874.500000	0.070192   
875.000000	0.086502   
875.500000	0.106901   
876.000000	0.069788   
876.500000	0.069651   
877.000000	0.078307   
877.500000	0.091877   
878.000000	0.072897   
878.500000	0.047265   
879.000000	0.032497   
879.500000	-0.039076  
880.000000	-0.080339  
880.500000	-0.097191  
881.000000	-0.085252  
881.500000	-0.059972  
882.000000	-0.027014  
882.500000	0.000369   
883.000000	0.023115   
883.500000	0.071176   
884.000000	0.118397   
884.500000	0.140667   
885.000000	0.144864   
885.500000	0.128727   
886.000000	0.044144   
886.500000	-0.037283  
887.000000	-0.081938  
887.500000	-0.093256  
888.000000	-0.089100  
888.500000	-0.080667  
889.000000	-0.047554  
889.500000	-0.054794  
890.000000	-0.069818  
890.500000	-0.086647  
891.000000	-0.106868  
891.500000	-0.120348  
892.000000	-0.140211  
892.500000	-0.152719  
893.000000	-0.176988  
893.500000	-0.196372  
894.000000	-0.190662  
894.500000	-0.155061  
895.000000	-0.121725  
895.500000	-0.090378  
896.000000	-0.057705  
896.500000	-0.050051  

