PE FL                   SPECTRUM    ASCII       PEDS        1.60        
  -1
S00BB3~1.SP
24/04/11
16:41:50.00
24/04/11
16:41:50.00
Jan

896.500000
1









LS55
405.00
5.00
5.00
SCAN
1
20
100
100
0
400
0
1
0
1
5
ON
736 405 
1 0 0
#HDR
-1
-1
#GR
NM

0.00002384185791015625
0.0
450.000000
0.500000
894
8
331.287159
-0.207489
#DATA
450.000000	0.535999   
450.500000	0.321269   
451.000000	0.161408   
451.500000	0.063717   
452.000000	0.044051   
452.500000	0.060183   
453.000000	0.107526   
453.500000	0.116083   
454.000000	0.071677   
454.500000	0.031538   
455.000000	0.004667   
455.500000	-0.007875  
456.000000	-0.031795  
456.500000	0.020732   
457.000000	0.087339   
457.500000	0.129684   
458.000000	0.189855   
458.500000	0.238512   
459.000000	0.228363   
459.500000	0.135024   
460.000000	0.049428   
460.500000	-0.063200  
461.000000	-0.174144  
461.500000	-0.207489  
462.000000	-0.156187  
462.500000	-0.029699  
463.000000	0.080419   
463.500000	0.173499   
464.000000	0.236367   
464.500000	0.260257   
465.000000	0.242378   
465.500000	0.192996   
466.000000	0.174024   
466.500000	0.144484   
467.000000	0.071649   
467.500000	-0.027239  
468.000000	-0.071254  
468.500000	-0.119684  
469.000000	-0.149656  
469.500000	-0.061358  
470.000000	0.107102   
470.500000	0.235378   
471.000000	0.311686   
471.500000	0.369512   
472.000000	0.351538   
472.500000	0.245810   
473.000000	0.156918   
473.500000	0.139751   
474.000000	0.127905   
474.500000	0.126951   
475.000000	0.143803   
475.500000	0.167001   
476.000000	0.137217   
476.500000	0.100324   
477.000000	0.099538   
477.500000	0.115326   
478.000000	0.159916   
478.500000	0.226376   
479.000000	0.275992   
479.500000	0.292508   
480.000000	0.270604   
480.500000	0.214829   
481.000000	0.165680   
481.500000	0.144701   
482.000000	0.160430   
482.500000	0.167033   
483.000000	0.167554   
483.500000	0.173265   
484.000000	0.164109   
484.500000	0.143163   
485.000000	0.110209   
485.500000	0.088473   
486.000000	0.073424   
486.500000	0.042339   
487.000000	0.006847   
487.500000	0.011384   
488.000000	0.067565   
488.500000	0.144677   
489.000000	0.203209   
489.500000	0.258916   
490.000000	0.246660   
490.500000	0.161710   
491.000000	0.022506   
491.500000	-0.087215  
492.000000	-0.147821  
492.500000	-0.155025  
493.000000	-0.083821  
493.500000	0.028202   
494.000000	0.166645   
494.500000	0.286450   
495.000000	0.368649   
495.500000	0.406124   
496.000000	0.405786   
496.500000	0.418860   
497.000000	0.379866   
497.500000	0.346367   
498.000000	0.369109   
498.500000	0.425465   
499.000000	0.479397   
499.500000	0.514927   
500.000000	0.568719   
500.500000	0.600910   
501.000000	0.607044   
501.500000	0.625573   
502.000000	0.675202   
502.500000	0.716972   
503.000000	0.746502   
503.500000	0.756886   
504.000000	0.769417   
504.500000	0.778873   
505.000000	0.769595   
505.500000	0.783400   
506.000000	0.822474   
506.500000	0.866582   
507.000000	0.924738   
507.500000	0.993851   
508.000000	1.103712   
508.500000	1.214263   
509.000000	1.281970   
509.500000	1.332413   
510.000000	1.331738   
510.500000	1.341302   
511.000000	1.339504   
511.500000	1.369897   
512.000000	1.432246   
512.500000	1.475170   
513.000000	1.538363   
513.500000	1.602595   
514.000000	1.714322   
514.500000	1.867126   
515.000000	2.012588   
515.500000	2.168716   
516.000000	2.282120   
516.500000	2.337022   
517.000000	2.361942   
517.500000	2.360111   
518.000000	2.427558   
518.500000	2.480237   
519.000000	2.553168   
519.500000	2.626658   
520.000000	2.690606   
520.500000	2.701703   
521.000000	2.665142   
521.500000	2.686124   
522.000000	2.655827   
522.500000	2.643391   
523.000000	2.673135   
523.500000	2.742589   
524.000000	2.817413   
524.500000	2.924014   
525.000000	3.092244   
525.500000	3.244647   
526.000000	3.388031   
526.500000	3.589148   
527.000000	3.774009   
527.500000	3.849311   
528.000000	3.865710   
528.500000	3.860293   
529.000000	3.885159   
529.500000	3.922667   
530.000000	4.123714   
530.500000	4.409350   
531.000000	4.700113   
531.500000	4.983074   
532.000000	5.231432   
532.500000	5.487564   
533.000000	5.624875   
533.500000	5.791901   
534.000000	5.999393   
534.500000	6.242825   
535.000000	6.522649   
535.500000	6.877441   
536.000000	7.310387   
536.500000	7.675803   
537.000000	8.062176   
537.500000	8.437150   
538.000000	8.799736   
538.500000	9.117949   
539.000000	9.450597   
539.500000	9.779269   
540.000000	10.040636  
540.500000	10.322126  
541.000000	10.627118  
541.500000	10.933346  
542.000000	11.255141  
542.500000	11.546788  
543.000000	11.661884  
543.500000	11.648562  
544.000000	11.534089  
544.500000	11.391022  
545.000000	11.251450  
545.500000	11.221103  
546.000000	11.272189  
546.500000	11.234758  
547.000000	11.131617  
547.500000	10.911415  
548.000000	10.639168  
548.500000	10.332799  
549.000000	10.056411  
549.500000	9.887664   
550.000000	9.863562   
550.500000	9.972487   
551.000000	10.082066  
551.500000	10.159259  
552.000000	10.216499  
552.500000	10.224680  
553.000000	10.214894  
553.500000	10.259738  
554.000000	10.307875  
554.500000	10.406923  
555.000000	10.459365  
555.500000	10.549269  
556.000000	10.709927  
556.500000	10.893068  
557.000000	11.103536  
557.500000	11.274194  
558.000000	11.480877  
558.500000	11.602914  
559.000000	11.651356  
559.500000	11.839714  
560.000000	12.167035  
560.500000	12.626270  
561.000000	13.160521  
561.500000	13.752910  
562.000000	14.293087  
562.500000	14.630860  
563.000000	14.984322  
563.500000	15.319929  
564.000000	15.622812  
564.500000	16.038454  
565.000000	16.552693  
565.500000	17.230725  
566.000000	17.981742  
566.500000	18.797257  
567.000000	19.669955  
567.500000	20.469808  
568.000000	21.193964  
568.500000	21.802955  
569.000000	22.400901  
569.500000	23.008293  
570.000000	23.559576  
570.500000	24.113602  
571.000000	24.698315  
571.500000	25.298328  
572.000000	25.894413  
572.500000	26.628100  
573.000000	27.395003  
573.500000	28.184211  
574.000000	28.934528  
574.500000	29.568708  
575.000000	30.147909  
575.500000	30.631604  
576.000000	31.233252  
576.500000	31.823345  
577.000000	32.476395  
577.500000	33.168141  
578.000000	33.791573  
578.500000	34.549909  
579.000000	35.283259  
579.500000	36.116549  
580.000000	36.889675  
580.500000	37.593526  
581.000000	38.331109  
581.500000	39.016142  
582.000000	39.849617  
582.500000	40.731630  
583.000000	41.664124  
583.500000	42.659799  
584.000000	43.661204  
584.500000	44.832957  
585.000000	46.090450  
585.500000	47.457141  
586.000000	48.796493  
586.500000	49.899393  
587.000000	50.953037  
587.500000	51.749376  
588.000000	52.594816  
588.500000	53.687471  
589.000000	54.851022  
589.500000	56.272532  
590.000000	57.623575  
590.500000	58.994165  
591.000000	60.259606  
591.500000	61.519990  
592.000000	62.973732  
592.500000	64.397113  
593.000000	66.030128  
593.500000	67.681730  
594.000000	69.456855  
594.500000	71.099124  
595.000000	72.612194  
595.500000	74.150296  
596.000000	75.724274  
596.500000	77.304103  
597.000000	79.041564  
597.500000	80.875170  
598.000000	82.691050  
598.500000	84.607612  
599.000000	86.359816  
599.500000	88.260270  
600.000000	90.245562  
600.500000	92.287714  
601.000000	94.519365  
601.500000	96.711090  
602.000000	98.970634  
602.500000	101.035703 
603.000000	102.983248 
603.500000	105.039076 
604.000000	107.219784 
604.500000	109.603701 
605.000000	112.186736 
605.500000	115.033853 
606.000000	117.848686 
606.500000	120.495688 
607.000000	123.045434 
607.500000	125.003508 
608.000000	126.944204 
608.500000	128.978178 
609.000000	131.459936 
609.500000	134.228037 
610.000000	137.392920 
610.500000	140.994157 
611.000000	144.422901 
611.500000	147.794328 
612.000000	151.108378 
612.500000	154.283094 
613.000000	157.332721 
613.500000	160.296853 
614.000000	163.381378 
614.500000	166.261450 
615.000000	169.372679 
615.500000	172.832046 
616.000000	176.104076 
616.500000	179.682211 
617.000000	183.540220 
617.500000	187.269372 
618.000000	190.768155 
618.500000	194.140758 
619.000000	197.810658 
619.500000	201.047586 
620.000000	204.300935 
620.500000	208.102298 
621.000000	211.853415 
621.500000	215.600591 
622.000000	219.240781 
622.500000	223.260200 
623.000000	226.840276 
623.500000	230.094365 
624.000000	233.606962 
624.500000	236.924100 
625.000000	240.373719 
625.500000	243.752358 
626.000000	247.604372 
626.500000	251.505374 
627.000000	255.489977 
627.500000	259.586009 
628.000000	263.440688 
628.500000	266.766384 
629.000000	270.126441 
629.500000	273.599035 
630.000000	277.192248 
630.500000	281.081779 
631.000000	284.803545 
631.500000	288.340836 
632.000000	290.756716 
632.500000	293.198534 
633.000000	295.405116 
633.500000	297.412263 
634.000000	299.637512 
634.500000	301.715638 
635.000000	304.336265 
635.500000	306.373098 
636.000000	308.610287 
636.500000	311.453782 
637.000000	314.428987 
637.500000	317.566209 
638.000000	320.071693 
638.500000	322.438621 
639.000000	323.661868 
639.500000	324.176142 
640.000000	324.931115 
640.500000	325.913970 
641.000000	327.329858 
641.500000	328.668397 
642.000000	330.336803 
642.500000	331.287159 
643.000000	331.272602 
643.500000	330.745576 
644.000000	329.646421 
644.500000	328.577888 
645.000000	327.937192 
645.500000	328.083506 
646.000000	328.347526 
646.500000	328.649935 
647.000000	328.541493 
647.500000	327.709367 
648.000000	326.424055 
648.500000	325.147259 
649.000000	323.776230 
649.500000	322.483508 
650.000000	321.679081 
650.500000	320.745001 
651.000000	319.335443 
651.500000	317.368044 
652.000000	315.383254 
652.500000	313.302877 
653.000000	310.707736 
653.500000	308.247413 
654.000000	305.693614 
654.500000	303.042077 
655.000000	300.401000 
655.500000	297.858677 
656.000000	295.568779 
656.500000	292.928916 
657.000000	290.145810 
657.500000	287.395777 
658.000000	284.441194 
658.500000	281.323461 
659.000000	277.426580 
659.500000	273.596012 
660.000000	269.468163 
660.500000	265.147391 
661.000000	261.474413 
661.500000	258.125345 
662.000000	255.290137 
662.500000	251.928940 
663.000000	248.288833 
663.500000	243.970003 
664.000000	238.863497 
664.500000	233.641393 
665.000000	228.371792 
665.500000	223.723551 
666.000000	218.990293 
666.500000	214.436168 
667.000000	210.270658 
667.500000	206.211528 
668.000000	202.188717 
668.500000	197.858037 
669.000000	193.662608 
669.500000	189.490519 
670.000000	185.238070 
670.500000	181.127846 
671.000000	177.211899 
671.500000	173.337673 
672.000000	169.315152 
672.500000	165.309500 
673.000000	161.009519 
673.500000	156.392272 
674.000000	151.733174 
674.500000	147.098254 
675.000000	142.552319 
675.500000	138.356705 
676.000000	134.587480 
676.500000	130.819753 
677.000000	127.032951 
677.500000	123.291521 
678.000000	119.527883 
678.500000	115.839940 
679.000000	112.481575 
679.500000	109.697829 
680.000000	107.143239 
680.500000	104.640996 
681.000000	102.118944 
681.500000	99.486580  
682.000000	96.745413  
682.500000	93.994181  
683.000000	91.239376  
683.500000	88.357962  
684.000000	85.388647  
684.500000	82.407155  
685.000000	79.621929  
685.500000	77.067282  
686.000000	74.773682  
686.500000	72.484398  
687.000000	70.346831  
687.500000	68.530840  
688.000000	66.742792  
688.500000	65.174513  
689.000000	63.714851  
689.500000	62.438369  
690.000000	60.905870  
690.500000	59.227400  
691.000000	57.524923  
691.500000	55.572799  
692.000000	53.556530  
692.500000	51.648847  
693.000000	50.224228  
693.500000	48.975677  
694.000000	47.831554  
694.500000	46.771126  
695.000000	45.707858  
695.500000	44.449716  
696.000000	42.984348  
696.500000	41.454897  
697.000000	40.029953  
697.500000	38.707426  
698.000000	37.459756  
698.500000	36.487450  
699.000000	35.569012  
699.500000	34.670057  
700.000000	33.782063  
700.500000	33.141881  
701.000000	32.442209  
701.500000	31.632174  
702.000000	31.009821  
702.500000	30.291267  
703.000000	29.537194  
703.500000	28.607202  
704.000000	27.845727  
704.500000	26.992461  
705.000000	26.128669  
705.500000	25.480827  
706.000000	24.893768  
706.500000	24.311985  
707.000000	23.711417  
707.500000	23.357890  
708.000000	23.038532  
708.500000	22.654014  
709.000000	22.250367  
709.500000	21.779966  
710.000000	21.193909  
710.500000	20.559300  
711.000000	20.035998  
711.500000	19.695567  
712.000000	19.478111  
712.500000	19.273324  
713.000000	19.059202  
713.500000	18.794189  
714.000000	18.423133  
714.500000	17.979005  
715.000000	17.572393  
715.500000	17.216784  
716.000000	16.833539  
716.500000	16.407799  
717.000000	16.065053  
717.500000	15.718528  
718.000000	15.338929  
718.500000	15.020907  
719.000000	14.815205  
719.500000	14.627517  
720.000000	14.407610  
720.500000	14.222207  
721.000000	14.013443  
721.500000	13.690007  
722.000000	13.313610  
722.500000	12.916788  
723.000000	12.515697  
723.500000	12.088181  
724.000000	11.695478  
724.500000	11.425649  
725.000000	11.230896  
725.500000	11.143100  
726.000000	11.096087  
726.500000	11.077949  
727.000000	10.938573  
727.500000	10.652569  
728.000000	10.343035  
728.500000	10.115992  
729.000000	9.968558   
729.500000	9.923523   
730.000000	9.978521   
730.500000	10.003862  
731.000000	9.881204   
731.500000	9.664565   
732.000000	9.408469   
732.500000	9.069556   
733.000000	8.797666   
733.500000	8.607144   
734.000000	8.500688   
734.500000	8.436714   
735.000000	8.381810   
735.500000	8.380575   
736.000000	8.294929   
736.500000	8.193849   
737.000000	8.005333   
737.500000	7.795282   
738.000000	7.613699   
738.500000	7.411621   
739.000000	7.299393   
739.500000	7.205775   
740.000000	7.182257   
740.500000	7.161280   
741.000000	7.108933   
741.500000	7.130565   
742.000000	7.068992   
742.500000	7.014775   
743.000000	6.958372   
743.500000	6.931293   
744.000000	6.891369   
744.500000	6.767061   
745.000000	6.680972   
745.500000	6.560014   
746.000000	6.448701   
746.500000	6.353584   
747.000000	6.291918   
747.500000	6.285076   
748.000000	6.221135   
748.500000	6.151543   
749.000000	6.039823   
749.500000	5.930294   
750.000000	5.822135   
750.500000	5.700129   
751.000000	5.600269   
751.500000	5.436322   
752.000000	5.232621   
752.500000	5.048534   
753.000000	4.917860   
753.500000	4.847632   
754.000000	4.794230   
754.500000	4.796307   
755.000000	4.801228   
755.500000	4.779756   
756.000000	4.786706   
756.500000	4.881148   
757.000000	4.980109   
757.500000	5.013784   
758.000000	5.042673   
758.500000	5.032478   
759.000000	4.945443   
759.500000	4.797508   
760.000000	4.718120   
760.500000	4.637400   
761.000000	4.514374   
761.500000	4.360235   
762.000000	4.188320   
762.500000	4.102671   
763.000000	4.040385   
763.500000	4.084150   
764.000000	4.148866   
764.500000	4.251688   
765.000000	4.337139   
765.500000	4.313790   
766.000000	4.276641   
766.500000	4.261699   
767.000000	4.227855   
767.500000	4.155992   
768.000000	4.132274   
768.500000	4.148178   
769.000000	4.117788   
769.500000	4.040371   
770.000000	4.009423   
770.500000	3.929853   
771.000000	3.802903   
771.500000	3.675172   
772.000000	3.571022   
772.500000	3.475727   
773.000000	3.375009   
773.500000	3.353515   
774.000000	3.332985   
774.500000	3.317647   
775.000000	3.360040   
775.500000	3.452968   
776.000000	3.576721   
776.500000	3.685949   
777.000000	3.771024   
777.500000	3.781087   
778.000000	3.691779   
778.500000	3.561649   
779.000000	3.403183   
779.500000	3.271914   
780.000000	3.200000   
780.500000	3.229035   
781.000000	3.313907   
781.500000	3.406250   
782.000000	3.501382   
782.500000	3.531523   
783.000000	3.500050   
783.500000	3.397285   
784.000000	3.288161   
784.500000	3.195456   
785.000000	3.154304   
785.500000	3.169799   
786.000000	3.217105   
786.500000	3.252905   
787.000000	3.216191   
787.500000	3.117944   
788.000000	3.002465   
788.500000	2.920113   
789.000000	2.885593   
789.500000	2.897311   
790.000000	2.946150   
790.500000	3.015291   
791.000000	3.053476   
791.500000	3.042599   
792.000000	3.005528   
792.500000	2.958098   
793.000000	2.912259   
793.500000	2.862283   
794.000000	2.817022   
794.500000	2.789076   
795.000000	2.758916   
795.500000	2.735539   
796.000000	2.700124   
796.500000	2.677795   
797.000000	2.687875   
797.500000	2.697905   
798.000000	2.705775   
798.500000	2.730714   
799.000000	2.747597   
799.500000	2.716022   
800.000000	2.640428   
800.500000	2.576445   
801.000000	2.510996   
801.500000	2.445751   
802.000000	2.420011   
802.500000	2.436024   
803.000000	2.465797   
803.500000	2.484391   
804.000000	2.493358   
804.500000	2.484222   
805.000000	2.412634   
805.500000	2.282243   
806.000000	2.131638   
806.500000	2.013005   
807.000000	1.962983   
807.500000	1.974270   
808.000000	2.024627   
808.500000	2.147662   
809.000000	2.205497   
809.500000	2.185454   
810.000000	2.128604   
810.500000	2.055855   
811.000000	1.953389   
811.500000	1.819751   
812.000000	1.781033   
812.500000	1.751549   
813.000000	1.739933   
813.500000	1.776320   
814.000000	1.870643   
814.500000	1.959936   
815.000000	1.972348   
815.500000	1.990688   
816.000000	1.946348   
816.500000	1.895128   
817.000000	1.857692   
817.500000	1.860000   
818.000000	1.866782   
818.500000	1.861359   
819.000000	1.908502   
819.500000	1.971276   
820.000000	2.089282   
820.500000	2.273417   
821.000000	2.503376   
821.500000	2.720452   
822.000000	2.859870   
822.500000	2.938632   
823.000000	2.934944   
823.500000	2.869708   
824.000000	2.818849   
824.500000	2.802775   
825.000000	2.801038   
825.500000	2.745129   
826.000000	2.671000   
826.500000	2.531781   
827.000000	2.315053   
827.500000	2.112233   
828.000000	1.978254   
828.500000	1.920202   
829.000000	1.892096   
829.500000	1.894061   
830.000000	1.856857   
830.500000	1.743185   
831.000000	1.556365   
831.500000	1.375656   
832.000000	1.249393   
832.500000	1.210168   
833.000000	1.235259   
833.500000	1.279246   
834.000000	1.342339   
834.500000	1.356675   
835.000000	1.337827   
835.500000	1.263927   
836.000000	1.219042   
836.500000	1.170068   
837.000000	1.108721   
837.500000	1.091330   
838.000000	1.058346   
838.500000	1.049996   
839.000000	0.998237   
839.500000	0.943723   
840.000000	0.874194   
840.500000	0.783994   
841.000000	0.722636   
841.500000	0.676688   
842.000000	0.703758   
842.500000	0.769769   
843.000000	0.840319   
843.500000	0.866211   
844.000000	0.828352   
844.500000	0.742304   
845.000000	0.621836   
845.500000	0.529372   
846.000000	0.493962   
846.500000	0.484576   
847.000000	0.466612   
847.500000	0.442076   
848.000000	0.369094   
848.500000	0.278823   
849.000000	0.191751   
849.500000	0.148690   
850.000000	0.136528   
850.500000	0.130643   
851.000000	0.153001   
851.500000	0.134786   
852.000000	0.102831   
852.500000	0.068968   
853.000000	0.048602   
853.500000	0.023922   
854.000000	-0.011873  
854.500000	-0.028701  
855.000000	-0.070673  
855.500000	-0.084298  
856.000000	-0.089063  
856.500000	-0.083322  
857.000000	-0.070964  
857.500000	-0.067270  
858.000000	-0.045499  
858.500000	-0.055597  
859.000000	-0.001064  
859.500000	0.086068   
860.000000	0.191686   
860.500000	0.315695   
861.000000	0.396556   
861.500000	0.417675   
862.000000	0.308920   
862.500000	0.164942   
863.000000	0.020428   
863.500000	-0.086376  
864.000000	-0.118118  
864.500000	-0.078450  
865.000000	0.016844   
865.500000	0.100751   
866.000000	0.145871   
866.500000	0.144749   
867.000000	0.087064   
867.500000	0.002580   
868.000000	-0.085335  
868.500000	-0.124795  
869.000000	-0.123552  
869.500000	-0.083076  
870.000000	-0.000300  
870.500000	0.068946   
871.000000	0.113103   
871.500000	0.110129   
872.000000	0.091369   
872.500000	0.032176   
873.000000	-0.033816  
873.500000	-0.058165  
874.000000	-0.088348  
874.500000	-0.103404  
875.000000	-0.116194  
875.500000	-0.115974  
876.000000	-0.122760  
876.500000	-0.143795  
877.000000	-0.104666  
877.500000	-0.056027  
878.000000	-0.011454  
878.500000	0.029434   
879.000000	0.049673   
879.500000	0.061406   
880.000000	0.018322   
880.500000	0.003159   
881.000000	-0.018612  
881.500000	-0.038513  
882.000000	-0.076645  
882.500000	-0.120556  
883.000000	-0.133755  
883.500000	-0.157237  
884.000000	-0.150252  
884.500000	-0.125931  
885.000000	-0.075525  
885.500000	-0.078192  
886.000000	-0.114725  
886.500000	-0.142068  
887.000000	-0.140614  
887.500000	-0.123320  
888.000000	-0.093222  
888.500000	-0.050582  
889.000000	-0.038404  
889.500000	-0.075612  
890.000000	-0.124716  
890.500000	-0.145155  
891.000000	-0.158035  
891.500000	-0.145278  
892.000000	-0.123638  
892.500000	-0.106977  
893.000000	-0.115356  
893.500000	-0.144241  
894.000000	-0.150821  
894.500000	-0.135569  
895.000000	-0.080851  
895.500000	-0.037476  
896.000000	-0.018606  
896.500000	-0.028226  

