PE FL                   SPECTRUM    ASCII       PEDS        1.60        
  -1
S00B9F~1.SP
24/04/11
16:50:23.00
24/04/11
16:50:23.00
Jan

896.500000
1









LS55
405.00
5.00
5.00
SCAN
1
20
100
100
0
400
0
1
0
1
5
ON
736 405 
1 0 0
#HDR
-1
-1
#GR
NM

0.00002384185791015625
0.0
450.000000
0.500000
894
8
326.615499
-0.183179
#DATA
450.000000	0.404000   
450.500000	0.388975   
451.000000	0.353807   
451.500000	0.342940   
452.000000	0.392057   
452.500000	0.357795   
453.000000	0.260595   
453.500000	0.153343   
454.000000	0.055018   
454.500000	-0.012530  
455.000000	-0.011150  
455.500000	0.061369   
456.000000	0.075434   
456.500000	0.047909   
457.000000	0.017569   
457.500000	-0.041693  
458.000000	-0.114897  
458.500000	-0.140922  
459.000000	-0.091450  
459.500000	-0.052185  
460.000000	-0.014666  
460.500000	0.040294   
461.000000	0.023634   
461.500000	-0.034098  
462.000000	-0.095380  
462.500000	-0.107983  
463.000000	-0.099254  
463.500000	-0.066148  
464.000000	0.018144   
464.500000	0.071259   
465.000000	0.111543   
465.500000	0.148886   
466.000000	0.168762   
466.500000	0.161736   
467.000000	0.174471   
467.500000	0.214591   
468.000000	0.211001   
468.500000	0.174788   
469.000000	0.153300   
469.500000	0.140653   
470.000000	0.101532   
470.500000	0.105792   
471.000000	0.124920   
471.500000	0.137365   
472.000000	0.118612   
472.500000	0.127270   
473.000000	0.136367   
473.500000	0.087944   
474.000000	0.061909   
474.500000	0.036269   
475.000000	0.010493   
475.500000	-0.037087  
476.000000	-0.039938  
476.500000	0.002092   
477.000000	0.054601   
477.500000	0.140567   
478.000000	0.203630   
478.500000	0.258200   
479.000000	0.229730   
479.500000	0.147469   
480.000000	0.029380   
480.500000	-0.063595  
481.000000	-0.092729  
481.500000	-0.073269  
482.000000	0.033480   
482.500000	0.158285   
483.000000	0.279133   
483.500000	0.330703   
484.000000	0.320883   
484.500000	0.268777   
485.000000	0.212016   
485.500000	0.172020   
486.000000	0.156768   
486.500000	0.166447   
487.000000	0.193387   
487.500000	0.197402   
488.000000	0.167586   
488.500000	0.146595   
489.000000	0.108428   
489.500000	0.100903   
490.000000	0.101580   
490.500000	0.156150   
491.000000	0.225025   
491.500000	0.291506   
492.000000	0.360818   
492.500000	0.380326   
493.000000	0.387306   
493.500000	0.364187   
494.000000	0.332198   
494.500000	0.296359   
495.000000	0.276005   
495.500000	0.282263   
496.000000	0.306246   
496.500000	0.326094   
497.000000	0.337146   
497.500000	0.336692   
498.000000	0.347855   
498.500000	0.385456   
499.000000	0.419538   
499.500000	0.475077   
500.000000	0.533473   
500.500000	0.568612   
501.000000	0.564463   
501.500000	0.546979   
502.000000	0.576729   
502.500000	0.610951   
503.000000	0.700116   
503.500000	0.793322   
504.000000	0.852534   
504.500000	0.860614   
505.000000	0.821562   
505.500000	0.816012   
506.000000	0.795512   
506.500000	0.835474   
507.000000	0.898717   
507.500000	0.985131   
508.000000	1.063808   
508.500000	1.072825   
509.000000	1.091632   
509.500000	1.081604   
510.000000	1.109871   
510.500000	1.140608   
511.000000	1.231510   
511.500000	1.400202   
512.000000	1.556998   
512.500000	1.703998   
513.000000	1.845341   
513.500000	1.963473   
514.000000	2.030940   
514.500000	2.088760   
515.000000	2.209768   
515.500000	2.350417   
516.000000	2.478666   
516.500000	2.577205   
517.000000	2.623467   
517.500000	2.562165   
518.000000	2.434667   
518.500000	2.329111   
519.000000	2.266936   
519.500000	2.258508   
520.000000	2.339115   
520.500000	2.468235   
521.000000	2.568569   
521.500000	2.640189   
522.000000	2.731513   
522.500000	2.802630   
523.000000	2.873382   
523.500000	2.979265   
524.000000	3.118473   
524.500000	3.217103   
525.000000	3.292959   
525.500000	3.391886   
526.000000	3.518376   
526.500000	3.630721   
527.000000	3.842384   
527.500000	4.089855   
528.000000	4.325252   
528.500000	4.554452   
529.000000	4.798912   
529.500000	5.010461   
530.000000	5.132098   
530.500000	5.266139   
531.000000	5.358100   
531.500000	5.436205   
532.000000	5.522944   
532.500000	5.734990   
533.000000	6.044918   
533.500000	6.340970   
534.000000	6.628063   
534.500000	6.825890   
535.000000	6.935385   
535.500000	6.933738   
536.000000	6.996766   
536.500000	7.189927   
537.000000	7.552163   
537.500000	8.067580   
538.000000	8.729421   
538.500000	9.510753   
539.000000	10.179259  
539.500000	10.717161  
540.000000	11.146380  
540.500000	11.345176  
541.000000	11.424230  
541.500000	11.485304  
542.000000	11.676096  
542.500000	11.843552  
543.000000	11.923166  
543.500000	11.931445  
544.000000	11.727829  
544.500000	11.397972  
545.000000	11.028044  
545.500000	10.834463  
546.000000	10.818925  
546.500000	10.901717  
547.000000	11.106170  
547.500000	11.236016  
548.000000	11.264699  
548.500000	11.118077  
549.000000	10.799153  
549.500000	10.439384  
550.000000	10.073128  
550.500000	9.767823   
551.000000	9.509712   
551.500000	9.355988   
552.000000	9.331769   
552.500000	9.331977   
553.000000	9.365849   
553.500000	9.463072   
554.000000	9.646632   
554.500000	9.803833   
555.000000	9.972025   
555.500000	10.246710  
556.000000	10.515378  
556.500000	10.787166  
557.000000	11.112886  
557.500000	11.439421  
558.000000	11.686270  
558.500000	11.825261  
559.000000	12.040211  
559.500000	12.226641  
560.000000	12.395855  
560.500000	12.652315  
561.000000	12.972194  
561.500000	13.350369  
562.000000	13.738662  
562.500000	14.210979  
563.000000	14.695942  
563.500000	15.136565  
564.000000	15.570840  
564.500000	15.942166  
565.000000	16.393096  
565.500000	16.987235  
566.000000	17.678083  
566.500000	18.552894  
567.000000	19.524545  
567.500000	20.455283  
568.000000	21.175916  
568.500000	21.775163  
569.000000	22.338371  
569.500000	22.798335  
570.000000	23.270944  
570.500000	23.929371  
571.000000	24.625050  
571.500000	25.164096  
572.000000	25.681575  
572.500000	26.175096  
573.000000	26.598988  
573.500000	26.986567  
574.000000	27.591402  
574.500000	28.344534  
575.000000	29.134148  
575.500000	30.054064  
576.000000	31.109820  
576.500000	32.034666  
577.000000	32.776202  
577.500000	33.448972  
578.000000	34.173916  
578.500000	34.851254  
579.000000	35.465699  
579.500000	36.239376  
580.000000	36.961191  
580.500000	37.644812  
581.000000	38.311846  
581.500000	39.162473  
582.000000	40.117820  
582.500000	41.063343  
583.000000	42.165276  
583.500000	43.259792  
584.000000	44.315298  
584.500000	45.223923  
585.000000	46.163233  
585.500000	47.100454  
586.000000	48.024669  
586.500000	49.036311  
587.000000	50.034356  
587.500000	51.224320  
588.000000	52.596207  
588.500000	54.171322  
589.000000	55.764044  
589.500000	57.174660  
590.000000	58.491630  
590.500000	59.500584  
591.000000	60.432359  
591.500000	61.473107  
592.000000	62.674721  
592.500000	64.127083  
593.000000	65.757172  
593.500000	67.630910  
594.000000	69.513846  
594.500000	71.329400  
595.000000	73.004682  
595.500000	74.517795  
596.000000	76.059077  
596.500000	77.579467  
597.000000	79.317430  
597.500000	81.277680  
598.000000	83.352463  
598.500000	85.476378  
599.000000	87.483790  
599.500000	89.430972  
600.000000	91.246573  
600.500000	93.103118  
601.000000	95.033280  
601.500000	97.098998  
602.000000	99.282000  
602.500000	101.584094 
603.000000	103.964172 
603.500000	106.324402 
604.000000	108.581766 
604.500000	110.863656 
605.000000	112.939066 
605.500000	114.981231 
606.000000	117.156760 
606.500000	119.619962 
607.000000	122.340849 
607.500000	125.065842 
608.000000	128.021231 
608.500000	130.839621 
609.000000	133.531152 
609.500000	136.145443 
610.000000	139.181606 
610.500000	142.319320 
611.000000	145.329588 
611.500000	148.681708 
612.000000	151.982359 
612.500000	155.232033 
613.000000	158.255358 
613.500000	161.394122 
614.000000	164.272398 
614.500000	167.017567 
615.000000	169.881211 
615.500000	172.863439 
616.000000	176.076992 
616.500000	179.520152 
617.000000	183.287072 
617.500000	187.055400 
618.000000	190.802452 
618.500000	194.405903 
619.000000	197.938716 
619.500000	201.469294 
620.000000	204.811122 
620.500000	208.206708 
621.000000	211.764769 
621.500000	215.556749 
622.000000	219.498966 
622.500000	223.400131 
623.000000	227.530378 
623.500000	231.256667 
624.000000	234.468686 
624.500000	237.775979 
625.000000	241.257597 
625.500000	245.083510 
626.000000	248.739530 
626.500000	252.844092 
627.000000	257.135328 
627.500000	260.587044 
628.000000	263.552903 
628.500000	266.314185 
629.000000	269.174851 
629.500000	271.949040 
630.000000	275.095291 
630.500000	278.941126 
631.000000	282.584094 
631.500000	285.999790 
632.000000	289.092972 
632.500000	291.986168 
633.000000	294.834727 
633.500000	297.669450 
634.000000	300.869098 
634.500000	303.832185 
635.000000	306.437604 
635.500000	308.299946 
636.000000	309.571430 
636.500000	310.932257 
637.000000	312.530282 
637.500000	314.671148 
638.000000	316.761131 
638.500000	319.001621 
639.000000	320.849135 
639.500000	322.236725 
640.000000	323.531614 
640.500000	324.450128 
641.000000	325.524844 
641.500000	326.159473 
642.000000	326.615499 
642.500000	326.505087 
643.000000	326.099450 
643.500000	325.573855 
644.000000	324.933222 
644.500000	324.781951 
645.000000	324.912356 
645.500000	325.265515 
646.000000	325.167884 
646.500000	325.298222 
647.000000	324.797727 
647.500000	323.494302 
648.000000	321.775024 
648.500000	319.968671 
649.000000	318.544745 
649.500000	316.990378 
650.000000	316.050486 
650.500000	315.149693 
651.000000	313.974632 
651.500000	312.229525 
652.000000	309.774391 
652.500000	307.309738 
653.000000	304.257074 
653.500000	301.325988 
654.000000	298.497124 
654.500000	295.972729 
655.000000	293.561771 
655.500000	290.549269 
656.000000	287.757619 
656.500000	284.675983 
657.000000	281.246224 
657.500000	277.581888 
658.000000	274.117202 
658.500000	271.008254 
659.000000	267.530549 
659.500000	264.305669 
660.000000	260.717821 
660.500000	256.823356 
661.000000	252.335651 
661.500000	247.674766 
662.000000	243.302667 
662.500000	238.755155 
663.000000	234.314703 
663.500000	230.089048 
664.000000	225.869070 
664.500000	221.541623 
665.000000	217.229380 
665.500000	213.368487 
666.000000	209.358172 
666.500000	205.565879 
667.000000	201.606272 
667.500000	197.197987 
668.000000	192.716695 
668.500000	188.095011 
669.000000	183.854589 
669.500000	179.445781 
670.000000	175.450179 
670.500000	171.542235 
671.000000	167.109343 
671.500000	162.577012 
672.000000	157.757250 
672.500000	153.319230 
673.000000	149.165486 
673.500000	145.837962 
674.000000	143.123009 
674.500000	140.221439 
675.000000	137.114411 
675.500000	133.446294 
676.000000	129.268471 
676.500000	124.984602 
677.000000	120.976194 
677.500000	117.521784 
678.000000	114.362940 
678.500000	111.562918 
679.000000	108.813977 
679.500000	105.723534 
680.000000	102.512009 
680.500000	99.244348  
681.000000	96.256153  
681.500000	93.445226  
682.000000	90.898224  
682.500000	88.601849  
683.000000	86.319779  
683.500000	84.000756  
684.000000	81.479680  
684.500000	78.908120  
685.000000	76.429740  
685.500000	74.040040  
686.000000	71.805276  
686.500000	69.671554  
687.000000	67.581096  
687.500000	65.393051  
688.000000	63.376408  
688.500000	61.585155  
689.000000	59.995560  
689.500000	58.740836  
690.000000	57.629129  
690.500000	56.393319  
691.000000	54.925706  
691.500000	53.468079  
692.000000	51.856434  
692.500000	50.097751  
693.000000	48.389109  
693.500000	46.717766  
694.000000	45.065153  
694.500000	43.213658  
695.000000	41.637630  
695.500000	40.322769  
696.000000	39.142250  
696.500000	38.266465  
697.000000	37.580779  
697.500000	37.025988  
698.000000	36.226146  
698.500000	35.240126  
699.000000	34.265723  
699.500000	33.230573  
700.000000	32.276428  
700.500000	31.433729  
701.000000	30.767543  
701.500000	30.150183  
702.000000	29.495769  
702.500000	28.849128  
703.000000	28.168777  
703.500000	27.475384  
704.000000	26.769348  
704.500000	26.001185  
705.000000	25.312131  
705.500000	24.663556  
706.000000	24.083072  
706.500000	23.565988  
707.000000	23.118717  
707.500000	22.694089  
708.000000	22.124141  
708.500000	21.489124  
709.000000	20.855896  
709.500000	20.238035  
710.000000	19.666222  
710.500000	19.242337  
711.000000	18.996688  
711.500000	18.729536  
712.000000	18.428469  
712.500000	18.185495  
713.000000	17.948743  
713.500000	17.651371  
714.000000	17.298458  
714.500000	17.014846  
715.000000	16.675597  
715.500000	16.241204  
716.000000	15.840037  
716.500000	15.471977  
717.000000	15.060356  
717.500000	14.644569  
718.000000	14.341586  
718.500000	14.009200  
719.000000	13.610808  
719.500000	13.300141  
720.000000	13.090374  
720.500000	12.830285  
721.000000	12.578484  
721.500000	12.480447  
722.000000	12.401430  
722.500000	12.216812  
723.000000	12.111684  
723.500000	12.068246  
724.000000	11.930200  
724.500000	11.697916  
725.000000	11.466172  
725.500000	11.239395  
726.000000	10.880551  
726.500000	10.623283  
727.000000	10.470133  
727.500000	10.416296  
728.000000	10.414669  
728.500000	10.382024  
729.000000	10.357053  
729.500000	10.175233  
730.000000	9.945456   
730.500000	9.621239   
731.000000	9.312330   
731.500000	9.081384   
732.000000	8.914972   
732.500000	8.907992   
733.000000	8.934968   
733.500000	8.962263   
734.000000	8.879617   
734.500000	8.688124   
735.000000	8.396484   
735.500000	8.060330   
736.000000	7.798773   
736.500000	7.551222   
737.000000	7.396762   
737.500000	7.290497   
738.000000	7.196293   
738.500000	7.068066   
739.000000	6.951504   
739.500000	6.922499   
740.000000	6.900582   
740.500000	6.923647   
741.000000	6.947584   
741.500000	6.898896   
742.000000	6.788128   
742.500000	6.596220   
743.000000	6.461103   
743.500000	6.320166   
744.000000	6.289294   
744.500000	6.335999   
745.000000	6.392003   
745.500000	6.397762   
746.000000	6.321066   
746.500000	6.239918   
747.000000	6.086115   
747.500000	6.015235   
748.000000	6.032326   
748.500000	6.067996   
749.000000	6.037411   
749.500000	5.986487   
750.000000	5.945651   
750.500000	5.875415   
751.000000	5.856825   
751.500000	5.926738   
752.000000	5.986528   
752.500000	5.882703   
753.000000	5.688905   
753.500000	5.439426   
754.000000	5.193775   
754.500000	4.981760   
755.000000	4.887897   
755.500000	4.863825   
756.000000	4.784910   
756.500000	4.747009   
757.000000	4.653057   
757.500000	4.582016   
758.000000	4.542573   
758.500000	4.535131   
759.000000	4.557779   
759.500000	4.512463   
760.000000	4.497287   
760.500000	4.450500   
761.000000	4.413070   
761.500000	4.450801   
762.000000	4.539875   
762.500000	4.655452   
763.000000	4.703987   
763.500000	4.783690   
764.000000	4.839432   
764.500000	4.870853   
765.000000	4.874404   
765.500000	4.837348   
766.000000	4.760454   
766.500000	4.619762   
767.000000	4.468410   
767.500000	4.326727   
768.000000	4.219565   
768.500000	4.139011   
769.000000	4.051489   
769.500000	3.979339   
770.000000	3.884467   
770.500000	3.717448   
771.000000	3.579163   
771.500000	3.484480   
772.000000	3.469328   
772.500000	3.429155   
773.000000	3.431756   
773.500000	3.499124   
774.000000	3.473263   
774.500000	3.469705   
775.000000	3.437740   
775.500000	3.436727   
776.000000	3.361400   
776.500000	3.259489   
777.000000	3.249955   
777.500000	3.218775   
778.000000	3.264927   
778.500000	3.302586   
779.000000	3.362990   
779.500000	3.386313   
780.000000	3.345424   
780.500000	3.260280   
781.000000	3.124007   
781.500000	3.038558   
782.000000	2.988486   
782.500000	2.979307   
783.000000	3.013111   
783.500000	3.062604   
784.000000	3.104098   
784.500000	3.128343   
785.000000	3.145200   
785.500000	3.191035   
786.000000	3.239749   
786.500000	3.240820   
787.000000	3.197018   
787.500000	3.115339   
788.000000	3.023632   
788.500000	2.905356   
789.000000	2.837025   
789.500000	2.846940   
790.000000	2.858959   
790.500000	2.864692   
791.000000	2.883788   
791.500000	2.888857   
792.000000	2.835760   
792.500000	2.779907   
793.000000	2.737812   
793.500000	2.697946   
794.000000	2.638814   
794.500000	2.593714   
795.000000	2.585871   
795.500000	2.583717   
796.000000	2.596471   
796.500000	2.593873   
797.000000	2.618656   
797.500000	2.594693   
798.000000	2.519480   
798.500000	2.459966   
799.000000	2.404218   
799.500000	2.369773   
800.000000	2.306825   
800.500000	2.310933   
801.000000	2.286335   
801.500000	2.202738   
802.000000	2.140415   
802.500000	2.088972   
803.000000	2.148816   
803.500000	2.220317   
804.000000	2.350146   
804.500000	2.450161   
805.000000	2.487831   
805.500000	2.455576   
806.000000	2.323762   
806.500000	2.250810   
807.000000	2.173153   
807.500000	2.132703   
808.000000	2.117410   
808.500000	2.178703   
809.000000	2.243228   
809.500000	2.196359   
810.000000	2.148280   
810.500000	2.090679   
811.000000	1.954504   
811.500000	1.777795   
812.000000	1.664705   
812.500000	1.587500   
813.000000	1.543217   
813.500000	1.523834   
814.000000	1.583990   
814.500000	1.636877   
815.000000	1.692883   
815.500000	1.735686   
816.000000	1.751385   
816.500000	1.760812   
817.000000	1.719400   
817.500000	1.722847   
818.000000	1.758120   
818.500000	1.886706   
819.000000	2.017703   
819.500000	2.095621   
820.000000	2.153842   
820.500000	2.180352   
821.000000	2.212243   
821.500000	2.249307   
822.000000	2.350094   
822.500000	2.463254   
823.000000	2.553513   
823.500000	2.622465   
824.000000	2.679185   
824.500000	2.753469   
825.000000	2.784474   
825.500000	2.772309   
826.000000	2.679723   
826.500000	2.504881   
827.000000	2.256122   
827.500000	2.001302   
828.000000	1.828803   
828.500000	1.711024   
829.000000	1.632794   
829.500000	1.569441   
830.000000	1.517126   
830.500000	1.449395   
831.000000	1.382378   
831.500000	1.347649   
832.000000	1.326742   
832.500000	1.321367   
833.000000	1.298623   
833.500000	1.272539   
834.000000	1.198695   
834.500000	1.121454   
835.000000	1.048107   
835.500000	0.992751   
836.000000	0.967328   
836.500000	0.968975   
837.000000	1.014601   
837.500000	1.047909   
838.000000	1.075291   
838.500000	1.076155   
839.000000	1.043916   
839.500000	0.982478   
840.000000	0.902352   
840.500000	0.839369   
841.000000	0.769408   
841.500000	0.716992   
842.000000	0.689291   
842.500000	0.699243   
843.000000	0.669202   
843.500000	0.602953   
844.000000	0.530873   
844.500000	0.455888   
845.000000	0.395558   
845.500000	0.398551   
846.000000	0.492638   
846.500000	0.567560   
847.000000	0.616038   
847.500000	0.625589   
848.000000	0.573185   
848.500000	0.479096   
849.000000	0.402241   
849.500000	0.372276   
850.000000	0.327549   
850.500000	0.275651   
851.000000	0.236918   
851.500000	0.182313   
852.000000	0.106053   
852.500000	0.041454   
853.000000	0.007816   
853.500000	0.000619   
854.000000	-0.003894  
854.500000	0.028834   
855.000000	0.076018   
855.500000	0.116964   
856.000000	0.133315   
856.500000	0.105675   
857.000000	0.101638   
857.500000	0.055456   
858.000000	0.006875   
858.500000	0.001627   
859.000000	0.037888   
859.500000	0.084541   
860.000000	0.084758   
860.500000	0.129892   
861.000000	0.153163   
861.500000	0.152966   
862.000000	0.144109   
862.500000	0.154781   
863.000000	0.181016   
863.500000	0.159491   
864.000000	0.149877   
864.500000	0.123400   
865.000000	0.066968   
865.500000	-0.034135  
866.000000	-0.125139  
866.500000	-0.166315  
867.000000	-0.183179  
867.500000	-0.157103  
868.000000	-0.089367  
868.500000	0.002500   
869.000000	0.064094   
869.500000	0.079643   
870.000000	0.066538   
870.500000	0.035181   
871.000000	-0.008680  
871.500000	-0.045710  
872.000000	-0.059671  
872.500000	-0.031673  
873.000000	-0.005547  
873.500000	0.018333   
874.000000	0.013599   
874.500000	-0.004124  
875.000000	-0.021762  
875.500000	-0.064289  
876.000000	-0.076482  
876.500000	-0.086632  
877.000000	-0.100090  
877.500000	-0.127165  
878.000000	-0.154589  
878.500000	-0.131235  
879.000000	-0.113808  
879.500000	-0.074124  
880.000000	-0.030936  
880.500000	0.036070   
881.000000	0.071307   
881.500000	0.061226   
882.000000	0.074901   
882.500000	0.056610   
883.000000	0.039936   
883.500000	0.002610   
884.000000	-0.014959  
884.500000	-0.028387  
885.000000	-0.028317  
885.500000	0.002259   
886.000000	0.027280   
886.500000	0.084949   
887.000000	0.091315   
887.500000	0.081547   
888.000000	0.027807   
888.500000	-0.018211  
889.000000	-0.062198  
889.500000	-0.120068  
890.000000	-0.122938  
890.500000	-0.094115  
891.000000	-0.036000  
891.500000	-0.002717  
892.000000	0.046925   
892.500000	0.093821   
893.000000	0.116102   
893.500000	0.132079   
894.000000	0.121172   
894.500000	0.095115   
895.000000	0.048018   
895.500000	-0.015927  
896.000000	-0.063736  
896.500000	-0.088363  

