PE FL                   SPECTRUM    ASCII       PEDS        1.60        
  -1
S00387~1.SP
24/04/11
16:17:35.00
24/04/11
16:17:35.00
Jan

896.500000
1









LS55
405.00
5.00
5.00
SCAN
1
20
100
100
0
400
0
1
0
1
5
ON
736 405 
1 0 0
#HDR
-1
-1
#GR
NM

0.00002384185791015625
0.0
450.000000
0.500000
894
8
375.636398
-0.264035
#DATA
450.000000	0.032999   
450.500000	0.016239   
451.000000	0.016875   
451.500000	0.047974   
452.000000	0.132517   
452.500000	0.235602   
453.000000	0.309374   
453.500000	0.376076   
454.000000	0.417009   
454.500000	0.395417   
455.000000	0.309291   
455.500000	0.212847   
456.000000	0.176682   
456.500000	0.151439   
457.000000	0.128745   
457.500000	0.137131   
458.000000	0.152038   
458.500000	0.160742   
459.000000	0.100899   
459.500000	0.065116   
460.000000	0.034400   
460.500000	0.032363   
461.000000	0.036217   
461.500000	0.062653   
462.000000	0.108614   
462.500000	0.076818   
463.000000	0.052304   
463.500000	0.048627   
464.000000	0.109035   
464.500000	0.164224   
465.000000	0.261014   
465.500000	0.357020   
466.000000	0.363417   
466.500000	0.369820   
467.000000	0.299280   
467.500000	0.212606   
468.000000	0.100870   
468.500000	0.050298   
469.000000	0.040701   
469.500000	0.041163   
470.000000	0.117077   
470.500000	0.211925   
471.000000	0.287614   
471.500000	0.303942   
472.000000	0.266784   
472.500000	0.197858   
473.000000	0.141133   
473.500000	0.148055   
474.000000	0.194129   
474.500000	0.253562   
475.000000	0.326107   
475.500000	0.340454   
476.000000	0.320987   
476.500000	0.305061   
477.000000	0.288163   
477.500000	0.283157   
478.000000	0.300599   
478.500000	0.335799   
479.000000	0.348615   
479.500000	0.334701   
480.000000	0.332098   
480.500000	0.277339   
481.000000	0.187254   
481.500000	0.103033   
482.000000	0.038990   
482.500000	-0.016795  
483.000000	-0.059359  
483.500000	0.000801   
484.000000	0.090602   
484.500000	0.190209   
485.000000	0.277003   
485.500000	0.349651   
486.000000	0.370306   
486.500000	0.323801   
487.000000	0.278341   
487.500000	0.228141   
488.000000	0.172202   
488.500000	0.113365   
489.000000	0.069235   
489.500000	0.019037   
490.000000	-0.008035  
490.500000	-0.024714  
491.000000	0.000556   
491.500000	0.086994   
492.000000	0.219489   
492.500000	0.344354   
493.000000	0.436697   
493.500000	0.531736   
494.000000	0.551875   
494.500000	0.530400   
495.000000	0.469495   
495.500000	0.401818   
496.000000	0.316432   
496.500000	0.235474   
497.000000	0.233506   
497.500000	0.243435   
498.000000	0.274011   
498.500000	0.317129   
499.000000	0.389615   
499.500000	0.466972   
500.000000	0.522551   
500.500000	0.601152   
501.000000	0.647445   
501.500000	0.683057   
502.000000	0.695805   
502.500000	0.722011   
503.000000	0.765526   
503.500000	0.795326   
504.000000	0.832619   
504.500000	0.866990   
505.000000	0.871207   
505.500000	0.846961   
506.000000	0.824567   
506.500000	0.839089   
507.000000	0.844727   
507.500000	0.847463   
508.000000	0.877760   
508.500000	0.900461   
509.000000	0.929929   
509.500000	0.945975   
510.000000	1.025256   
510.500000	1.127712   
511.000000	1.235513   
511.500000	1.371679   
512.000000	1.508961   
512.500000	1.696558   
513.000000	1.832371   
513.500000	1.939788   
514.000000	1.982992   
514.500000	1.974883   
515.000000	1.925159   
515.500000	1.854009   
516.000000	1.869541   
516.500000	1.915222   
517.000000	1.999228   
517.500000	2.102345   
518.000000	2.224658   
518.500000	2.349944   
519.000000	2.429248   
519.500000	2.487398   
520.000000	2.525918   
520.500000	2.552235   
521.000000	2.584267   
521.500000	2.628714   
522.000000	2.701150   
522.500000	2.804027   
523.000000	2.886653   
523.500000	2.937679   
524.000000	2.927526   
524.500000	2.902788   
525.000000	2.886001   
525.500000	2.880547   
526.000000	2.965185   
526.500000	3.165821   
527.000000	3.365680   
527.500000	3.550680   
528.000000	3.728439   
528.500000	3.913463   
529.000000	4.014367   
529.500000	4.113829   
530.000000	4.372530   
530.500000	4.696677   
531.000000	5.029178   
531.500000	5.317623   
532.000000	5.624398   
532.500000	5.789009   
533.000000	5.818497   
533.500000	5.906298   
534.000000	6.073717   
534.500000	6.309324   
535.000000	6.561077   
535.500000	6.928176   
536.000000	7.312298   
536.500000	7.580467   
537.000000	7.796482   
537.500000	8.058717   
538.000000	8.383085   
538.500000	8.793205   
539.000000	9.300428   
539.500000	9.928339   
540.000000	10.468925  
540.500000	10.870784  
541.000000	11.108829  
541.500000	11.155239  
542.000000	11.171076  
542.500000	11.132083  
543.000000	11.216033  
543.500000	11.280858  
544.000000	11.331948  
544.500000	11.360738  
545.000000	11.307862  
545.500000	11.226742  
546.000000	11.030545  
546.500000	10.894604  
547.000000	10.718896  
547.500000	10.551441  
548.000000	10.440762  
548.500000	10.365610  
549.000000	10.323909  
549.500000	10.219304  
550.000000	10.200881  
550.500000	10.128910  
551.000000	10.064461  
551.500000	10.045680  
552.000000	10.021111  
552.500000	10.006480  
553.000000	9.960768   
553.500000	10.015408  
554.000000	10.143478  
554.500000	10.355454  
555.000000	10.617781  
555.500000	10.896521  
556.000000	11.071725  
556.500000	11.165959  
557.000000	11.165701  
557.500000	11.184719  
558.000000	11.353732  
558.500000	11.574389  
559.000000	11.957285  
559.500000	12.349623  
560.000000	12.846120  
560.500000	13.313927  
561.000000	13.707328  
561.500000	14.179591  
562.000000	14.594576  
562.500000	15.005144  
563.000000	15.354415  
563.500000	15.737404  
564.000000	16.175799  
564.500000	16.665354  
565.000000	17.280775  
565.500000	17.970697  
566.000000	18.667541  
566.500000	19.311270  
567.000000	19.898996  
567.500000	20.422938  
568.000000	20.969404  
568.500000	21.689927  
569.000000	22.617684  
569.500000	23.619627  
570.000000	24.626922  
570.500000	25.568719  
571.000000	26.327072  
571.500000	26.991465  
572.000000	27.630547  
572.500000	28.309417  
573.000000	28.974636  
573.500000	29.713371  
574.000000	30.478671  
574.500000	31.197792  
575.000000	31.934564  
575.500000	32.785840  
576.000000	33.724519  
576.500000	34.665411  
577.000000	35.755044  
577.500000	36.954089  
578.000000	37.957352  
578.500000	38.898178  
579.000000	39.789202  
579.500000	40.538909  
580.000000	41.164402  
580.500000	41.718467  
581.000000	42.283868  
581.500000	42.804081  
582.000000	43.563912  
582.500000	44.650673  
583.000000	45.726000  
583.500000	46.828014  
584.000000	47.923870  
584.500000	48.739506  
585.000000	49.200543  
585.500000	49.632888  
586.000000	50.386139  
586.500000	51.411124  
587.000000	52.716504  
587.500000	54.491666  
588.000000	56.330061  
588.500000	57.841717  
589.000000	59.044775  
589.500000	60.305448  
590.000000	61.632743  
590.500000	62.790573  
591.000000	64.176072  
591.500000	65.910254  
592.000000	67.683875  
592.500000	69.530638  
593.000000	71.336623  
593.500000	73.109769  
594.000000	74.394567  
594.500000	75.394202  
595.000000	76.621536  
595.500000	77.875133  
596.000000	79.485254  
596.500000	81.420441  
597.000000	83.888426  
597.500000	86.554333  
598.000000	89.009024  
598.500000	91.402263  
599.000000	93.499667  
599.500000	95.400083  
600.000000	97.111549  
600.500000	98.821649  
601.000000	100.697525 
601.500000	102.517103 
602.000000	104.445252 
602.500000	106.518380 
603.000000	108.578502 
603.500000	110.744612 
604.000000	112.941875 
604.500000	115.407413 
605.000000	118.073452 
605.500000	120.633749 
606.000000	123.181680 
606.500000	125.547682 
607.000000	128.106719 
607.500000	130.788107 
608.000000	133.623356 
608.500000	136.900014 
609.000000	140.319285 
609.500000	143.694977 
610.000000	146.693000 
610.500000	149.821640 
611.000000	152.961354 
611.500000	156.017838 
612.000000	159.350812 
612.500000	162.844866 
613.000000	166.582137 
613.500000	170.217608 
614.000000	173.898066 
614.500000	177.452287 
615.000000	180.815593 
615.500000	184.206853 
616.000000	187.446669 
616.500000	190.665116 
617.000000	193.908465 
617.500000	197.495705 
618.000000	201.228903 
618.500000	205.068231 
619.000000	209.500343 
619.500000	213.940178 
620.000000	218.007424 
620.500000	221.712419 
621.000000	225.478035 
621.500000	229.258614 
622.000000	233.091298 
622.500000	237.639974 
623.000000	242.463445 
623.500000	247.236909 
624.000000	251.433465 
624.500000	255.224150 
625.000000	258.577430 
625.500000	261.760740 
626.000000	265.294309 
626.500000	269.093513 
627.000000	273.495649 
627.500000	278.171456 
628.000000	282.983165 
628.500000	287.391990 
629.000000	291.226693 
629.500000	294.610925 
630.000000	297.339183 
630.500000	300.323038 
631.000000	303.687406 
631.500000	307.744363 
632.000000	312.185339 
632.500000	316.644706 
633.000000	320.811467 
633.500000	324.270860 
634.000000	327.515818 
634.500000	330.333170 
635.000000	333.100133 
635.500000	336.096016 
636.000000	339.369068 
636.500000	342.922233 
637.000000	346.200905 
637.500000	349.679996 
638.000000	352.894261 
638.500000	355.706868 
639.000000	357.698768 
639.500000	359.424423 
640.000000	361.032207 
640.500000	361.877098 
641.000000	363.119530 
641.500000	364.448282 
642.000000	365.923606 
642.500000	367.251996 
643.000000	368.807152 
643.500000	370.762756 
644.000000	371.788038 
644.500000	373.093669 
645.000000	374.389588 
645.500000	375.292712 
646.000000	375.636398 
646.500000	375.555196 
647.000000	374.909014 
647.500000	373.102024 
648.000000	371.044935 
648.500000	369.804042 
649.000000	369.357194 
649.500000	369.476725 
650.000000	370.120573 
650.500000	370.666035 
651.000000	370.490536 
651.500000	368.570920 
652.000000	365.798615 
652.500000	362.989758 
653.000000	360.092512 
653.500000	357.551237 
654.000000	355.266686 
654.500000	354.002187 
655.000000	352.069821 
655.500000	349.287103 
656.000000	346.078768 
656.500000	342.326220 
657.000000	338.241864 
657.500000	334.408250 
658.000000	331.578987 
658.500000	329.039884 
659.000000	326.491332 
659.500000	323.840569 
660.000000	320.834348 
660.500000	316.953538 
661.000000	312.459534 
661.500000	307.672740 
662.000000	302.565443 
662.500000	297.575643 
663.000000	292.721753 
663.500000	288.324717 
664.000000	283.814174 
664.500000	279.735827 
665.000000	275.441020 
665.500000	270.871597 
666.000000	266.196371 
666.500000	261.590168 
667.000000	256.908038 
667.500000	251.932094 
668.000000	246.945743 
668.500000	241.855846 
669.000000	236.643200 
669.500000	231.546341 
670.000000	226.900196 
670.500000	222.263358 
671.000000	217.395237 
671.500000	212.337478 
672.000000	207.146423 
672.500000	202.219519 
673.000000	196.962432 
673.500000	192.002949 
674.000000	187.218788 
674.500000	182.329723 
675.000000	177.062220 
675.500000	171.697168 
676.000000	166.927369 
676.500000	162.328588 
677.000000	158.033391 
677.500000	154.215588 
678.000000	150.727951 
678.500000	147.100183 
679.000000	143.331261 
679.500000	140.120306 
680.000000	136.898905 
680.500000	133.423612 
681.000000	129.860183 
681.500000	126.440636 
682.000000	122.648788 
682.500000	118.523278 
683.000000	114.459107 
683.500000	110.648504 
684.000000	107.157745 
684.500000	103.920988 
685.000000	101.221556 
685.500000	98.762868  
686.000000	96.319636  
686.500000	93.702066  
687.000000	91.072721  
687.500000	88.427751  
688.000000	85.866252  
688.500000	83.341098  
689.000000	81.090276  
689.500000	79.114710  
690.000000	77.022604  
690.500000	74.873894  
691.000000	72.654905  
691.500000	70.492547  
692.000000	68.199146  
692.500000	65.986339  
693.000000	63.885001  
693.500000	61.827283  
694.000000	59.953539  
694.500000	58.167788  
695.000000	56.567270  
695.500000	55.015387  
696.000000	53.485192  
696.500000	51.936491  
697.000000	50.482046  
697.500000	49.081408  
698.000000	47.689975  
698.500000	46.233812  
699.000000	44.875630  
699.500000	43.437983  
700.000000	41.982358  
700.500000	40.655480  
701.000000	39.553840  
701.500000	38.812580  
702.000000	38.236729  
702.500000	37.775593  
703.000000	37.181371  
703.500000	36.395348  
704.000000	35.413192  
704.500000	34.365332  
705.000000	33.472593  
705.500000	32.706610  
706.000000	32.040079  
706.500000	31.302975  
707.000000	30.380710  
707.500000	29.274662  
708.000000	28.108914  
708.500000	27.074951  
709.000000	26.334914  
709.500000	25.875599  
710.000000	25.610441  
710.500000	25.236645  
711.000000	24.818541  
711.500000	24.342304  
712.000000	23.756343  
712.500000	23.245682  
713.000000	22.653068  
713.500000	22.167131  
714.000000	21.659918  
714.500000	21.110510  
715.000000	20.653341  
715.500000	20.166962  
716.000000	19.875515  
716.500000	19.491582  
717.000000	19.160801  
717.500000	18.844254  
718.000000	18.351981  
718.500000	17.877979  
719.000000	17.442621  
719.500000	17.182089  
720.000000	16.958992  
720.500000	16.863786  
721.000000	16.733584  
721.500000	16.375443  
722.000000	15.923957  
722.500000	15.418205  
723.000000	14.835189  
723.500000	14.247554  
724.000000	13.943471  
724.500000	13.694593  
725.000000	13.464272  
725.500000	13.333914  
726.000000	13.278790  
726.500000	13.193076  
727.000000	12.956513  
727.500000	12.701005  
728.000000	12.373521  
728.500000	11.962651  
729.000000	11.630007  
729.500000	11.448534  
730.000000	11.434738  
730.500000	11.484814  
731.000000	11.439873  
731.500000	11.366823  
732.000000	11.241792  
732.500000	11.030894  
733.000000	10.775625  
733.500000	10.564083  
734.000000	10.396892  
734.500000	10.138489  
735.000000	9.958326   
735.500000	9.807829   
736.000000	9.628636   
736.500000	9.448916   
737.000000	9.289688   
737.500000	9.153790   
738.000000	8.983152   
738.500000	8.837667   
739.000000	8.706155   
739.500000	8.554382   
740.000000	8.460499   
740.500000	8.343289   
741.000000	8.152990   
741.500000	7.965612   
742.000000	7.761378   
742.500000	7.551354   
743.000000	7.347081   
743.500000	7.287558   
744.000000	7.313541   
744.500000	7.297387   
745.000000	7.392974   
745.500000	7.460790   
746.000000	7.414717   
746.500000	7.277769   
747.000000	7.098549   
747.500000	6.912758   
748.000000	6.604554   
748.500000	6.366423   
749.000000	6.161795   
749.500000	5.947031   
750.000000	5.833025   
750.500000	5.774098   
751.000000	5.852881   
751.500000	5.920935   
752.000000	6.075775   
752.500000	6.198875   
753.000000	6.163048   
753.500000	6.064363   
754.000000	5.825092   
754.500000	5.599176   
755.000000	5.389695   
755.500000	5.322235   
756.000000	5.378988   
756.500000	5.460001   
757.000000	5.578558   
757.500000	5.619975   
758.000000	5.569745   
758.500000	5.434126   
759.000000	5.282406   
759.500000	5.150962   
760.000000	5.083623   
760.500000	5.059955   
761.000000	5.192979   
761.500000	5.299187   
762.000000	5.371161   
762.500000	5.380708   
763.000000	5.289599   
763.500000	5.170790   
764.000000	4.972196   
764.500000	4.907966   
765.000000	4.904404   
765.500000	4.942842   
766.000000	4.942723   
766.500000	4.867519   
767.000000	4.727187   
767.500000	4.475202   
768.000000	4.251623   
768.500000	4.085161   
769.000000	3.976552   
769.500000	3.858706   
770.000000	3.727888   
770.500000	3.631760   
771.000000	3.567241   
771.500000	3.530749   
772.000000	3.589009   
772.500000	3.679825   
773.000000	3.768983   
773.500000	3.762656   
774.000000	3.725595   
774.500000	3.663330   
775.000000	3.595048   
775.500000	3.577957   
776.000000	3.576792   
776.500000	3.573990   
777.000000	3.471909   
777.500000	3.377584   
778.000000	3.319382   
778.500000	3.296916   
779.000000	3.362725   
779.500000	3.466421   
780.000000	3.561170   
780.500000	3.540914   
781.000000	3.480025   
781.500000	3.365122   
782.000000	3.234413   
782.500000	3.144879   
783.000000	3.124615   
783.500000	3.147708   
784.000000	3.148085   
784.500000	3.159278   
785.000000	3.154322   
785.500000	3.148213   
786.000000	3.150860   
786.500000	3.129361   
787.000000	3.106341   
787.500000	3.061649   
788.000000	3.001040   
788.500000	2.946523   
789.000000	2.932779   
789.500000	2.952653   
790.000000	2.955270   
790.500000	2.977716   
791.000000	2.996267   
791.500000	2.970361   
792.000000	2.919894   
792.500000	2.911738   
793.000000	2.947545   
793.500000	2.974998   
794.000000	3.024131   
794.500000	3.078178   
795.000000	3.064764   
795.500000	2.979781   
796.000000	2.886717   
796.500000	2.798343   
797.000000	2.718858   
797.500000	2.643302   
798.000000	2.593493   
798.500000	2.578306   
799.000000	2.544129   
799.500000	2.498677   
800.000000	2.443799   
800.500000	2.431051   
801.000000	2.398929   
801.500000	2.356734   
802.000000	2.373107   
802.500000	2.398165   
803.000000	2.416884   
803.500000	2.387421   
804.000000	2.392588   
804.500000	2.369779   
805.000000	2.285519   
805.500000	2.242089   
806.000000	2.207747   
806.500000	2.156450   
807.000000	2.100606   
807.500000	2.099604   
808.000000	2.121801   
808.500000	2.137473   
809.000000	2.122280   
809.500000	2.118636   
810.000000	2.056224   
810.500000	1.971022   
811.000000	1.899352   
811.500000	1.881977   
812.000000	1.948851   
812.500000	1.987868   
813.000000	2.108801   
813.500000	2.197608   
814.000000	2.222638   
814.500000	2.178829   
815.000000	2.066753   
815.500000	1.965402   
816.000000	1.828766   
816.500000	1.732358   
817.000000	1.677573   
817.500000	1.650176   
818.000000	1.630317   
818.500000	1.604261   
819.000000	1.581163   
819.500000	1.619402   
820.000000	1.737109   
820.500000	1.972519   
821.000000	2.240259   
821.500000	2.481131   
822.000000	2.671784   
822.500000	2.707658   
823.000000	2.701833   
823.500000	2.645356   
824.000000	2.634564   
824.500000	2.635636   
825.000000	2.628625   
825.500000	2.661608   
826.000000	2.644504   
826.500000	2.634808   
827.000000	2.588486   
827.500000	2.576640   
828.000000	2.550688   
828.500000	2.435625   
829.000000	2.282508   
829.500000	2.023434   
830.000000	1.733686   
830.500000	1.467914   
831.000000	1.286671   
831.500000	1.210198   
832.000000	1.180107   
832.500000	1.210053   
833.000000	1.234068   
833.500000	1.216152   
834.000000	1.140102   
834.500000	1.054821   
835.000000	1.004955   
835.500000	0.949213   
836.000000	0.931541   
836.500000	0.953886   
837.000000	1.001764   
837.500000	1.017469   
838.000000	1.030170   
838.500000	1.049345   
839.000000	1.042038   
839.500000	0.976903   
840.000000	0.874226   
840.500000	0.771150   
841.000000	0.664222   
841.500000	0.570766   
842.000000	0.547992   
842.500000	0.583582   
843.000000	0.655016   
843.500000	0.739992   
844.000000	0.798096   
844.500000	0.832818   
845.000000	0.804693   
845.500000	0.755692   
846.000000	0.689152   
846.500000	0.578567   
847.000000	0.497578   
847.500000	0.430692   
848.000000	0.398840   
848.500000	0.349790   
849.000000	0.333977   
849.500000	0.339593   
850.000000	0.301172   
850.500000	0.236608   
851.000000	0.189194   
851.500000	0.170324   
852.000000	0.163823   
852.500000	0.189053   
853.000000	0.252089   
853.500000	0.296858   
854.000000	0.306864   
854.500000	0.311617   
855.000000	0.289378   
855.500000	0.245988   
856.000000	0.197178   
856.500000	0.159662   
857.000000	0.136050   
857.500000	0.116068   
858.000000	0.115102   
858.500000	0.110046   
859.000000	0.107408   
859.500000	0.096999   
860.000000	0.093671   
860.500000	0.080936   
861.000000	0.063183   
861.500000	0.045792   
862.000000	0.043280   
862.500000	0.047849   
863.000000	0.044120   
863.500000	0.028408   
864.000000	0.015094   
864.500000	-0.013090  
865.000000	-0.053092  
865.500000	-0.078990  
866.000000	-0.108844  
866.500000	-0.126230  
867.000000	-0.141923  
867.500000	-0.135356  
868.000000	-0.116228  
868.500000	-0.088946  
869.000000	-0.017046  
869.500000	0.060092   
870.000000	0.129541   
870.500000	0.168951   
871.000000	0.192215   
871.500000	0.185269   
872.000000	0.152983   
872.500000	0.130658   
873.000000	0.108250   
873.500000	0.094660   
874.000000	0.066955   
874.500000	0.037435   
875.000000	0.028905   
875.500000	0.009330   
876.000000	0.001224   
876.500000	-0.027278  
877.000000	-0.054035  
877.500000	-0.113257  
878.000000	-0.199174  
878.500000	-0.241515  
879.000000	-0.264035  
879.500000	-0.222632  
880.000000	-0.164975  
880.500000	-0.085918  
881.000000	-0.020339  
881.500000	-0.006294  
882.000000	0.016584   
882.500000	-0.002282  
883.000000	-0.009343  
883.500000	-0.022812  
884.000000	-0.029231  
884.500000	-0.044530  
885.000000	-0.082382  
885.500000	-0.090788  
886.000000	-0.114565  
886.500000	-0.120172  
887.000000	-0.115374  
887.500000	-0.085666  
888.000000	-0.056760  
888.500000	-0.051441  
889.000000	-0.050612  
889.500000	-0.046977  
890.000000	-0.043833  
890.500000	-0.055738  
891.000000	-0.065829  
891.500000	-0.076959  
892.000000	-0.097948  
892.500000	-0.129313  
893.000000	-0.122866  
893.500000	-0.084235  
894.000000	-0.035003  
894.500000	0.005189   
895.000000	0.047686   
895.500000	0.062460   
896.000000	0.032441   
896.500000	-0.008580  

