PE FL                   SPECTRUM    ASCII       PEDS        1.60        
  -1
S013A7~1.SP
24/04/11
17:20:20.00
24/04/11
17:20:20.00
Jan

896.500000
1









LS55
405.00
5.00
5.00
SCAN
1
20
100
100
0
400
0
1
0
1
5
ON
736 405 
1 0 0
#HDR
-1
-1
#GR
NM

0.00002384185791015625
0.0
450.000000
0.500000
894
8
310.752430
-0.224079
#DATA
450.000000	0.300000   
450.500000	0.235115   
451.000000	0.208304   
451.500000	0.157200   
452.000000	0.195654   
452.500000	0.207220   
453.000000	0.226489   
453.500000	0.214931   
454.000000	0.190534   
454.500000	0.194758   
455.000000	0.184634   
455.500000	0.208970   
456.000000	0.275100   
456.500000	0.299209   
457.000000	0.282964   
457.500000	0.213413   
458.000000	0.158838   
458.500000	0.117400   
459.000000	0.100625   
459.500000	0.165723   
460.000000	0.214760   
460.500000	0.272356   
461.000000	0.253302   
461.500000	0.200886   
462.000000	0.122558   
462.500000	0.069847   
463.000000	0.054348   
463.500000	0.046708   
464.000000	0.073907   
464.500000	0.072315   
465.000000	0.073858   
465.500000	0.052562   
466.000000	0.076341   
466.500000	0.105482   
467.000000	0.143133   
467.500000	0.184263   
468.000000	0.195686   
468.500000	0.168528   
469.000000	0.075853   
469.500000	-0.022302  
470.000000	-0.128643  
470.500000	-0.176090  
471.000000	-0.213474  
471.500000	-0.224079  
472.000000	-0.176617  
472.500000	-0.116027  
473.000000	-0.030309  
473.500000	0.059903   
474.000000	0.193159   
474.500000	0.309771   
475.000000	0.420202   
475.500000	0.544378   
476.000000	0.617604   
476.500000	0.646064   
477.000000	0.558730   
477.500000	0.420395   
478.000000	0.237948   
478.500000	0.031192   
479.000000	-0.100469  
479.500000	-0.174604  
480.000000	-0.126328  
480.500000	-0.017558  
481.000000	0.102452   
481.500000	0.193560   
482.000000	0.210083   
482.500000	0.187148   
483.000000	0.082007   
483.500000	-0.010940  
484.000000	-0.072621  
484.500000	-0.061918  
485.000000	0.023320   
485.500000	0.116076   
486.000000	0.208239   
486.500000	0.235595   
487.000000	0.168938   
487.500000	0.075864   
488.000000	0.018901   
488.500000	0.037170   
489.000000	0.083775   
489.500000	0.146576   
490.000000	0.212391   
490.500000	0.198556   
491.000000	0.135888   
491.500000	0.040478   
492.000000	-0.016398  
492.500000	-0.061057  
493.000000	-0.068519  
493.500000	-0.010833  
494.000000	0.044760   
494.500000	0.128272   
495.000000	0.224076   
495.500000	0.304335   
496.000000	0.322536   
496.500000	0.327983   
497.000000	0.317153   
497.500000	0.324352   
498.000000	0.351547   
498.500000	0.415996   
499.000000	0.478597   
499.500000	0.478560   
500.000000	0.477024   
500.500000	0.450200   
501.000000	0.465914   
501.500000	0.507115   
502.000000	0.593372   
502.500000	0.707168   
503.000000	0.786530   
503.500000	0.838278   
504.000000	0.859298   
504.500000	0.856152   
505.000000	0.852022   
505.500000	0.852269   
506.000000	0.874684   
506.500000	0.898445   
507.000000	0.930339   
507.500000	0.975307   
508.000000	0.976087   
508.500000	0.980892   
509.000000	0.978988   
509.500000	0.987397   
510.000000	0.985528   
510.500000	1.039623   
511.000000	1.163183   
511.500000	1.261397   
512.000000	1.339769   
512.500000	1.421816   
513.000000	1.495666   
513.500000	1.507302   
514.000000	1.545920   
514.500000	1.645814   
515.000000	1.758129   
515.500000	1.847643   
516.000000	1.939267   
516.500000	2.079155   
517.000000	2.205610   
517.500000	2.340302   
518.000000	2.474211   
518.500000	2.604677   
519.000000	2.664499   
519.500000	2.638129   
520.000000	2.584664   
520.500000	2.555387   
521.000000	2.592439   
521.500000	2.664018   
522.000000	2.777838   
522.500000	2.908202   
523.000000	3.013712   
523.500000	3.075352   
524.000000	3.078968   
524.500000	3.124291   
525.000000	3.209990   
525.500000	3.356055   
526.000000	3.527382   
526.500000	3.805226   
527.000000	4.122732   
527.500000	4.375202   
528.000000	4.567391   
528.500000	4.754063   
529.000000	4.941756   
529.500000	5.072773   
530.000000	5.226738   
530.500000	5.404688   
531.000000	5.612176   
531.500000	5.774389   
532.000000	5.944953   
532.500000	6.134523   
533.000000	6.342423   
533.500000	6.578165   
534.000000	6.794042   
534.500000	7.190254   
535.000000	7.565458   
535.500000	7.981730   
536.000000	8.388805   
536.500000	8.749126   
537.000000	9.058734   
537.500000	9.188582   
538.000000	9.444734   
538.500000	9.719493   
539.000000	10.082957  
539.500000	10.573851  
540.000000	11.068862  
540.500000	11.526445  
541.000000	11.825116  
541.500000	12.141328  
542.000000	12.338771  
542.500000	12.449452  
543.000000	12.500430  
543.500000	12.515506  
544.000000	12.497120  
544.500000	12.372612  
545.000000	12.239296  
545.500000	12.071313  
546.000000	11.938359  
546.500000	11.760582  
547.000000	11.615484  
547.500000	11.479300  
548.000000	11.318905  
548.500000	11.197044  
549.000000	11.053957  
549.500000	10.931144  
550.000000	10.712799  
550.500000	10.452087  
551.000000	10.114215  
551.500000	9.803139   
552.000000	9.630311   
552.500000	9.637692   
553.000000	9.811846   
553.500000	10.138558  
554.000000	10.596194  
554.500000	10.963589  
555.000000	11.159508  
555.500000	11.262619  
556.000000	11.336179  
556.500000	11.423538  
557.000000	11.517647  
557.500000	11.779946  
558.000000	12.144853  
558.500000	12.542179  
559.000000	12.889836  
559.500000	13.214755  
560.000000	13.582124  
560.500000	13.848606  
561.000000	14.119259  
561.500000	14.402910  
562.000000	14.787324  
562.500000	15.158228  
563.000000	15.608675  
563.500000	16.225983  
564.000000	16.816042  
564.500000	17.486159  
565.000000	18.103866  
565.500000	18.762465  
566.000000	19.286756  
566.500000	19.791181  
567.000000	20.396556  
567.500000	20.962296  
568.000000	21.610174  
568.500000	22.375723  
569.000000	23.224682  
569.500000	23.895851  
570.000000	24.501502  
570.500000	25.115280  
571.000000	25.524369  
571.500000	25.814582  
572.000000	26.135272  
572.500000	26.663740  
573.000000	27.324582  
573.500000	28.151094  
574.000000	29.144944  
574.500000	30.147690  
575.000000	31.025866  
575.500000	31.711057  
576.000000	32.249578  
576.500000	32.651126  
577.000000	33.031758  
577.500000	33.528725  
578.000000	34.204192  
578.500000	35.143987  
579.000000	36.116942  
579.500000	37.051820  
580.000000	37.912916  
580.500000	38.614968  
581.000000	39.222165  
581.500000	39.796413  
582.000000	40.555256  
582.500000	41.447508  
583.000000	42.495077  
583.500000	43.746526  
584.000000	45.057946  
584.500000	46.257842  
585.000000	47.282482  
585.500000	48.347597  
586.000000	49.392376  
586.500000	50.407352  
587.000000	51.540217  
587.500000	52.891855  
588.000000	54.330753  
588.500000	55.764803  
589.000000	57.196680  
589.500000	58.609350  
590.000000	59.978829  
590.500000	61.334439  
591.000000	62.808868  
591.500000	64.562955  
592.000000	66.462094  
592.500000	68.491497  
593.000000	70.405128  
593.500000	72.223333  
594.000000	73.670487  
594.500000	74.895604  
595.000000	76.182560  
595.500000	77.564558  
596.000000	79.252680  
596.500000	81.059352  
597.000000	83.279831  
597.500000	85.466016  
598.000000	87.713354  
598.500000	90.048688  
599.000000	92.191545  
599.500000	94.289051  
600.000000	96.174858  
600.500000	98.334747  
601.000000	100.442716 
601.500000	102.618254 
602.000000	105.013246 
602.500000	107.497120 
603.000000	109.966265 
603.500000	112.128068 
604.000000	114.328517 
604.500000	116.562521 
605.000000	118.631205 
605.500000	120.922725 
606.000000	123.510269 
606.500000	126.321228 
607.000000	129.185487 
607.500000	132.199762 
608.000000	135.310237 
608.500000	138.183239 
609.000000	140.948426 
609.500000	143.819762 
610.000000	146.822575 
610.500000	149.974254 
611.000000	153.230569 
611.500000	156.131623 
612.000000	158.792239 
612.500000	161.390128 
613.000000	164.090749 
613.500000	166.966495 
614.000000	170.256231 
614.500000	174.031165 
615.000000	177.776653 
615.500000	181.490803 
616.000000	185.274326 
616.500000	189.139688 
617.000000	192.572756 
617.500000	195.689402 
618.000000	198.411925 
618.500000	200.945721 
619.000000	203.300489 
619.500000	205.867235 
620.000000	209.139393 
620.500000	212.993738 
621.000000	217.237380 
621.500000	221.301146 
622.000000	225.479667 
622.500000	229.249554 
623.000000	232.640202 
623.500000	235.883647 
624.000000	239.096645 
624.500000	242.072602 
625.000000	245.123662 
625.500000	248.679066 
626.000000	252.201115 
626.500000	255.801415 
627.000000	259.164465 
627.500000	262.446738 
628.000000	264.928168 
628.500000	267.363764 
629.000000	270.409261 
629.500000	273.477452 
630.000000	276.899003 
630.500000	280.318788 
631.000000	283.728482 
631.500000	286.014769 
632.000000	287.562688 
632.500000	289.460758 
633.000000	291.121962 
633.500000	292.977899 
634.000000	294.921849 
634.500000	297.487074 
635.000000	299.401725 
635.500000	300.376000 
636.000000	301.524788 
636.500000	301.916580 
637.000000	302.031454 
637.500000	301.808758 
638.000000	302.168883 
638.500000	302.834677 
639.000000	303.567423 
639.500000	305.217556 
640.000000	306.935031 
640.500000	308.819888 
641.000000	309.996003 
641.500000	310.654371 
642.000000	310.752430 
642.500000	310.018959 
643.000000	309.001280 
643.500000	307.628189 
644.000000	306.405239 
644.500000	305.121385 
645.000000	303.921571 
645.500000	303.059910 
646.000000	302.121161 
646.500000	301.130940 
647.000000	299.844693 
647.500000	298.657185 
648.000000	297.429165 
648.500000	295.907254 
649.000000	294.477871 
649.500000	292.904469 
650.000000	291.248309 
650.500000	289.086213 
651.000000	286.598272 
651.500000	284.160074 
652.000000	281.448493 
652.500000	278.539701 
653.000000	275.525968 
653.500000	272.598051 
654.000000	269.495369 
654.500000	266.252771 
655.000000	263.174823 
655.500000	260.124777 
656.000000	256.822304 
656.500000	253.383565 
657.000000	249.754784 
657.500000	246.022771 
658.000000	242.453697 
658.500000	238.700426 
659.000000	235.150946 
659.500000	231.441398 
660.000000	227.540755 
660.500000	223.692333 
661.000000	219.404083 
661.500000	215.150311 
662.000000	210.553925 
662.500000	206.243680 
663.000000	201.896009 
663.500000	197.546729 
664.000000	193.600829 
664.500000	189.712545 
665.000000	185.889771 
665.500000	181.742124 
666.000000	177.659595 
666.500000	173.380558 
667.000000	168.957359 
667.500000	164.533833 
668.000000	160.238124 
668.500000	156.025439 
669.000000	151.584571 
669.500000	147.475545 
670.000000	143.648050 
670.500000	140.368875 
671.000000	137.074178 
671.500000	133.674827 
672.000000	130.133105 
672.500000	125.963992 
673.000000	121.572237 
673.500000	117.199519 
674.000000	113.527602 
674.500000	110.483115 
675.000000	107.756679 
675.500000	105.444749 
676.000000	102.997103 
676.500000	100.301909 
677.000000	97.288762  
677.500000	94.349276  
678.000000	91.603753  
678.500000	89.043194  
679.000000	86.696064  
679.500000	84.354141  
680.000000	81.885927  
680.500000	79.384823  
681.000000	76.926307  
681.500000	74.501684  
682.000000	72.293712  
682.500000	70.514916  
683.000000	68.778812  
683.500000	66.819100  
684.000000	64.788816  
684.500000	62.723686  
685.000000	60.470315  
685.500000	58.173936  
686.000000	56.459207  
686.500000	55.140847  
687.000000	53.818957  
687.500000	52.516580  
688.000000	51.340185  
688.500000	50.097012  
689.000000	48.546788  
689.500000	47.149120  
690.000000	46.061751  
690.500000	45.075064  
691.000000	43.944549  
691.500000	42.745259  
692.000000	41.528699  
692.500000	40.063289  
693.000000	38.547473  
693.500000	37.292116  
694.000000	36.423794  
694.500000	35.687625  
695.000000	34.970807  
695.500000	34.231747  
696.000000	33.308270  
696.500000	32.256141  
697.000000	31.040682  
697.500000	29.876769  
698.000000	28.903851  
698.500000	28.084871  
699.000000	27.444150  
699.500000	26.945766  
700.000000	26.600628  
700.500000	26.244606  
701.000000	25.619025  
701.500000	24.926543  
702.000000	24.120298  
702.500000	23.248181  
703.000000	22.403408  
703.500000	21.700287  
704.000000	21.246489  
704.500000	20.749487  
705.000000	20.362847  
705.500000	19.966191  
706.000000	19.638992  
706.500000	19.356311  
707.000000	19.078038  
707.500000	18.890103  
708.000000	18.600933  
708.500000	18.239946  
709.000000	17.705764  
709.500000	17.144795  
710.000000	16.615272  
710.500000	16.077797  
711.000000	15.704146  
711.500000	15.450124  
712.000000	15.323363  
712.500000	15.147688  
713.000000	14.941738  
713.500000	14.782706  
714.000000	14.499513  
714.500000	14.239207  
715.000000	13.992250  
715.500000	13.790402  
716.000000	13.585042  
716.500000	13.293782  
717.000000	13.130269  
717.500000	12.864992  
718.000000	12.621137  
718.500000	12.396775  
719.000000	12.112504  
719.500000	11.823452  
720.000000	11.379050  
720.500000	11.047601  
721.000000	10.712719  
721.500000	10.461107  
722.000000	10.426025  
722.500000	10.437732  
723.000000	10.454387  
723.500000	10.301087  
724.000000	10.159100  
724.500000	9.941597   
725.000000	9.603920   
725.500000	9.425669   
726.000000	9.358853   
726.500000	9.380311   
727.000000	9.412005   
727.500000	9.471864   
728.000000	9.469179   
728.500000	9.247434   
729.000000	8.929638   
729.500000	8.556267   
730.000000	8.236423   
730.500000	8.032484   
731.000000	7.955124   
731.500000	7.990037   
732.000000	7.995233   
732.500000	7.938551   
733.000000	7.792294   
733.500000	7.654797   
734.000000	7.550723   
734.500000	7.467105   
735.000000	7.422280   
735.500000	7.389807   
736.000000	7.300935   
736.500000	7.177142   
737.000000	7.109061   
737.500000	7.107675   
738.000000	7.070315   
738.500000	7.042076   
739.000000	7.050443   
739.500000	7.002849   
740.000000	6.891398   
740.500000	6.730808   
741.000000	6.544356   
741.500000	6.296621   
742.000000	6.015406   
742.500000	5.772085   
743.000000	5.610434   
743.500000	5.607187   
744.000000	5.678847   
744.500000	5.721027   
745.000000	5.755369   
745.500000	5.779968   
746.000000	5.759755   
746.500000	5.651139   
747.000000	5.622467   
747.500000	5.618018   
748.000000	5.513000   
748.500000	5.373554   
749.000000	5.252022   
749.500000	5.120660   
750.000000	4.936198   
750.500000	4.852326   
751.000000	4.824612   
751.500000	4.798037   
752.000000	4.764834   
752.500000	4.728918   
753.000000	4.676970   
753.500000	4.623656   
754.000000	4.625764   
754.500000	4.624359   
755.000000	4.592304   
755.500000	4.566463   
756.000000	4.560710   
756.500000	4.528914   
757.000000	4.543315   
757.500000	4.566510   
758.000000	4.585241   
758.500000	4.559165   
759.000000	4.478358   
759.500000	4.345944   
760.000000	4.174072   
760.500000	4.093276   
761.000000	4.037426   
761.500000	4.051773   
762.000000	4.105057   
762.500000	4.145172   
763.000000	4.186398   
763.500000	4.200333   
764.000000	4.304528   
764.500000	4.361363   
765.000000	4.427957   
765.500000	4.469927   
766.000000	4.433410   
766.500000	4.342647   
767.000000	4.162975   
767.500000	4.043077   
768.000000	3.892448   
768.500000	3.829979   
769.000000	3.851437   
769.500000	3.900916   
770.000000	3.946413   
770.500000	3.946521   
771.000000	3.937897   
771.500000	3.838994   
772.000000	3.714393   
772.500000	3.611000   
773.000000	3.545437   
773.500000	3.483233   
774.000000	3.449113   
774.500000	3.448157   
775.000000	3.435725   
775.500000	3.399215   
776.000000	3.405320   
776.500000	3.446016   
777.000000	3.475118   
777.500000	3.481291   
778.000000	3.460814   
778.500000	3.375309   
779.000000	3.216037   
779.500000	3.061463   
780.000000	2.925025   
780.500000	2.838244   
781.000000	2.810994   
781.500000	2.878230   
782.000000	3.001037   
782.500000	3.103764   
783.000000	3.178307   
783.500000	3.197207   
784.000000	3.133621   
784.500000	3.017556   
785.000000	2.899899   
785.500000	2.844172   
786.000000	2.800588   
786.500000	2.810519   
787.000000	2.864606   
787.500000	2.914430   
788.000000	2.936153   
788.500000	2.933495   
789.000000	2.949523   
789.500000	2.923890   
790.000000	2.920705   
790.500000	2.895072   
791.000000	2.887526   
791.500000	2.879400   
792.000000	2.859606   
792.500000	2.857769   
793.000000	2.830608   
793.500000	2.859554   
794.000000	2.852972   
794.500000	2.843628   
795.000000	2.837408   
795.500000	2.800883   
796.000000	2.721456   
796.500000	2.614278   
797.000000	2.565330   
797.500000	2.503627   
798.000000	2.461506   
798.500000	2.515326   
799.000000	2.575014   
799.500000	2.613239   
800.000000	2.606582   
800.500000	2.568968   
801.000000	2.484256   
801.500000	2.283276   
802.000000	2.125035   
802.500000	1.991024   
803.000000	1.915235   
803.500000	1.905612   
804.000000	1.930261   
804.500000	2.005584   
805.000000	2.011448   
805.500000	2.025528   
806.000000	2.024027   
806.500000	1.997202   
807.000000	1.992834   
807.500000	2.009834   
808.000000	2.029923   
808.500000	2.031717   
809.000000	2.053638   
809.500000	2.068131   
810.000000	2.023660   
810.500000	1.923495   
811.000000	1.867246   
811.500000	1.750526   
812.000000	1.619371   
812.500000	1.545799   
813.000000	1.560411   
813.500000	1.638558   
814.000000	1.713972   
814.500000	1.838257   
815.000000	1.877040   
815.500000	1.840228   
816.000000	1.768617   
816.500000	1.674974   
817.000000	1.620617   
817.500000	1.603359   
818.000000	1.656068   
818.500000	1.722530   
819.000000	1.827595   
819.500000	1.934051   
820.000000	2.013278   
820.500000	2.063220   
821.000000	2.124064   
821.500000	2.202662   
822.000000	2.239788   
822.500000	2.294296   
823.000000	2.387543   
823.500000	2.493825   
824.000000	2.593948   
824.500000	2.664489   
825.000000	2.734404   
825.500000	2.733358   
826.000000	2.683046   
826.500000	2.600552   
827.000000	2.464467   
827.500000	2.296860   
828.000000	2.098300   
828.500000	1.955391   
829.000000	1.842382   
829.500000	1.794269   
830.000000	1.765851   
830.500000	1.740918   
831.000000	1.718168   
831.500000	1.640165   
832.000000	1.543920   
832.500000	1.401641   
833.000000	1.318493   
833.500000	1.236692   
834.000000	1.189194   
834.500000	1.165421   
835.000000	1.150335   
835.500000	1.154072   
836.000000	1.121512   
836.500000	1.092625   
837.000000	1.032313   
837.500000	0.963211   
838.000000	0.916059   
838.500000	0.868447   
839.000000	0.861348   
839.500000	0.877512   
840.000000	0.854358   
840.500000	0.826957   
841.000000	0.797335   
841.500000	0.758452   
842.000000	0.672042   
842.500000	0.610558   
843.000000	0.577022   
843.500000	0.511495   
844.000000	0.473695   
844.500000	0.469126   
845.000000	0.505382   
845.500000	0.508354   
846.000000	0.526282   
846.500000	0.499987   
847.000000	0.432899   
847.500000	0.352276   
848.000000	0.288495   
848.500000	0.313237   
849.000000	0.363961   
849.500000	0.472389   
850.000000	0.538217   
850.500000	0.532050   
851.000000	0.462332   
851.500000	0.308152   
852.000000	0.183025   
852.500000	0.073148   
853.000000	0.021248   
853.500000	-0.003484  
854.000000	-0.006467  
854.500000	-0.002953  
855.000000	-0.011886  
855.500000	0.041974   
856.000000	0.106953   
856.500000	0.174348   
857.000000	0.233944   
857.500000	0.263493   
858.000000	0.217371   
858.500000	0.134586   
859.000000	0.075207   
859.500000	0.047703   
860.000000	0.051571   
860.500000	0.058601   
861.000000	0.121389   
861.500000	0.147562   
862.000000	0.145768   
862.500000	0.133016   
863.000000	0.122454   
863.500000	0.092165   
864.000000	0.028128   
864.500000	0.004857   
865.000000	-0.021218  
865.500000	-0.038833  
866.000000	-0.045309  
866.500000	-0.031003  
867.000000	-0.026025  
867.500000	-0.046586  
868.000000	-0.033896  
868.500000	-0.037269  
869.000000	-0.033769  
869.500000	-0.011697  
870.000000	0.011881   
870.500000	0.013289   
871.000000	0.020779   
871.500000	0.053311   
872.000000	0.039398   
872.500000	0.029764   
873.000000	0.031408   
873.500000	0.016107   
874.000000	-0.040046  
874.500000	-0.082714  
875.000000	-0.079597  
875.500000	-0.092231  
876.000000	-0.079350  
876.500000	-0.070606  
877.000000	-0.071870  
877.500000	-0.119150  
878.000000	-0.156619  
878.500000	-0.182781  
879.000000	-0.203760  
879.500000	-0.198517  
880.000000	-0.194059  
880.500000	-0.171257  
881.000000	-0.146153  
881.500000	-0.097270  
882.000000	-0.046946  
882.500000	0.009070   
883.000000	0.036096   
883.500000	0.028083   
884.000000	-0.018727  
884.500000	-0.099489  
885.000000	-0.157181  
885.500000	-0.175725  
886.000000	-0.133855  
886.500000	-0.081486  
887.000000	-0.001679  
887.500000	0.080651   
888.000000	0.117285   
888.500000	0.129246   
889.000000	0.118975   
889.500000	0.089844   
890.000000	0.031654   
890.500000	-0.038330  
891.000000	-0.064560  
891.500000	-0.103152  
892.000000	-0.100831  
892.500000	-0.079699  
893.000000	-0.048191  
893.500000	-0.013836  
894.000000	-0.015261  
894.500000	-0.006823  
895.000000	-0.042454  
895.500000	-0.045675  
896.000000	-0.052901  
896.500000	-0.040599  

