PE FL                   SPECTRUM    ASCII       PEDS        1.60        
  -1
S003AF~1.SP
24/04/11
16:51:49.00
24/04/11
16:51:49.00
Jan

896.500000
1









LS55
405.00
5.00
5.00
SCAN
1
20
100
100
0
400
0
1
0
1
5
ON
736 405 
1 0 0
#HDR
-1
-1
#GR
NM

0.00002384185791015625
0.0
450.000000
0.500000
894
8
325.070756
-0.250068
#DATA
450.000000	0.001000   
450.500000	0.093235   
451.000000	0.133172   
451.500000	0.092213   
452.000000	0.043923   
452.500000	-0.040894  
453.000000	-0.053990  
453.500000	-0.011345  
454.000000	0.074445   
454.500000	0.157651   
455.000000	0.225311   
455.500000	0.290576   
456.000000	0.305417   
456.500000	0.294332   
457.000000	0.257755   
457.500000	0.199660   
458.000000	0.118445   
458.500000	0.052224   
459.000000	0.009191   
459.500000	-0.015918  
460.000000	-0.022087  
460.500000	-0.024430  
461.000000	-0.039166  
461.500000	-0.059404  
462.000000	-0.052588  
462.500000	-0.064784  
463.000000	-0.065779  
463.500000	-0.062298  
464.000000	-0.049688  
464.500000	-0.034204  
465.000000	0.007480   
465.500000	0.071289   
466.000000	0.134348   
466.500000	0.195270   
467.000000	0.236922   
467.500000	0.274641   
468.000000	0.278721   
468.500000	0.274064   
469.000000	0.270226   
469.500000	0.246181   
470.000000	0.213294   
470.500000	0.202517   
471.000000	0.229836   
471.500000	0.232309   
472.000000	0.215610   
472.500000	0.176272   
473.000000	0.096406   
473.500000	-0.011549  
474.000000	-0.107048  
474.500000	-0.133899  
475.000000	-0.132196  
475.500000	-0.090020  
476.000000	-0.024647  
476.500000	0.023144   
477.000000	0.083610   
477.500000	0.137252   
478.000000	0.220027   
478.500000	0.253053   
479.000000	0.302673   
479.500000	0.319528   
480.000000	0.241500   
480.500000	0.146582   
481.000000	0.057142   
481.500000	0.021808   
482.000000	-0.033491  
482.500000	-0.016619  
483.000000	0.041480   
483.500000	0.064363   
484.000000	0.052241   
484.500000	0.020899   
485.000000	0.031189   
485.500000	0.009781   
486.000000	0.043645   
486.500000	0.079608   
487.000000	0.146213   
487.500000	0.201992   
488.000000	0.169708   
488.500000	0.127426   
489.000000	0.059966   
489.500000	0.017547   
490.000000	-0.010471  
490.500000	0.043582   
491.000000	0.150649   
491.500000	0.200508   
492.000000	0.218265   
492.500000	0.246606   
493.000000	0.258860   
493.500000	0.259179   
494.000000	0.317333   
494.500000	0.424411   
495.000000	0.485243   
495.500000	0.447914   
496.000000	0.398489   
496.500000	0.317100   
497.000000	0.232686   
497.500000	0.204645   
498.000000	0.223196   
498.500000	0.262343   
499.000000	0.275450   
499.500000	0.287688   
500.000000	0.318675   
500.500000	0.351276   
501.000000	0.429942   
501.500000	0.523675   
502.000000	0.619532   
502.500000	0.708740   
503.000000	0.782254   
503.500000	0.837853   
504.000000	0.872376   
504.500000	0.946951   
505.000000	0.978012   
505.500000	0.951508   
506.000000	0.877871   
506.500000	0.796807   
507.000000	0.752398   
507.500000	0.778679   
508.000000	0.915897   
508.500000	1.075606   
509.000000	1.248165   
509.500000	1.355981   
510.000000	1.362367   
510.500000	1.285719   
511.000000	1.225163   
511.500000	1.224628   
512.000000	1.268482   
512.500000	1.389979   
513.000000	1.597146   
513.500000	1.819309   
514.000000	1.975298   
514.500000	2.128549   
515.000000	2.224048   
515.500000	2.238873   
516.000000	2.196085   
516.500000	2.136402   
517.000000	2.134038   
517.500000	2.133868   
518.000000	2.196211   
518.500000	2.272857   
519.000000	2.387166   
519.500000	2.510259   
520.000000	2.594894   
520.500000	2.708897   
521.000000	2.802187   
521.500000	2.882959   
522.000000	2.928248   
522.500000	2.957836   
523.000000	2.999105   
523.500000	3.000168   
524.000000	3.038768   
524.500000	3.142836   
525.000000	3.261389   
525.500000	3.400254   
526.000000	3.555682   
526.500000	3.717896   
527.000000	3.861460   
527.500000	4.011651   
528.000000	4.231938   
528.500000	4.442766   
529.000000	4.638706   
529.500000	4.828120   
530.000000	5.002393   
530.500000	5.134103   
531.000000	5.244907   
531.500000	5.444578   
532.000000	5.691361   
532.500000	5.976372   
533.000000	6.286777   
533.500000	6.641103   
534.000000	6.909317   
534.500000	7.082322   
535.000000	7.219853   
535.500000	7.367589   
536.000000	7.546248   
536.500000	7.783181   
537.000000	8.240389   
537.500000	8.772745   
538.000000	9.352027   
538.500000	9.919953   
539.000000	10.405870  
539.500000	10.834710  
540.000000	11.116285  
540.500000	11.443139  
541.000000	11.676419  
541.500000	11.841760  
542.000000	11.949200  
542.500000	11.851849  
543.000000	11.734645  
543.500000	11.562176  
544.000000	11.485858  
544.500000	11.471458  
545.000000	11.509280  
545.500000	11.606745  
546.000000	11.487886  
546.500000	11.283632  
547.000000	10.979352  
547.500000	10.654638  
548.000000	10.402426  
548.500000	10.334636  
549.000000	10.465174  
549.500000	10.548285  
550.000000	10.627465  
550.500000	10.615166  
551.000000	10.454907  
551.500000	10.180679  
552.000000	9.979946   
552.500000	9.933170   
553.000000	9.902239   
553.500000	10.007647  
554.000000	10.185890  
554.500000	10.382165  
555.000000	10.481966  
555.500000	10.552231  
556.000000	10.656148  
556.500000	10.716538  
557.000000	10.723643  
557.500000	10.775046  
558.000000	10.899823  
558.500000	11.063365  
559.000000	11.395968  
559.500000	11.809551  
560.000000	12.363081  
560.500000	12.834847  
561.000000	13.317278  
561.500000	13.745667  
562.000000	14.113428  
562.500000	14.571313  
563.000000	14.959525  
563.500000	15.468730  
564.000000	15.910831  
564.500000	16.449875  
565.000000	17.039083  
565.500000	17.617764  
566.000000	18.311350  
566.500000	18.932914  
567.000000	19.541814  
567.500000	20.047248  
568.000000	20.518037  
568.500000	21.010716  
569.000000	21.588083  
569.500000	22.268217  
570.000000	22.941721  
570.500000	23.609680  
571.000000	24.239935  
571.500000	24.730545  
572.000000	25.161012  
572.500000	25.647454  
573.000000	26.213413  
573.500000	26.838588  
574.000000	27.487300  
574.500000	28.187352  
575.000000	28.871504  
575.500000	29.532938  
576.000000	30.246139  
576.500000	30.902098  
577.000000	31.577491  
577.500000	32.253000  
578.000000	32.969658  
578.500000	33.714903  
579.000000	34.587912  
579.500000	35.515940  
580.000000	36.377647  
580.500000	37.278569  
581.000000	38.246484  
581.500000	39.244589  
582.000000	40.260860  
582.500000	41.345883  
583.000000	42.427805  
583.500000	43.448936  
584.000000	44.388619  
584.500000	45.286714  
585.000000	46.243304  
585.500000	47.221042  
586.000000	48.239987  
586.500000	49.165319  
587.000000	50.250703  
587.500000	51.490907  
588.000000	52.805576  
588.500000	54.250001  
589.000000	55.925194  
589.500000	57.687200  
590.000000	59.058682  
590.500000	60.297486  
591.000000	61.660532  
591.500000	62.904424  
592.000000	63.861439  
592.500000	64.993897  
593.000000	66.458257  
593.500000	67.841816  
594.000000	69.087810  
594.500000	70.841367  
595.000000	72.880706  
595.500000	74.621677  
596.000000	76.432239  
596.500000	78.434929  
597.000000	80.424541  
597.500000	81.996398  
598.000000	83.818090  
598.500000	85.975846  
599.000000	87.928083  
599.500000	89.939053  
600.000000	91.978970  
600.500000	94.033693  
601.000000	95.654879  
601.500000	97.356354  
602.000000	99.420933  
602.500000	101.516118 
603.000000	104.109716 
603.500000	106.881356 
604.000000	109.827879 
604.500000	112.308768 
605.000000	114.367649 
605.500000	116.332018 
606.000000	118.112222 
606.500000	120.477730 
607.000000	122.919599 
607.500000	125.986120 
608.000000	129.240823 
608.500000	132.418074 
609.000000	135.333658 
609.500000	138.032871 
610.000000	140.907059 
610.500000	143.525480 
611.000000	146.102530 
611.500000	148.879812 
612.000000	151.813465 
612.500000	154.393139 
613.000000	156.975385 
613.500000	159.755526 
614.000000	162.963387 
614.500000	166.316317 
615.000000	169.713721 
615.500000	173.485762 
616.000000	177.141220 
616.500000	180.973742 
617.000000	184.404372 
617.500000	188.119176 
618.000000	192.025246 
618.500000	195.570443 
619.000000	198.890211 
619.500000	202.149070 
620.000000	205.676014 
620.500000	209.094855 
621.000000	212.703781 
621.500000	216.827662 
622.000000	220.682680 
622.500000	224.102821 
623.000000	227.089294 
623.500000	230.215842 
624.000000	233.439686 
624.500000	237.195233 
625.000000	241.621484 
625.500000	246.138170 
626.000000	250.171248 
626.500000	253.567927 
627.000000	256.406634 
627.500000	258.671294 
628.000000	261.182079 
628.500000	264.309927 
629.000000	267.756320 
629.500000	271.536948 
630.000000	275.454204 
630.500000	279.128931 
631.000000	282.255461 
631.500000	285.241063 
632.000000	288.211693 
632.500000	291.214217 
633.000000	294.080814 
633.500000	297.115324 
634.000000	299.874508 
634.500000	302.179081 
635.000000	304.529087 
635.500000	306.867324 
636.000000	309.320606 
636.500000	311.513090 
637.000000	313.495974 
637.500000	315.208393 
638.000000	316.494881 
638.500000	317.575191 
639.000000	318.250480 
639.500000	319.420198 
640.000000	320.676135 
640.500000	321.764300 
641.000000	322.741027 
641.500000	323.501283 
642.000000	323.889328 
642.500000	324.111894 
643.000000	323.861816 
643.500000	323.668641 
644.000000	323.853935 
644.500000	323.730771 
645.000000	323.928053 
645.500000	324.117896 
646.000000	324.992243 
646.500000	325.070756 
647.000000	324.707879 
647.500000	324.630552 
648.000000	323.571359 
648.500000	321.664781 
649.000000	319.178925 
649.500000	317.296016 
650.000000	315.114066 
650.500000	312.815593 
651.000000	311.482593 
651.500000	310.077771 
652.000000	308.314756 
652.500000	306.245705 
653.000000	303.765877 
653.500000	300.845792 
654.000000	297.359237 
654.500000	294.161428 
655.000000	290.970959 
655.500000	287.801207 
656.000000	284.781714 
656.500000	281.405497 
657.000000	278.219256 
657.500000	274.754007 
658.000000	271.269901 
658.500000	267.871803 
659.000000	264.431552 
659.500000	261.326864 
660.000000	257.869998 
660.500000	254.576059 
661.000000	251.264272 
661.500000	247.547673 
662.000000	243.655766 
662.500000	239.359020 
663.000000	235.062256 
663.500000	230.319315 
664.000000	225.593346 
664.500000	221.284692 
665.000000	217.084654 
665.500000	212.782502 
666.000000	208.434063 
666.500000	204.081022 
667.000000	199.609020 
667.500000	195.069382 
668.000000	190.872200 
668.500000	187.259120 
669.000000	183.665322 
669.500000	180.176150 
670.000000	176.436380 
670.500000	172.605816 
671.000000	168.407959 
671.500000	163.846938 
672.000000	159.070493 
672.500000	154.310844 
673.000000	149.563057 
673.500000	144.828858 
674.000000	140.565979 
674.500000	136.733502 
675.000000	133.111575 
675.500000	129.460664 
676.000000	126.117393 
676.500000	122.741528 
677.000000	119.090769 
677.500000	115.531233 
678.000000	112.302597 
678.500000	109.533320 
679.000000	106.740606 
679.500000	104.262706 
680.000000	101.710966 
680.500000	98.855556  
681.000000	95.955076  
681.500000	92.948961  
682.000000	90.354291  
682.500000	87.805708  
683.000000	85.494166  
683.500000	83.273912  
684.000000	80.780283  
684.500000	78.479094  
685.000000	75.979792  
685.500000	73.645871  
686.000000	71.299322  
686.500000	69.215818  
687.000000	67.179723  
687.500000	64.837862  
688.000000	62.702038  
688.500000	60.845120  
689.000000	59.052113  
689.500000	57.381528  
690.000000	55.990884  
690.500000	54.722070  
691.000000	53.287508  
691.500000	51.675241  
692.000000	50.209673  
692.500000	48.667749  
693.000000	47.096218  
693.500000	45.626923  
694.000000	44.309046  
694.500000	43.188526  
695.000000	41.951740  
695.500000	40.860833  
696.000000	39.665185  
696.500000	38.525723  
697.000000	37.478719  
697.500000	36.557630  
698.000000	35.837504  
698.500000	35.115892  
699.000000	34.422153  
699.500000	33.574873  
700.000000	32.674339  
700.500000	31.820385  
701.000000	30.862061  
701.500000	29.968673  
702.000000	29.119037  
702.500000	28.346428  
703.000000	27.489849  
703.500000	26.636085  
704.000000	25.985012  
704.500000	25.263679  
705.000000	24.541614  
705.500000	23.940812  
706.000000	23.452439  
706.500000	22.960805  
707.000000	22.544319  
707.500000	22.352886  
708.000000	22.106285  
708.500000	21.706974  
709.000000	21.299437  
709.500000	20.809732  
710.000000	20.287038  
710.500000	19.791348  
711.000000	19.415209  
711.500000	19.138923  
712.000000	18.806823  
712.500000	18.572365  
713.000000	18.271410  
713.500000	17.964525  
714.000000	17.574573  
714.500000	17.156001  
715.000000	16.835044  
715.500000	16.452183  
716.000000	16.062302  
716.500000	15.545571  
717.000000	15.032421  
717.500000	14.506311  
718.000000	14.067100  
718.500000	13.823372  
719.000000	13.726699  
719.500000	13.707536  
720.000000	13.696489  
720.500000	13.658940  
721.000000	13.487883  
721.500000	13.263591  
722.000000	13.028628  
722.500000	12.764187  
723.000000	12.398664  
723.500000	12.044712  
724.000000	11.658556  
724.500000	11.276461  
725.000000	11.022792  
725.500000	10.914838  
726.000000	10.894194  
726.500000	10.788807  
727.000000	10.666595  
727.500000	10.450012  
728.000000	10.156773  
728.500000	9.859055   
729.000000	9.624500   
729.500000	9.479779   
730.000000	9.388020   
730.500000	9.388627   
731.000000	9.367647   
731.500000	9.305604   
732.000000	9.192259   
732.500000	9.057769   
733.000000	8.903530   
733.500000	8.759753   
734.000000	8.610131   
734.500000	8.492250   
735.000000	8.373480   
735.500000	8.233771   
736.000000	8.103432   
736.500000	7.923083   
737.000000	7.759289   
737.500000	7.596653   
738.000000	7.491703   
738.500000	7.421356   
739.000000	7.345549   
739.500000	7.287517   
740.000000	7.148896   
740.500000	7.033473   
741.000000	6.898634   
741.500000	6.761411   
742.000000	6.690500   
742.500000	6.648541   
743.000000	6.644363   
743.500000	6.543779   
744.000000	6.428246   
744.500000	6.358187   
745.000000	6.229957   
745.500000	6.174079   
746.000000	6.178586   
746.500000	6.265849   
747.000000	6.185072   
747.500000	6.074421   
748.000000	5.964343   
748.500000	5.783024   
749.000000	5.577857   
749.500000	5.386055   
750.000000	5.375333   
750.500000	5.303434   
751.000000	5.275799   
751.500000	5.266775   
752.000000	5.251443   
752.500000	5.161350   
753.000000	5.067508   
753.500000	5.101625   
754.000000	5.031495   
754.500000	5.000910   
755.000000	4.970654   
755.500000	4.961510   
756.000000	4.859261   
756.500000	4.800630   
757.000000	4.813434   
757.500000	4.783762   
758.000000	4.744996   
758.500000	4.743933   
759.000000	4.736992   
759.500000	4.660899   
760.000000	4.579788   
760.500000	4.498953   
761.000000	4.420829   
761.500000	4.331128   
762.000000	4.310532   
762.500000	4.361452   
763.000000	4.417797   
763.500000	4.497170   
764.000000	4.485352   
764.500000	4.446716   
765.000000	4.262615   
765.500000	4.052732   
766.000000	3.913801   
766.500000	3.781853   
767.000000	3.768890   
767.500000	3.803974   
768.000000	3.926946   
768.500000	3.993024   
769.000000	3.988966   
769.500000	3.989651   
770.000000	3.901361   
770.500000	3.758179   
771.000000	3.623120   
771.500000	3.562148   
772.000000	3.555903   
772.500000	3.586478   
773.000000	3.604152   
773.500000	3.603755   
774.000000	3.518387   
774.500000	3.404515   
775.000000	3.280714   
775.500000	3.195886   
776.000000	3.204332   
776.500000	3.214432   
777.000000	3.271252   
777.500000	3.305942   
778.000000	3.308131   
778.500000	3.272113   
779.000000	3.168374   
779.500000	3.091480   
780.000000	3.021248   
780.500000	2.977148   
781.000000	2.976382   
781.500000	3.012538   
782.000000	3.118248   
782.500000	3.199512   
783.000000	3.278294   
783.500000	3.317988   
784.000000	3.299990   
784.500000	3.260033   
785.000000	3.156205   
785.500000	3.086363   
786.000000	3.039016   
786.500000	3.038612   
787.000000	3.047309   
787.500000	3.055155   
788.000000	3.086274   
788.500000	3.061500   
789.000000	3.023120   
789.500000	2.992218   
790.000000	2.985458   
790.500000	2.985888   
791.000000	2.982875   
791.500000	2.980133   
792.000000	2.916784   
792.500000	2.833152   
793.000000	2.753944   
793.500000	2.667270   
794.000000	2.604092   
794.500000	2.584821   
795.000000	2.612430   
795.500000	2.626183   
796.000000	2.651107   
796.500000	2.666743   
797.000000	2.662434   
797.500000	2.650482   
798.000000	2.630640   
798.500000	2.610831   
799.000000	2.557296   
799.500000	2.505372   
800.000000	2.433048   
800.500000	2.395990   
801.000000	2.385864   
801.500000	2.380000   
802.000000	2.380024   
802.500000	2.379667   
803.000000	2.387135   
803.500000	2.373486   
804.000000	2.339341   
804.500000	2.284909   
805.000000	2.248022   
805.500000	2.181302   
806.000000	2.093790   
806.500000	2.046549   
807.000000	2.021552   
807.500000	2.008610   
808.000000	1.987048   
808.500000	2.028118   
809.000000	2.039111   
809.500000	1.980089   
810.000000	1.937729   
810.500000	1.918491   
811.000000	1.891072   
811.500000	1.856658   
812.000000	1.910102   
812.500000	1.934302   
813.000000	1.939079   
813.500000	1.937445   
814.000000	1.942521   
814.500000	1.904435   
815.000000	1.877430   
815.500000	1.901825   
816.000000	1.872358   
816.500000	1.850246   
817.000000	1.735200   
817.500000	1.618306   
818.000000	1.473330   
818.500000	1.438115   
819.000000	1.540196   
819.500000	1.724224   
820.000000	2.007892   
820.500000	2.216426   
821.000000	2.351096   
821.500000	2.391899   
822.000000	2.414261   
822.500000	2.423506   
823.000000	2.461059   
823.500000	2.596534   
824.000000	2.693246   
824.500000	2.714031   
825.000000	2.651725   
825.500000	2.532283   
826.000000	2.378738   
826.500000	2.239719   
827.000000	2.145469   
827.500000	2.104487   
828.000000	2.047198   
828.500000	1.992513   
829.000000	1.927884   
829.500000	1.850397   
830.000000	1.767523   
830.500000	1.668102   
831.000000	1.594582   
831.500000	1.521706   
832.000000	1.453378   
832.500000	1.399699   
833.000000	1.340417   
833.500000	1.305248   
834.000000	1.239365   
834.500000	1.158517   
835.000000	1.047515   
835.500000	0.958085   
836.000000	0.912115   
836.500000	0.929656   
837.000000	0.981717   
837.500000	1.044998   
838.000000	1.076417   
838.500000	1.040972   
839.000000	0.972664   
839.500000	0.894901   
840.000000	0.839309   
840.500000	0.808102   
841.000000	0.817398   
841.500000	0.841077   
842.000000	0.849972   
842.500000	0.852168   
843.000000	0.858614   
843.500000	0.865083   
844.000000	0.827120   
844.500000	0.785450   
845.000000	0.730007   
845.500000	0.673816   
846.000000	0.628450   
846.500000	0.639000   
847.000000	0.706332   
847.500000	0.737369   
848.000000	0.754621   
848.500000	0.736684   
849.000000	0.638756   
849.500000	0.481896   
850.000000	0.330677   
850.500000	0.240946   
851.000000	0.162549   
851.500000	0.121217   
852.000000	0.154211   
852.500000	0.192254   
853.000000	0.200100   
853.500000	0.211380   
854.000000	0.245359   
854.500000	0.263384   
855.000000	0.237936   
855.500000	0.236818   
856.000000	0.228421   
856.500000	0.193734   
857.000000	0.168447   
857.500000	0.149892   
858.000000	0.152833   
858.500000	0.151441   
859.000000	0.175046   
859.500000	0.177087   
860.000000	0.158137   
860.500000	0.148784   
861.000000	0.135538   
861.500000	0.109857   
862.000000	0.109471   
862.500000	0.140384   
863.000000	0.137035   
863.500000	0.099293   
864.000000	0.059441   
864.500000	0.025187   
865.000000	-0.033812  
865.500000	-0.058263  
866.000000	-0.022397  
866.500000	0.008745   
867.000000	0.019448   
867.500000	0.010293   
868.000000	0.003853   
868.500000	-0.017781  
869.000000	-0.053666  
869.500000	-0.079818  
870.000000	-0.127992  
870.500000	-0.179660  
871.000000	-0.229500  
871.500000	-0.250068  
872.000000	-0.207192  
872.500000	-0.148545  
873.000000	-0.077556  
873.500000	-0.017270  
874.000000	0.028252   
874.500000	0.019070   
875.000000	-0.018094  
875.500000	-0.039257  
876.000000	-0.049779  
876.500000	-0.061174  
877.000000	-0.044966  
877.500000	-0.000087  
878.000000	0.035693   
878.500000	0.048226   
879.000000	0.072625   
879.500000	0.077699   
880.000000	0.065363   
880.500000	0.057122   
881.000000	0.070884   
881.500000	0.087523   
882.000000	0.073489   
882.500000	0.079556   
883.000000	0.070111   
883.500000	0.067174   
884.000000	0.052528   
884.500000	0.022211   
885.000000	-0.011781  
885.500000	-0.062346  
886.000000	-0.088274  
886.500000	-0.106538  
887.000000	-0.093474  
887.500000	-0.072907  
888.000000	-0.056851  
888.500000	-0.073961  
889.000000	-0.106452  
889.500000	-0.133979  
890.000000	-0.157215  
890.500000	-0.131280  
891.000000	-0.064435  
891.500000	0.027389   
892.000000	0.074320   
892.500000	0.095441   
893.000000	0.114341   
893.500000	0.108007   
894.000000	0.090000   
894.500000	0.062730   
895.000000	0.044940   
895.500000	0.006910   
896.000000	-0.049192  
896.500000	-0.085808  

