PE FL                   SPECTRUM    ASCII       PEDS        1.60        
  -1
S003A7~1.SP
24/04/11
16:23:17.00
24/04/11
16:23:17.00
Jan

896.500000
1









LS55
405.00
5.00
5.00
SCAN
1
20
100
100
0
400
0
1
0
1
5
ON
736 405 
1 0 0
#HDR
-1
-1
#GR
NM

0.00002384185791015625
0.0
450.000000
0.500000
894
8
361.255992
-0.702999
#DATA
450.000000	-0.702999  
450.500000	-0.370762  
451.000000	-0.122927  
451.500000	0.057484   
452.000000	0.084975   
452.500000	0.131300   
453.000000	0.086599   
453.500000	0.086198   
454.000000	0.069716   
454.500000	0.071434   
455.000000	0.095161   
455.500000	0.132983   
456.000000	0.259578   
456.500000	0.327194   
457.000000	0.402643   
457.500000	0.396645   
458.000000	0.346040   
458.500000	0.215610   
459.000000	0.088248   
459.500000	0.053632   
460.000000	0.032129   
460.500000	0.070575   
461.000000	0.131478   
461.500000	0.204445   
462.000000	0.230873   
462.500000	0.201899   
463.000000	0.170274   
463.500000	0.115667   
464.000000	0.082259   
464.500000	0.029389   
465.000000	0.032975   
465.500000	0.089129   
466.000000	0.107163   
466.500000	0.111038   
467.000000	0.106834   
467.500000	0.095692   
468.000000	0.021888   
468.500000	-0.035035  
469.000000	-0.046296  
469.500000	-0.073278  
470.000000	-0.117886  
470.500000	-0.115575  
471.000000	-0.095864  
471.500000	-0.056710  
472.000000	0.033432   
472.500000	0.154922   
473.000000	0.299938   
473.500000	0.387141   
474.000000	0.449645   
474.500000	0.402033   
475.000000	0.323278   
475.500000	0.234638   
476.000000	0.147452   
476.500000	0.121261   
477.000000	0.100461   
477.500000	0.103365   
478.000000	0.062805   
478.500000	0.050196   
479.000000	0.035992   
479.500000	0.055090   
480.000000	0.140465   
480.500000	0.238703   
481.000000	0.296688   
481.500000	0.293638   
482.000000	0.284276   
482.500000	0.200569   
483.000000	0.150205   
483.500000	0.148749   
484.000000	0.189133   
484.500000	0.196502   
485.000000	0.152345   
485.500000	0.119903   
486.000000	0.031142   
486.500000	-0.013257  
487.000000	-0.011768  
487.500000	0.077471   
488.000000	0.173148   
488.500000	0.256649   
489.000000	0.353103   
489.500000	0.392415   
490.000000	0.416495   
490.500000	0.406458   
491.000000	0.400957   
491.500000	0.364975   
492.000000	0.316760   
492.500000	0.283126   
493.000000	0.267244   
493.500000	0.274168   
494.000000	0.306560   
494.500000	0.366844   
495.000000	0.415983   
495.500000	0.463614   
496.000000	0.465716   
496.500000	0.450248   
497.000000	0.422413   
497.500000	0.397935   
498.000000	0.381575   
498.500000	0.366170   
499.000000	0.393847   
499.500000	0.427389   
500.000000	0.473584   
500.500000	0.522296   
501.000000	0.544714   
501.500000	0.566200   
502.000000	0.560166   
502.500000	0.565517   
503.000000	0.592426   
503.500000	0.657601   
504.000000	0.743354   
504.500000	0.813821   
505.000000	0.889768   
505.500000	0.928378   
506.000000	0.921480   
506.500000	0.914910   
507.000000	0.919864   
507.500000	0.950077   
508.000000	0.955643   
508.500000	0.962654   
509.000000	0.999643   
509.500000	1.099992   
510.000000	1.238402   
510.500000	1.376374   
511.000000	1.517031   
511.500000	1.570998   
512.000000	1.571573   
512.500000	1.512471   
513.000000	1.477567   
513.500000	1.501998   
514.000000	1.594098   
514.500000	1.780087   
515.000000	1.933833   
515.500000	2.070727   
516.000000	2.159528   
516.500000	2.227530   
517.000000	2.287875   
517.500000	2.367246   
518.000000	2.491317   
518.500000	2.592410   
519.000000	2.690460   
519.500000	2.771769   
520.000000	2.796046   
520.500000	2.753486   
521.000000	2.674831   
521.500000	2.613339   
522.000000	2.594430   
522.500000	2.603777   
523.000000	2.673671   
523.500000	2.852343   
524.000000	3.076005   
524.500000	3.267402   
525.000000	3.469237   
525.500000	3.603799   
526.000000	3.666406   
526.500000	3.625849   
527.000000	3.634725   
527.500000	3.702220   
528.000000	3.811795   
528.500000	4.078857   
529.000000	4.388578   
529.500000	4.682404   
530.000000	4.802792   
530.500000	4.873239   
531.000000	4.974916   
531.500000	5.124467   
532.000000	5.421320   
532.500000	5.724291   
533.000000	6.100146   
533.500000	6.355736   
534.000000	6.482144   
534.500000	6.518734   
535.000000	6.623404   
535.500000	6.859897   
536.000000	7.152803   
536.500000	7.550094   
537.000000	7.898688   
537.500000	8.172677   
538.000000	8.356179   
538.500000	8.603975   
539.000000	8.989801   
539.500000	9.510096   
540.000000	10.135057  
540.500000	10.711795  
541.000000	11.172591  
541.500000	11.433571  
542.000000	11.545202  
542.500000	11.483372  
543.000000	11.329975  
543.500000	11.228410  
544.000000	11.136410  
544.500000	11.098428  
545.000000	11.058000  
545.500000	11.079983  
546.000000	11.143883  
546.500000	11.101567  
547.000000	11.057029  
547.500000	10.965163  
548.000000	10.911701  
548.500000	10.679820  
549.000000	10.460588  
549.500000	10.312179  
550.000000	10.174959  
550.500000	10.115252  
551.000000	10.102727  
551.500000	10.250087  
552.000000	10.288927  
552.500000	10.301816  
553.000000	10.264300  
553.500000	10.202883  
554.000000	10.201361  
554.500000	10.183860  
555.000000	10.320858  
555.500000	10.437612  
556.000000	10.581358  
556.500000	10.704734  
557.000000	10.809374  
557.500000	11.030176  
558.000000	11.165382  
558.500000	11.345968  
559.000000	11.574337  
559.500000	11.784775  
560.000000	12.096096  
560.500000	12.434252  
561.000000	12.963469  
561.500000	13.458534  
562.000000	13.941256  
562.500000	14.403194  
563.000000	14.778374  
563.500000	15.161877  
564.000000	15.451851  
564.500000	15.787269  
565.000000	16.273910  
565.500000	16.927682  
566.000000	17.688628  
566.500000	18.582855  
567.000000	19.647061  
567.500000	20.679116  
568.000000	21.399788  
568.500000	22.049235  
569.000000	22.638705  
569.500000	23.069909  
570.000000	23.584929  
570.500000	24.339016  
571.000000	25.461823  
571.500000	26.558667  
572.000000	27.749788  
572.500000	29.062632  
573.000000	30.082684  
573.500000	30.824057  
574.000000	31.353738  
574.500000	31.919055  
575.000000	32.381706  
575.500000	32.694434  
576.000000	33.102547  
576.500000	33.545625  
577.000000	34.035764  
577.500000	34.607133  
578.000000	35.420951  
578.500000	36.523807  
579.000000	37.660860  
579.500000	38.665126  
580.000000	39.525263  
580.500000	40.303031  
581.000000	40.982241  
581.500000	41.698250  
582.000000	42.561463  
582.500000	43.695692  
583.000000	44.764873  
583.500000	45.573382  
584.000000	46.346467  
584.500000	47.097660  
585.000000	47.922486  
585.500000	48.770022  
586.000000	49.937884  
586.500000	51.336079  
587.000000	52.629181  
587.500000	53.905497  
588.000000	55.191365  
588.500000	56.431250  
589.000000	57.548350  
589.500000	58.782448  
590.000000	60.081987  
590.500000	61.425089  
591.000000	62.759734  
591.500000	64.240037  
592.000000	65.745758  
592.500000	67.350345  
593.000000	69.246172  
593.500000	71.117794  
594.000000	73.032656  
594.500000	74.911935  
595.000000	76.561552  
595.500000	77.989024  
596.000000	79.359289  
596.500000	80.908263  
597.000000	82.308966  
597.500000	83.901016  
598.000000	85.739445  
598.500000	87.425103  
599.000000	89.115098  
599.500000	90.958476  
600.000000	93.106769  
600.500000	95.207018  
601.000000	97.544261  
601.500000	100.170721 
602.000000	102.462320 
602.500000	104.555267 
603.000000	106.477087 
603.500000	108.371914 
604.000000	110.101923 
604.500000	112.253838 
605.000000	114.972376 
605.500000	117.773680 
606.000000	120.850461 
606.500000	123.940454 
607.000000	127.004385 
607.500000	129.705194 
608.000000	132.344523 
608.500000	135.176833 
609.000000	137.926638 
609.500000	140.907055 
610.000000	143.873150 
610.500000	146.914089 
611.000000	149.699005 
611.500000	152.471129 
612.000000	155.618181 
612.500000	159.021228 
613.000000	162.784558 
613.500000	166.726745 
614.000000	170.848851 
614.500000	174.949552 
615.000000	178.622962 
615.500000	181.983038 
616.000000	185.126105 
616.500000	188.053538 
617.000000	190.904925 
617.500000	193.828133 
618.000000	197.203402 
618.500000	200.548923 
619.000000	203.927126 
619.500000	207.675157 
620.000000	211.604276 
620.500000	215.602398 
621.000000	219.451803 
621.500000	223.667248 
622.000000	227.925009 
622.500000	232.016254 
623.000000	236.306703 
623.500000	240.570499 
624.000000	244.793263 
624.500000	249.092068 
625.000000	253.045096 
625.500000	256.716840 
626.000000	260.233515 
626.500000	263.575205 
627.000000	267.195480 
627.500000	270.800309 
628.000000	274.947907 
628.500000	278.958736 
629.000000	282.682823 
629.500000	286.536165 
630.000000	290.141011 
630.500000	293.919458 
631.000000	297.260417 
631.500000	300.947705 
632.000000	304.842270 
632.500000	308.796222 
633.000000	312.934571 
633.500000	316.976912 
634.000000	320.846992 
634.500000	324.021575 
635.000000	326.809471 
635.500000	329.139667 
636.000000	331.601968 
636.500000	333.796046 
637.000000	336.207202 
637.500000	338.773454 
638.000000	341.378981 
638.500000	344.262556 
639.000000	346.549502 
639.500000	348.939538 
640.000000	350.914528 
640.500000	351.897760 
641.000000	352.221589 
641.500000	352.377419 
642.000000	353.125658 
642.500000	354.022673 
643.000000	355.624109 
643.500000	357.878534 
644.000000	359.557697 
644.500000	360.573089 
645.000000	361.193077 
645.500000	361.255992 
646.000000	360.951564 
646.500000	360.163178 
647.000000	359.394157 
647.500000	358.610870 
648.000000	357.998055 
648.500000	358.110400 
649.000000	358.128246 
649.500000	358.080289 
650.000000	357.336929 
650.500000	355.525512 
651.000000	352.815187 
651.500000	349.461662 
652.000000	346.699853 
652.500000	344.250836 
653.000000	342.526521 
653.500000	341.162263 
654.000000	339.657207 
654.500000	338.024920 
655.000000	335.644888 
655.500000	333.071749 
656.000000	330.017126 
656.500000	326.532304 
657.000000	323.118128 
657.500000	319.647064 
658.000000	316.741552 
658.500000	313.646072 
659.000000	310.632196 
659.500000	307.270886 
660.000000	303.574012 
660.500000	299.572814 
661.000000	295.612929 
661.500000	292.289790 
662.000000	288.962595 
662.500000	285.574033 
663.000000	281.855272 
663.500000	277.469580 
664.000000	272.231170 
664.500000	266.822337 
665.000000	261.526884 
665.500000	256.470745 
666.000000	251.722736 
666.500000	247.258539 
667.000000	242.972408 
667.500000	238.637764 
668.000000	234.649627 
668.500000	230.511371 
669.000000	226.330808 
669.500000	221.986053 
670.000000	217.484703 
670.500000	212.303578 
671.000000	206.913276 
671.500000	201.611632 
672.000000	196.432413 
672.500000	191.540888 
673.000000	187.046645 
673.500000	182.641452 
674.000000	177.822749 
674.500000	172.911144 
675.000000	167.932539 
675.500000	163.050330 
676.000000	158.482346 
676.500000	154.516252 
677.000000	150.895499 
677.500000	147.137552 
678.000000	143.226697 
678.500000	139.137608 
679.000000	135.016014 
679.500000	130.822098 
680.000000	126.894716 
680.500000	123.411784 
681.000000	120.141012 
681.500000	116.853606 
682.000000	113.690675 
682.500000	110.743836 
683.000000	107.814617 
683.500000	104.775567 
684.000000	101.759538 
684.500000	98.963543  
685.000000	96.058758  
685.500000	93.254868  
686.000000	90.784820  
686.500000	88.455220  
687.000000	86.063790  
687.500000	83.586350  
688.000000	81.199499  
688.500000	78.594961  
689.000000	76.068701  
689.500000	73.847870  
690.000000	71.906224  
690.500000	69.979226  
691.000000	68.135358  
691.500000	66.413294  
692.000000	64.486050  
692.500000	62.507769  
693.000000	60.640404  
693.500000	58.958309  
694.000000	57.070224  
694.500000	55.211235  
695.000000	53.500443  
695.500000	51.812534  
696.000000	50.344185  
696.500000	49.101929  
697.000000	48.166740  
697.500000	47.252521  
698.000000	46.255406  
698.500000	45.304738  
699.000000	44.069966  
699.500000	42.816586  
700.000000	41.497166  
700.500000	40.122743  
701.000000	38.748962  
701.500000	37.345779  
702.000000	36.176322  
702.500000	35.124777  
703.000000	34.251756  
703.500000	33.542864  
704.000000	32.896961  
704.500000	32.231328  
705.000000	31.489743  
705.500000	30.718400  
706.000000	29.982111  
706.500000	29.224309  
707.000000	28.504834  
707.500000	27.926426  
708.000000	27.335679  
708.500000	26.695920  
709.000000	25.958899  
709.500000	25.301588  
710.000000	24.556862  
710.500000	23.687150  
711.000000	23.022079  
711.500000	22.531949  
712.000000	22.151202  
712.500000	21.939152  
713.000000	21.826827  
713.500000	21.702666  
714.000000	21.315382  
714.500000	20.817679  
715.000000	20.168044  
715.500000	19.367423  
716.000000	18.601291  
716.500000	17.963703  
717.000000	17.538304  
717.500000	17.188395  
718.000000	16.997064  
718.500000	16.851443  
719.000000	16.614285  
719.500000	16.292116  
720.000000	15.901827  
720.500000	15.428328  
721.000000	14.906460  
721.500000	14.456551  
722.000000	14.166311  
722.500000	14.004840  
723.000000	13.861241  
723.500000	13.830378  
724.000000	13.786756  
724.500000	13.639161  
725.000000	13.369868  
725.500000	13.080007  
726.000000	12.846858  
726.500000	12.642044  
727.000000	12.507007  
727.500000	12.367107  
728.000000	12.295369  
728.500000	12.114089  
729.000000	11.818565  
729.500000	11.506677  
730.000000	11.242779  
730.500000	10.961781  
731.000000	10.677710  
731.500000	10.538571  
732.000000	10.424892  
732.500000	10.274968  
733.000000	10.081410  
733.500000	9.959463   
734.000000	9.810951   
734.500000	9.603922   
735.000000	9.489664   
735.500000	9.383762   
736.000000	9.332105   
736.500000	9.263792   
737.000000	9.198434   
737.500000	9.081413   
738.000000	8.903888   
738.500000	8.763211   
739.000000	8.569762   
739.500000	8.396851   
740.000000	8.264300   
740.500000	8.197784   
741.000000	8.090189   
741.500000	7.980367   
742.000000	7.951730   
742.500000	7.912107   
743.000000	7.875005   
743.500000	7.822521   
744.000000	7.801858   
744.500000	7.674144   
745.000000	7.448291   
745.500000	7.243324   
746.000000	7.002155   
746.500000	6.857883   
747.000000	6.691410   
747.500000	6.560358   
748.000000	6.467842   
748.500000	6.311966   
749.000000	6.256113   
749.500000	6.167166   
750.000000	6.243584   
750.500000	6.333025   
751.000000	6.347252   
751.500000	6.366244   
752.000000	6.227317   
752.500000	6.075541   
753.000000	5.841855   
753.500000	5.700920   
754.000000	5.619389   
754.500000	5.561894   
755.000000	5.540756   
755.500000	5.449690   
756.000000	5.358415   
756.500000	5.252168   
757.000000	5.166693   
757.500000	5.114115   
758.000000	5.152089   
758.500000	5.213445   
759.000000	5.227588   
759.500000	5.210100   
760.000000	5.143163   
760.500000	4.973328   
761.000000	4.814371   
761.500000	4.718745   
762.000000	4.671727   
762.500000	4.693278   
763.000000	4.731894   
763.500000	4.803103   
764.000000	4.812916   
764.500000	4.809265   
765.000000	4.783115   
765.500000	4.690174   
766.000000	4.624209   
766.500000	4.556487   
767.000000	4.525857   
767.500000	4.479552   
768.000000	4.443998   
768.500000	4.424096   
769.000000	4.321413   
769.500000	4.196820   
770.000000	4.051764   
770.500000	3.922584   
771.000000	3.854150   
771.500000	3.825341   
772.000000	3.856445   
772.500000	3.907343   
773.000000	3.876929   
773.500000	3.794866   
774.000000	3.658417   
774.500000	3.497614   
775.000000	3.391582   
775.500000	3.307380   
776.000000	3.327521   
776.500000	3.452927   
777.000000	3.624463   
777.500000	3.728243   
778.000000	3.742602   
778.500000	3.762769   
779.000000	3.639922   
779.500000	3.484519   
780.000000	3.385187   
780.500000	3.391564   
781.000000	3.411103   
781.500000	3.423304   
782.000000	3.496126   
782.500000	3.467575   
783.000000	3.385682   
783.500000	3.300324   
784.000000	3.253684   
784.500000	3.223552   
785.000000	3.193040   
785.500000	3.176411   
786.000000	3.100170   
786.500000	3.028729   
787.000000	2.952643   
787.500000	2.876860   
788.000000	2.838525   
788.500000	2.849385   
789.000000	2.877038   
789.500000	2.877755   
790.000000	2.905669   
790.500000	2.955985   
791.000000	2.953042   
791.500000	2.917142   
792.000000	2.873361   
792.500000	2.805666   
793.000000	2.738975   
793.500000	2.729662   
794.000000	2.787102   
794.500000	2.842883   
795.000000	2.855419   
795.500000	2.837445   
796.000000	2.774185   
796.500000	2.685526   
797.000000	2.631786   
797.500000	2.636894   
798.000000	2.682899   
798.500000	2.726745   
799.000000	2.772484   
799.500000	2.795706   
800.000000	2.807187   
800.500000	2.859079   
801.000000	2.878751   
801.500000	2.844296   
802.000000	2.765909   
802.500000	2.624719   
803.000000	2.433935   
803.500000	2.249001   
804.000000	2.189456   
804.500000	2.165899   
805.000000	2.175569   
805.500000	2.254883   
806.000000	2.344432   
806.500000	2.392532   
807.000000	2.362938   
807.500000	2.314000   
808.000000	2.188263   
808.500000	2.030775   
809.000000	1.917272   
809.500000	1.872270   
810.000000	1.921667   
810.500000	2.038222   
811.000000	2.172153   
811.500000	2.241389   
812.000000	2.310844   
812.500000	2.328131   
813.000000	2.312287   
813.500000	2.284680   
814.000000	2.254339   
814.500000	2.185614   
815.000000	2.068851   
815.500000	1.997348   
816.000000	1.937406   
816.500000	1.940404   
817.000000	1.963465   
817.500000	2.025821   
818.000000	2.093432   
818.500000	2.136066   
819.000000	2.208014   
819.500000	2.246736   
820.000000	2.314901   
820.500000	2.334864   
821.000000	2.332235   
821.500000	2.331886   
822.000000	2.301580   
822.500000	2.306680   
823.000000	2.343417   
823.500000	2.426417   
824.000000	2.525827   
824.500000	2.625949   
825.000000	2.735207   
825.500000	2.754743   
826.000000	2.707237   
826.500000	2.625938   
827.000000	2.461285   
827.500000	2.296473   
828.000000	2.149684   
828.500000	2.023432   
829.000000	1.918727   
829.500000	1.820406   
830.000000	1.736994   
830.500000	1.621725   
831.000000	1.492554   
831.500000	1.389654   
832.000000	1.289643   
832.500000	1.220226   
833.000000	1.184313   
833.500000	1.148174   
834.000000	1.130135   
834.500000	1.086623   
835.000000	1.073998   
835.500000	1.071664   
836.000000	1.085833   
836.500000	1.103658   
837.000000	1.084487   
837.500000	1.080821   
838.000000	1.004068   
838.500000	0.898102   
839.000000	0.822935   
839.500000	0.796398   
840.000000	0.783682   
840.500000	0.775037   
841.000000	0.824953   
841.500000	0.859545   
842.000000	0.865730   
842.500000	0.864150   
843.000000	0.874716   
843.500000	0.863853   
844.000000	0.786395   
844.500000	0.725406   
845.000000	0.684688   
845.500000	0.606940   
846.000000	0.539944   
846.500000	0.496428   
847.000000	0.461389   
847.500000	0.383458   
848.000000	0.328719   
848.500000	0.328059   
849.000000	0.292857   
849.500000	0.269326   
850.000000	0.277892   
850.500000	0.298474   
851.000000	0.277788   
851.500000	0.260729   
852.000000	0.254335   
852.500000	0.232660   
853.000000	0.206489   
853.500000	0.179192   
854.000000	0.161137   
854.500000	0.153166   
855.000000	0.169116   
855.500000	0.158862   
856.000000	0.157307   
856.500000	0.166107   
857.000000	0.153862   
857.500000	0.139905   
858.000000	0.137729   
858.500000	0.141371   
859.000000	0.127803   
859.500000	0.113742   
860.000000	0.109593   
860.500000	0.120970   
861.000000	0.136413   
861.500000	0.138435   
862.000000	0.095723   
862.500000	0.043569   
863.000000	-0.000697  
863.500000	-0.046640  
864.000000	-0.055133  
864.500000	-0.025452  
865.000000	0.040896   
865.500000	0.069424   
866.000000	0.065990   
866.500000	0.047521   
867.000000	0.003725   
867.500000	-0.021369  
868.000000	-0.048545  
868.500000	-0.045165  
869.000000	-0.030821  
869.500000	-0.029393  
870.000000	-0.023760  
870.500000	-0.008777  
871.000000	0.009717   
871.500000	0.010949   
872.000000	0.019851   
872.500000	0.034272   
873.000000	0.043376   
873.500000	0.044794   
874.000000	0.046671   
874.500000	0.030003   
875.000000	0.002033   
875.500000	-0.026909  
876.000000	-0.062202  
876.500000	-0.084155  
877.000000	-0.101983  
877.500000	-0.070283  
878.000000	-0.025050  
878.500000	0.018077   
879.000000	0.082716   
879.500000	0.123910   
880.000000	0.152599   
880.500000	0.144604   
881.000000	0.151788   
881.500000	0.163050   
882.000000	0.147064   
882.500000	0.153549   
883.000000	0.163512   
883.500000	0.169248   
884.000000	0.144810   
884.500000	0.135476   
885.000000	0.127443   
885.500000	0.098569   
886.000000	0.071371   
886.500000	0.057981   
887.000000	0.023000   
887.500000	-0.040705  
888.000000	-0.113055  
888.500000	-0.182909  
889.000000	-0.239306  
889.500000	-0.277022  
890.000000	-0.272838  
890.500000	-0.229417  
891.000000	-0.170541  
891.500000	-0.125526  
892.000000	-0.086009  
892.500000	-0.051721  
893.000000	-0.048994  
893.500000	-0.050992  
894.000000	-0.027766  
894.500000	0.019500   
895.000000	0.045920   
895.500000	0.080543   
896.000000	0.123068   
896.500000	0.149975   

