PE FL                   SPECTRUM    ASCII       PEDS        1.60        
  -1
S00B83~1.SP
24/04/11
16:33:16.00
24/04/11
16:33:16.00
Jan

896.500000
1









LS55
405.00
5.00
5.00
SCAN
1
20
100
100
0
400
0
1
0
1
5
ON
736 405 
1 0 0
#HDR
-1
-1
#GR
NM

0.00002384185791015625
0.0
450.000000
0.500000
894
8
340.019693
-0.435413
#DATA
450.000000	0.201000   
450.500000	-0.074925  
451.000000	-0.303523  
451.500000	-0.435413  
452.000000	-0.409682  
452.500000	-0.327398  
453.000000	-0.207458  
453.500000	-0.084029  
454.000000	0.011660   
454.500000	0.046679   
455.000000	0.037623   
455.500000	0.035831   
456.000000	0.003304   
456.500000	-0.045768  
457.000000	-0.097766  
457.500000	-0.126250  
458.000000	-0.146233  
458.500000	-0.140602  
459.000000	-0.106285  
459.500000	-0.090755  
460.000000	-0.073578  
460.500000	-0.072686  
461.000000	-0.056035  
461.500000	-0.056211  
462.000000	-0.033051  
462.500000	0.029762   
463.000000	0.050319   
463.500000	0.049358   
464.000000	0.007215   
464.500000	-0.024814  
465.000000	-0.094161  
465.500000	-0.116467  
466.000000	-0.072068  
466.500000	-0.031176  
467.000000	0.060269   
467.500000	0.159250   
468.000000	0.267931   
468.500000	0.309417   
469.000000	0.315610   
469.500000	0.325027   
470.000000	0.271803   
470.500000	0.197215   
471.000000	0.165662   
471.500000	0.159380   
472.000000	0.163222   
472.500000	0.176912   
473.000000	0.260348   
473.500000	0.297962   
474.000000	0.263389   
474.500000	0.233081   
475.000000	0.178695   
475.500000	0.101627   
476.000000	0.018500   
476.500000	-0.000627  
477.000000	0.028456   
477.500000	0.036979   
478.000000	0.063792   
478.500000	0.094155   
479.000000	0.114025   
479.500000	0.154582   
480.000000	0.227853   
480.500000	0.286410   
481.000000	0.325903   
481.500000	0.324408   
482.000000	0.287556   
482.500000	0.180680   
483.000000	0.089076   
483.500000	0.045315   
484.000000	0.018992   
484.500000	0.036083   
485.000000	0.079680   
485.500000	0.145489   
486.000000	0.167567   
486.500000	0.158038   
487.000000	0.156764   
487.500000	0.119068   
488.000000	0.059699   
488.500000	0.033330   
489.000000	0.082897   
489.500000	0.130306   
490.000000	0.146987   
490.500000	0.164356   
491.000000	0.086311   
491.500000	-0.093159  
492.000000	-0.260486  
492.500000	-0.342755  
493.000000	-0.320870  
493.500000	-0.236343  
494.000000	-0.049606  
494.500000	0.139296   
495.000000	0.215423   
495.500000	0.243096   
496.000000	0.255564   
496.500000	0.282866   
497.000000	0.254012   
497.500000	0.233083   
498.000000	0.225274   
498.500000	0.192589   
499.000000	0.176118   
499.500000	0.191348   
500.000000	0.285821   
500.500000	0.419461   
501.000000	0.539894   
501.500000	0.616497   
502.000000	0.652838   
502.500000	0.653936   
503.000000	0.636692   
503.500000	0.630398   
504.000000	0.670628   
504.500000	0.741896   
505.000000	0.779005   
505.500000	0.812452   
506.000000	0.809042   
506.500000	0.806365   
507.000000	0.796769   
507.500000	0.822697   
508.000000	0.873745   
508.500000	0.951771   
509.000000	1.088513   
509.500000	1.215070   
510.000000	1.354103   
510.500000	1.478918   
511.000000	1.596135   
511.500000	1.611172   
512.000000	1.577974   
512.500000	1.564426   
513.000000	1.596959   
513.500000	1.668669   
514.000000	1.791456   
514.500000	1.958437   
515.000000	2.067152   
515.500000	2.120458   
516.000000	2.114565   
516.500000	2.168051   
517.000000	2.192595   
517.500000	2.239538   
518.000000	2.281773   
518.500000	2.309643   
519.000000	2.323172   
519.500000	2.285786   
520.000000	2.347406   
520.500000	2.399836   
521.000000	2.512684   
521.500000	2.608467   
522.000000	2.701051   
522.500000	2.803799   
523.000000	2.831627   
523.500000	2.865452   
524.000000	2.859897   
524.500000	2.883484   
525.000000	2.909688   
525.500000	2.938280   
526.000000	3.032679   
526.500000	3.161350   
527.000000	3.227103   
527.500000	3.269302   
528.000000	3.361521   
528.500000	3.518066   
529.000000	3.700020   
529.500000	3.959348   
530.000000	4.335363   
530.500000	4.658094   
531.000000	4.953782   
531.500000	5.192176   
532.000000	5.399940   
532.500000	5.601764   
533.000000	5.789361   
533.500000	6.038328   
534.000000	6.252152   
534.500000	6.563777   
535.000000	6.831589   
535.500000	7.090233   
536.000000	7.343448   
536.500000	7.597575   
537.000000	7.863649   
537.500000	8.082341   
538.000000	8.407070   
538.500000	8.768749   
539.000000	9.161558   
539.500000	9.553417   
540.000000	9.929714   
540.500000	10.335307  
541.000000	10.616717  
541.500000	10.842393  
542.000000	11.057825  
542.500000	11.218725  
543.000000	11.361489  
543.500000	11.399792  
544.000000	11.424009  
544.500000	11.377463  
545.000000	11.223532  
545.500000	11.115280  
546.000000	10.981979  
546.500000	10.918729  
547.000000	10.888732  
547.500000	10.868896  
548.000000	10.783389  
548.500000	10.655287  
549.000000	10.483551  
549.500000	10.312842  
550.000000	10.146027  
550.500000	10.106482  
551.000000	10.122890  
551.500000	10.092324  
552.000000	10.078634  
552.500000	9.977628   
553.000000	9.924142   
553.500000	9.877155   
554.000000	9.889061   
554.500000	10.037695  
555.000000	10.193337  
555.500000	10.417658  
556.000000	10.553877  
556.500000	10.728434  
557.000000	11.019133  
557.500000	11.306623  
558.000000	11.616042  
558.500000	11.947441  
559.000000	12.240627  
559.500000	12.455538  
560.000000	12.612551  
560.500000	12.914148  
561.000000	13.247905  
561.500000	13.591929  
562.000000	14.003551  
562.500000	14.442634  
563.000000	14.884076  
563.500000	15.307204  
564.000000	15.751137  
564.500000	16.291426  
565.000000	16.744211  
565.500000	17.230302  
566.000000	17.759239  
566.500000	18.350684  
567.000000	19.065497  
567.500000	19.812415  
568.000000	20.702374  
568.500000	21.448222  
569.000000	22.152831  
569.500000	22.833300  
570.000000	23.453037  
570.500000	24.139252  
571.000000	24.696161  
571.500000	25.394686  
572.000000	26.040803  
572.500000	26.768508  
573.000000	27.469298  
573.500000	28.116964  
574.000000	28.903949  
574.500000	29.625925  
575.000000	30.327693  
575.500000	31.017248  
576.000000	31.842289  
576.500000	32.613931  
577.000000	33.190107  
577.500000	33.900970  
578.000000	34.738128  
578.500000	35.503142  
579.000000	36.397356  
579.500000	37.475337  
580.000000	38.672667  
580.500000	39.695198  
581.000000	40.383155  
581.500000	41.007558  
582.000000	41.356048  
582.500000	41.680187  
583.000000	42.133122  
583.500000	42.971259  
584.000000	44.136532  
584.500000	45.323215  
585.000000	46.608098  
585.500000	47.746213  
586.000000	48.678851  
586.500000	49.505669  
587.000000	50.506126  
587.500000	51.785816  
588.000000	53.171571  
588.500000	54.774536  
589.000000	56.338717  
589.500000	57.638183  
590.000000	58.714987  
590.500000	59.631905  
591.000000	60.660790  
591.500000	61.848307  
592.000000	63.359671  
592.500000	65.052037  
593.000000	66.879107  
593.500000	68.690051  
594.000000	70.207903  
594.500000	71.743385  
595.000000	73.312000  
595.500000	74.935185  
596.000000	76.448276  
596.500000	77.914775  
597.000000	79.504506  
597.500000	81.045966  
598.000000	82.733079  
598.500000	84.650621  
599.000000	86.638875  
599.500000	88.709430  
600.000000	90.702918  
600.500000	92.715682  
601.000000	94.634935  
601.500000	96.685647  
602.000000	98.995795  
602.500000	101.309682 
603.000000	103.542118 
603.500000	105.699820 
604.000000	107.938016 
604.500000	109.972812 
605.000000	112.107332 
605.500000	114.732679 
606.000000	117.650057 
606.500000	120.487873 
607.000000	123.416994 
607.500000	126.342781 
608.000000	128.786248 
608.500000	130.838192 
609.000000	133.096743 
609.500000	135.664465 
610.000000	138.393808 
610.500000	141.722109 
611.000000	145.249693 
611.500000	148.617630 
612.000000	151.770224 
612.500000	155.090907 
613.000000	158.387241 
613.500000	161.564866 
614.000000	165.007601 
614.500000	168.297471 
615.000000	171.257122 
615.500000	174.077361 
616.000000	177.348063 
616.500000	180.951244 
617.000000	184.521235 
617.500000	188.305706 
618.000000	192.159792 
618.500000	195.464964 
619.000000	198.653975 
619.500000	202.161599 
620.000000	206.179836 
620.500000	210.513508 
621.000000	214.830263 
621.500000	219.445935 
622.000000	223.726628 
622.500000	227.715257 
623.000000	231.183554 
623.500000	234.502152 
624.000000	237.815617 
624.500000	241.070729 
625.000000	244.565356 
625.500000	247.977421 
626.000000	251.850769 
626.500000	255.701168 
627.000000	259.479211 
627.500000	262.917146 
628.000000	266.436361 
628.500000	269.974337 
629.000000	273.330165 
629.500000	276.966768 
630.000000	280.596319 
630.500000	284.399619 
631.000000	288.214070 
631.500000	292.199962 
632.000000	296.354903 
632.500000	300.042944 
633.000000	303.570721 
633.500000	306.590682 
634.000000	309.106888 
634.500000	311.703827 
635.000000	313.801183 
635.500000	315.637458 
636.000000	317.265539 
636.500000	318.988161 
637.000000	320.597938 
637.500000	322.149003 
638.000000	324.406627 
638.500000	326.509042 
639.000000	328.611914 
639.500000	330.518682 
640.000000	332.125992 
640.500000	333.197920 
641.000000	334.268517 
641.500000	335.685311 
642.000000	336.862500 
642.500000	337.916137 
643.000000	339.082827 
643.500000	339.898883 
644.000000	340.019693 
644.500000	339.490404 
645.000000	339.064894 
645.500000	338.620964 
646.000000	338.238469 
646.500000	338.101623 
647.000000	337.845868 
647.500000	337.497025 
648.000000	336.407779 
648.500000	335.264068 
649.000000	334.192387 
649.500000	333.294198 
650.000000	332.667949 
650.500000	332.025682 
651.000000	331.461914 
651.500000	330.033198 
652.000000	327.864571 
652.500000	325.106137 
653.000000	322.461951 
653.500000	319.794949 
654.000000	317.060656 
654.500000	314.752820 
655.000000	312.515567 
655.500000	310.266339 
656.000000	307.673068 
656.500000	305.206050 
657.000000	302.449265 
657.500000	299.128153 
658.000000	295.868478 
658.500000	292.494270 
659.000000	289.281150 
659.500000	285.954725 
660.000000	282.813615 
660.500000	279.801619 
661.000000	276.383408 
661.500000	272.912296 
662.000000	269.165983 
662.500000	265.513814 
663.000000	261.284120 
663.500000	256.579170 
664.000000	251.853769 
664.500000	246.977228 
665.000000	242.022369 
665.500000	237.372795 
666.000000	233.406779 
666.500000	229.103749 
667.000000	224.286573 
667.500000	219.315294 
668.000000	214.183953 
668.500000	208.792222 
669.000000	203.928142 
669.500000	199.778081 
670.000000	195.561595 
670.500000	191.067666 
671.000000	186.493628 
671.500000	181.895512 
672.000000	177.071621 
672.500000	172.678836 
673.000000	168.702397 
673.500000	164.838048 
674.000000	160.711727 
674.500000	156.783274 
675.000000	152.681012 
675.500000	148.460532 
676.000000	144.365283 
676.500000	140.541233 
677.000000	137.011684 
677.500000	133.249523 
678.000000	129.844090 
678.500000	126.624363 
679.000000	123.341333 
679.500000	119.828983 
680.000000	116.416471 
680.500000	113.251743 
681.000000	109.674263 
681.500000	106.155792 
682.000000	103.054710 
682.500000	100.240378 
683.000000	97.439768  
683.500000	94.798977  
684.000000	92.422155  
684.500000	89.803141  
685.000000	86.818643  
685.500000	83.975625  
686.000000	81.305356  
686.500000	78.666627  
687.000000	76.304651  
687.500000	74.423408  
688.000000	72.777734  
688.500000	71.268408  
689.000000	69.712090  
689.500000	68.104747  
690.000000	66.231474  
690.500000	64.084903  
691.000000	61.860089  
691.500000	59.733758  
692.000000	57.848217  
692.500000	56.073990  
693.000000	54.436270  
693.500000	52.923764  
694.000000	51.403027  
694.500000	49.739601  
695.000000	48.207259  
695.500000	46.908057  
696.000000	45.647157  
696.500000	44.411901  
697.000000	43.234124  
697.500000	42.022332  
698.000000	40.655083  
698.500000	39.445352  
699.000000	38.514992  
699.500000	37.652387  
700.000000	36.813337  
700.500000	35.990385  
701.000000	35.113588  
701.500000	34.083000  
702.000000	33.069434  
702.500000	32.204461  
703.000000	31.328447  
703.500000	30.604842  
704.000000	30.093792  
704.500000	29.590150  
705.000000	29.104066  
705.500000	28.526901  
706.000000	27.937263  
706.500000	27.211204  
707.000000	26.340680  
707.500000	25.529222  
708.000000	24.823846  
708.500000	24.285382  
709.000000	23.822738  
709.500000	23.419782  
710.000000	22.993029  
710.500000	22.368842  
711.000000	21.677794  
711.500000	20.988701  
712.000000	20.404931  
712.500000	19.821940  
713.000000	19.385367  
713.500000	19.144556  
714.000000	18.887554  
714.500000	18.678361  
715.000000	18.436302  
715.500000	18.173853  
716.000000	17.752194  
716.500000	17.321469  
717.000000	16.910211  
717.500000	16.430153  
718.000000	16.034257  
718.500000	15.670428  
719.000000	15.335089  
719.500000	14.986745  
720.000000	14.750161  
720.500000	14.621701  
721.000000	14.484964  
721.500000	14.344825  
722.000000	14.180695  
722.500000	13.911938  
723.000000	13.536538  
723.500000	13.160695  
724.000000	12.850055  
724.500000	12.532443  
725.000000	12.257150  
725.500000	12.063643  
726.000000	11.882246  
726.500000	11.676152  
727.000000	11.465897  
727.500000	11.313434  
728.000000	11.104873  
728.500000	10.931269  
729.000000	10.720619  
729.500000	10.477866  
730.000000	10.287897  
730.500000	10.053463  
731.000000	9.900521   
731.500000	9.770883   
732.000000	9.756597   
732.500000	9.759178   
733.000000	9.733532   
733.500000	9.713003   
734.000000	9.544487   
734.500000	9.321769   
735.000000	9.095601   
735.500000	8.941398   
736.000000	8.825222   
736.500000	8.738116   
737.000000	8.726064   
737.500000	8.617920   
738.000000	8.402202   
738.500000	8.093250   
739.000000	7.783358   
739.500000	7.500660   
740.000000	7.291888   
740.500000	7.230703   
741.000000	7.214198   
741.500000	7.204606   
742.000000	7.151365   
742.500000	7.115094   
743.000000	7.050933   
743.500000	6.955745   
744.000000	6.927046   
744.500000	6.832910   
745.000000	6.758797   
745.500000	6.650903   
746.000000	6.577426   
746.500000	6.477022   
747.000000	6.390884   
747.500000	6.343799   
748.000000	6.234133   
748.500000	6.118528   
749.000000	6.026621   
749.500000	5.962525   
750.000000	5.903792   
750.500000	5.864825   
751.000000	5.827384   
751.500000	5.696712   
752.000000	5.491165   
752.500000	5.306289   
753.000000	5.108367   
753.500000	4.952686   
754.000000	4.855044   
754.500000	4.793701   
755.000000	4.786519   
755.500000	4.787287   
756.000000	4.824339   
756.500000	4.899591   
757.000000	5.029690   
757.500000	5.123647   
758.000000	5.121684   
758.500000	5.052558   
759.000000	4.998350   
759.500000	4.885207   
760.000000	4.829662   
760.500000	4.917662   
761.000000	5.076528   
761.500000	5.176458   
762.000000	5.193695   
762.500000	5.235996   
763.000000	5.167050   
763.500000	5.063313   
764.000000	4.987871   
764.500000	4.912871   
765.000000	4.856272   
765.500000	4.748330   
766.000000	4.643831   
766.500000	4.536701   
767.000000	4.476367   
767.500000	4.466328   
768.000000	4.427504   
768.500000	4.465220   
769.000000	4.428690   
769.500000	4.311387   
770.000000	4.181400   
770.500000	4.032404   
771.000000	3.948662   
771.500000	3.844551   
772.000000	3.854957   
772.500000	3.871621   
773.000000	3.814651   
773.500000	3.779033   
774.000000	3.695432   
774.500000	3.629031   
775.000000	3.558215   
775.500000	3.547810   
776.000000	3.553782   
776.500000	3.525146   
777.000000	3.529074   
777.500000	3.519803   
778.000000	3.502337   
778.500000	3.481962   
779.000000	3.491411   
779.500000	3.491933   
780.000000	3.444679   
780.500000	3.381174   
781.000000	3.344526   
781.500000	3.308172   
782.000000	3.232456   
782.500000	3.232218   
783.000000	3.247478   
783.500000	3.238339   
784.000000	3.237846   
784.500000	3.242085   
785.000000	3.251864   
785.500000	3.212664   
786.000000	3.204643   
786.500000	3.232404   
787.000000	3.199740   
787.500000	3.143871   
788.000000	3.083337   
788.500000	3.008371   
789.000000	2.920267   
789.500000	2.848705   
790.000000	2.834003   
790.500000	2.827456   
791.000000	2.839400   
791.500000	2.853254   
792.000000	2.843677   
792.500000	2.812471   
793.000000	2.753220   
793.500000	2.698673   
794.000000	2.672027   
794.500000	2.664953   
795.000000	2.693307   
795.500000	2.737935   
796.000000	2.761124   
796.500000	2.751282   
797.000000	2.677291   
797.500000	2.578226   
798.000000	2.471033   
798.500000	2.422998   
799.000000	2.448677   
799.500000	2.490643   
800.000000	2.526128   
800.500000	2.515886   
801.000000	2.462081   
801.500000	2.386118   
802.000000	2.376680   
802.500000	2.388858   
803.000000	2.414068   
803.500000	2.473552   
804.000000	2.490740   
804.500000	2.439669   
805.000000	2.403105   
805.500000	2.410584   
806.000000	2.337721   
806.500000	2.244469   
807.000000	2.165625   
807.500000	2.023834   
808.000000	1.831495   
808.500000	1.724059   
809.000000	1.742591   
809.500000	1.764432   
810.000000	1.826035   
810.500000	1.933935   
811.000000	1.990745   
811.500000	1.987239   
812.000000	2.010476   
812.500000	2.061962   
813.000000	2.038443   
813.500000	1.999142   
814.000000	1.944103   
814.500000	1.862901   
815.000000	1.757395   
815.500000	1.723423   
816.000000	1.784397   
816.500000	1.818641   
817.000000	1.877771   
817.500000	1.907074   
818.000000	1.939916   
818.500000	1.872673   
819.000000	1.832499   
819.500000	1.900348   
820.000000	1.945499   
820.500000	2.021094   
821.000000	2.104126   
821.500000	2.258858   
822.000000	2.333087   
822.500000	2.411161   
823.000000	2.547159   
823.500000	2.666792   
824.000000	2.764827   
824.500000	2.807879   
825.000000	2.839894   
825.500000	2.797050   
826.000000	2.683810   
826.500000	2.544775   
827.000000	2.413350   
827.500000	2.324868   
828.000000	2.246916   
828.500000	2.130936   
829.000000	2.015873   
829.500000	1.875875   
830.000000	1.730057   
830.500000	1.572107   
831.000000	1.469113   
831.500000	1.438961   
832.000000	1.386083   
832.500000	1.323118   
833.000000	1.249912   
833.500000	1.199280   
834.000000	1.164408   
834.500000	1.145614   
835.000000	1.175562   
835.500000	1.213155   
836.000000	1.197935   
836.500000	1.156562   
837.000000	1.091168   
837.500000	1.039473   
838.000000	0.983259   
838.500000	0.959608   
839.000000	0.959959   
839.500000	0.933278   
840.000000	0.913495   
840.500000	0.855862   
841.000000	0.788443   
841.500000	0.692313   
842.000000	0.614133   
842.500000	0.557562   
843.000000	0.509771   
843.500000	0.499897   
844.000000	0.518751   
844.500000	0.560716   
845.000000	0.589115   
845.500000	0.605024   
846.000000	0.616209   
846.500000	0.602179   
847.000000	0.569033   
847.500000	0.515727   
848.000000	0.472202   
848.500000	0.414736   
849.000000	0.330306   
849.500000	0.255358   
850.000000	0.190473   
850.500000	0.142159   
851.000000	0.069320   
851.500000	0.009551   
852.000000	-0.031985  
852.500000	-0.055491  
853.000000	-0.043870  
853.500000	0.013545   
854.000000	0.131339   
854.500000	0.219384   
855.000000	0.274137   
855.500000	0.276905   
856.000000	0.244871   
856.500000	0.172593   
857.000000	0.088037   
857.500000	0.046766   
858.000000	0.051374   
858.500000	0.054962   
859.000000	0.040903   
859.500000	0.034359   
860.000000	0.025551   
860.500000	-0.008708  
861.000000	-0.038523  
861.500000	-0.029419  
862.000000	-0.003090  
862.500000	-0.007684  
863.000000	-0.004224  
863.500000	0.019439   
864.000000	0.023818   
864.500000	0.008966   
865.000000	0.002730   
865.500000	0.024300   
866.000000	0.031172   
866.500000	0.056027   
867.000000	0.109564   
867.500000	0.153953   
868.000000	0.187528   
868.500000	0.225341   
869.000000	0.244578   
869.500000	0.210228   
870.000000	0.149027   
870.500000	0.080987   
871.000000	0.005667   
871.500000	-0.082632  
872.000000	-0.120365  
872.500000	-0.141784  
873.000000	-0.144100  
873.500000	-0.123018  
874.000000	-0.076157  
874.500000	-0.033677  
875.000000	-0.016710  
875.500000	0.015814   
876.000000	0.030107   
876.500000	0.035033   
877.000000	0.022215   
877.500000	0.013602   
878.000000	0.007131   
878.500000	0.007679   
879.000000	0.021756   
879.500000	0.034549   
880.000000	0.033703   
880.500000	-0.005892  
881.000000	-0.034142  
881.500000	-0.045508  
882.000000	-0.053892  
882.500000	-0.048873  
883.000000	-0.060628  
883.500000	-0.068324  
884.000000	-0.107788  
884.500000	-0.173391  
885.000000	-0.208847  
885.500000	-0.219476  
886.000000	-0.176753  
886.500000	-0.146888  
887.000000	-0.110391  
887.500000	-0.100489  
888.000000	-0.122679  
888.500000	-0.142667  
889.000000	-0.145437  
889.500000	-0.102933  
890.000000	-0.061677  
890.500000	-0.017068  
891.000000	0.010935   
891.500000	0.009705   
892.000000	-0.005662  
892.500000	-0.019669  
893.000000	-0.045371  
893.500000	-0.064391  
894.000000	-0.072098  
894.500000	-0.088727  
895.000000	-0.104536  
895.500000	-0.123400  
896.000000	-0.115994  
896.500000	-0.102873  

