PE FL                   SPECTRUM    ASCII       PEDS        1.60        
  -1
S01BA7~1.SP
24/04/11
17:21:45.00
24/04/11
17:21:45.00
Jan

896.500000
1









LS55
405.00
5.00
5.00
SCAN
1
20
100
100
0
400
0
1
0
1
5
ON
736 405 
1 0 0
#HDR
-1
-1
#GR
NM

0.00002384185791015625
0.0
450.000000
0.500000
894
8
305.470499
-0.431000
#DATA
450.000000	-0.431000  
450.500000	-0.355821  
451.000000	-0.261326  
451.500000	-0.182588  
452.000000	-0.107263  
452.500000	-0.018424  
453.000000	0.052467   
453.500000	0.101096   
454.000000	0.114820   
454.500000	0.156261   
455.000000	0.117335   
455.500000	0.081463   
456.000000	0.106606   
456.500000	0.137601   
457.000000	0.127178   
457.500000	0.096317   
458.000000	0.106899   
458.500000	0.055818   
459.000000	-0.028480  
459.500000	-0.076348  
460.000000	-0.079142  
460.500000	-0.103541  
461.000000	-0.084493  
461.500000	-0.005458  
462.000000	0.050166   
462.500000	0.077526   
463.000000	0.072233   
463.500000	0.042532   
464.000000	-0.060981  
464.500000	-0.117361  
465.000000	-0.143591  
465.500000	-0.153378  
466.000000	-0.104443  
466.500000	-0.052283  
467.000000	0.008393   
467.500000	0.027398   
468.000000	0.064512   
468.500000	0.099170   
469.000000	0.102571   
469.500000	0.125773   
470.000000	0.121332   
470.500000	0.115864   
471.000000	0.108085   
471.500000	0.091682   
472.000000	0.087237   
472.500000	0.092246   
473.000000	0.091708   
473.500000	0.057172   
474.000000	-0.004597  
474.500000	-0.027128  
475.000000	-0.048448  
475.500000	-0.028931  
476.000000	0.025105   
476.500000	0.083807   
477.000000	0.154063   
477.500000	0.204282   
478.000000	0.258940   
478.500000	0.262964   
479.000000	0.292122   
479.500000	0.289144   
480.000000	0.262181   
480.500000	0.236478   
481.000000	0.193641   
481.500000	0.147912   
482.000000	0.085322   
482.500000	0.084602   
483.000000	0.074912   
483.500000	0.098467   
484.000000	0.157259   
484.500000	0.213560   
485.000000	0.232489   
485.500000	0.236775   
486.000000	0.230601   
486.500000	0.185688   
487.000000	0.166814   
487.500000	0.186957   
488.000000	0.211252   
488.500000	0.182901   
489.000000	0.164857   
489.500000	0.112745   
490.000000	0.025636   
490.500000	-0.027025  
491.000000	-0.019382  
491.500000	0.025178   
492.000000	0.080747   
492.500000	0.167562   
493.000000	0.237469   
493.500000	0.274864   
494.000000	0.309137   
494.500000	0.349163   
495.000000	0.355985   
495.500000	0.360270   
496.000000	0.360901   
496.500000	0.343491   
497.000000	0.306580   
497.500000	0.299636   
498.000000	0.341311   
498.500000	0.423827   
499.000000	0.533298   
499.500000	0.647708   
500.000000	0.731059   
500.500000	0.770864   
501.000000	0.753484   
501.500000	0.707543   
502.000000	0.678988   
502.500000	0.670810   
503.000000	0.699936   
503.500000	0.765059   
504.000000	0.859417   
504.500000	0.922170   
505.000000	0.929608   
505.500000	0.917510   
506.000000	0.880510   
506.500000	0.868910   
507.000000	0.877899   
507.500000	0.935024   
508.000000	1.018001   
508.500000	1.069131   
509.000000	1.087322   
509.500000	1.037497   
510.000000	0.981417   
510.500000	0.938916   
511.000000	0.924805   
511.500000	1.023643   
512.000000	1.197265   
512.500000	1.441447   
513.000000	1.706892   
513.500000	1.932456   
514.000000	2.120697   
514.500000	2.209410   
515.000000	2.237851   
515.500000	2.187816   
516.000000	2.114270   
516.500000	2.100447   
517.000000	2.073846   
517.500000	2.109764   
518.000000	2.216018   
518.500000	2.337556   
519.000000	2.452385   
519.500000	2.553575   
520.000000	2.690641   
520.500000	2.776372   
521.000000	2.807547   
521.500000	2.860411   
522.000000	2.865764   
522.500000	2.871456   
523.000000	2.887263   
523.500000	2.945647   
524.000000	3.038441   
524.500000	3.107820   
525.000000	3.186448   
525.500000	3.233504   
526.000000	3.325742   
526.500000	3.478573   
527.000000	3.724981   
527.500000	4.063096   
528.000000	4.451536   
528.500000	4.826211   
529.000000	5.116632   
529.500000	5.312714   
530.000000	5.422827   
530.500000	5.538961   
531.000000	5.643610   
531.500000	5.842628   
532.000000	6.098222   
532.500000	6.445063   
533.000000	6.750857   
533.500000	6.981910   
534.000000	7.223914   
534.500000	7.375269   
535.000000	7.547239   
535.500000	7.771100   
536.000000	8.127766   
536.500000	8.537764   
537.000000	8.945454   
537.500000	9.399504   
538.000000	9.742018   
538.500000	10.059133  
539.000000	10.388853  
539.500000	10.740139  
540.000000	11.115564  
540.500000	11.432016  
541.000000	11.728009  
541.500000	11.926419  
542.000000	11.984257  
542.500000	12.009007  
543.000000	12.000215  
543.500000	12.020517  
544.000000	12.028445  
544.500000	12.072493  
545.000000	12.116575  
545.500000	12.065784  
546.000000	11.941625  
546.500000	11.773306  
547.000000	11.632176  
547.500000	11.488777  
548.000000	11.335821  
548.500000	11.165543  
549.000000	10.975593  
549.500000	10.713306  
550.000000	10.413742  
550.500000	10.118170  
551.000000	9.873940   
551.500000	9.755128   
552.000000	9.715304   
552.500000	9.860719   
553.000000	9.979781   
553.500000	10.072439  
554.000000	10.179311  
554.500000	10.339864  
555.000000	10.580977  
555.500000	10.815333  
556.000000	11.219430  
556.500000	11.525513  
557.000000	11.747764  
557.500000	11.905820  
558.000000	12.049515  
558.500000	12.294912  
559.000000	12.670270  
559.500000	13.242146  
560.000000	13.759053  
560.500000	14.114671  
561.000000	14.369256  
561.500000	14.530248  
562.000000	14.662489  
562.500000	14.938515  
563.000000	15.546358  
563.500000	16.229721  
564.000000	16.854445  
564.500000	17.562777  
565.000000	18.149172  
565.500000	18.552608  
566.000000	18.907575  
566.500000	19.470877  
567.000000	20.202584  
567.500000	20.901367  
568.000000	21.727584  
568.500000	22.520625  
569.000000	23.172005  
569.500000	23.643007  
570.000000	24.077061  
570.500000	24.542367  
571.000000	25.109424  
571.500000	25.808369  
572.000000	26.541174  
572.500000	27.214092  
573.000000	27.805782  
573.500000	28.144115  
574.000000	28.403695  
574.500000	28.837228  
575.000000	29.410146  
575.500000	30.194183  
576.000000	31.200953  
576.500000	32.306500  
577.000000	33.277259  
577.500000	34.170875  
578.000000	34.994011  
578.500000	35.751461  
579.000000	36.414135  
579.500000	37.065864  
580.000000	37.826972  
580.500000	38.480788  
581.000000	39.389285  
581.500000	40.507179  
582.000000	41.852170  
582.500000	43.150129  
583.000000	44.377877  
583.500000	45.469513  
584.000000	46.232740  
584.500000	47.017662  
585.000000	47.881166  
585.500000	48.953051  
586.000000	50.045651  
586.500000	51.200092  
587.000000	52.448964  
587.500000	53.622593  
588.000000	54.798012  
588.500000	56.125170  
589.000000	57.690480  
589.500000	59.216599  
590.000000	60.777886  
590.500000	62.368821  
591.000000	63.752059  
591.500000	64.883168  
592.000000	65.995545  
592.500000	67.494428  
593.000000	69.300137  
593.500000	71.347458  
594.000000	73.803617  
594.500000	76.173708  
595.000000	78.060699  
595.500000	79.422669  
596.000000	80.479933  
596.500000	81.350790  
597.000000	82.207231  
597.500000	83.649304  
598.000000	85.589426  
598.500000	87.888684  
599.000000	90.431593  
599.500000	93.078319  
600.000000	95.615977  
600.500000	97.888040  
601.000000	100.049426 
601.500000	102.159161 
602.000000	104.180584 
602.500000	106.359471 
603.000000	108.819326 
603.500000	111.280933 
604.000000	113.789858 
604.500000	116.056849 
605.000000	118.417627 
605.500000	120.738289 
606.000000	123.032656 
606.500000	125.860578 
607.000000	128.761020 
607.500000	131.757120 
608.000000	134.420614 
608.500000	136.995565 
609.000000	139.367307 
609.500000	141.279875 
610.000000	143.669905 
610.500000	146.456582 
611.000000	149.581350 
611.500000	153.012348 
612.000000	156.837730 
612.500000	160.685645 
613.000000	164.319743 
613.500000	167.870844 
614.000000	171.449079 
614.500000	174.784231 
615.000000	178.030580 
615.500000	181.333719 
616.000000	184.381400 
616.500000	187.471641 
617.000000	190.306072 
617.500000	193.393031 
618.000000	196.545426 
618.500000	199.676775 
619.000000	203.248497 
619.500000	206.885638 
620.000000	210.732478 
620.500000	214.160107 
621.000000	217.606786 
621.500000	221.024298 
622.000000	224.056397 
622.500000	227.288081 
623.000000	230.357567 
623.500000	233.449525 
624.000000	236.203814 
624.500000	239.057961 
625.000000	242.154448 
625.500000	245.054486 
626.000000	248.442760 
626.500000	251.846970 
627.000000	255.396628 
627.500000	258.636816 
628.000000	261.727814 
628.500000	264.575179 
629.000000	266.880263 
629.500000	269.355625 
630.000000	271.813951 
630.500000	274.454768 
631.000000	277.185504 
631.500000	280.041983 
632.000000	283.168113 
632.500000	286.015888 
633.000000	288.405614 
633.500000	290.330473 
634.000000	291.984922 
634.500000	293.434567 
635.000000	294.397243 
635.500000	295.557990 
636.000000	296.809840 
636.500000	297.933573 
637.000000	299.093784 
637.500000	300.439465 
638.000000	302.190640 
638.500000	303.321903 
639.000000	304.302435 
639.500000	305.104825 
640.000000	305.470499 
640.500000	305.365708 
641.000000	305.071432 
641.500000	305.021829 
642.000000	304.793320 
642.500000	304.495447 
643.000000	304.274435 
643.500000	303.836996 
644.000000	303.372692 
644.500000	302.652270 
645.000000	302.174996 
645.500000	301.559480 
646.000000	300.589580 
646.500000	299.436048 
647.000000	297.918302 
647.500000	296.269612 
648.000000	294.274020 
648.500000	292.569471 
649.000000	290.873851 
649.500000	289.132261 
650.000000	287.418046 
650.500000	285.126909 
651.000000	282.663992 
651.500000	279.939179 
652.000000	277.329766 
652.500000	274.796654 
653.000000	272.313847 
653.500000	270.258788 
654.000000	267.734604 
654.500000	264.767589 
655.000000	261.761975 
655.500000	258.465380 
656.000000	254.769506 
656.500000	250.665287 
657.000000	246.966354 
657.500000	243.109081 
658.000000	238.850432 
658.500000	234.637907 
659.000000	230.602961 
659.500000	226.800256 
660.000000	222.870764 
660.500000	219.347183 
661.000000	216.139022 
661.500000	212.778241 
662.000000	209.185654 
662.500000	205.348487 
663.000000	200.917324 
663.500000	195.845729 
664.000000	190.594923 
664.500000	185.552990 
665.000000	180.693402 
665.500000	176.161556 
666.000000	172.084417 
666.500000	168.205328 
667.000000	164.443252 
667.500000	160.743122 
668.000000	157.319717 
668.500000	153.853363 
669.000000	150.412122 
669.500000	146.966543 
670.000000	143.064471 
670.500000	138.810087 
671.000000	134.055237 
671.500000	129.319434 
672.000000	124.912814 
672.500000	121.035723 
673.000000	117.713797 
673.500000	114.735506 
674.000000	112.237686 
674.500000	109.960705 
675.000000	107.615944 
675.500000	105.087938 
676.000000	102.456257 
676.500000	99.561983  
677.000000	96.437534  
677.500000	93.275749  
678.000000	90.235402  
678.500000	87.138463  
679.000000	84.173855  
679.500000	81.528315  
680.000000	79.178838  
680.500000	77.065641  
681.000000	75.253879  
681.500000	73.679857  
682.000000	72.028276  
682.500000	70.207261  
683.000000	68.171768  
683.500000	65.839269  
684.000000	63.336836  
684.500000	60.829844  
685.000000	58.654784  
685.500000	56.686092  
686.000000	55.033447  
686.500000	53.819189  
687.000000	52.758124  
687.500000	51.890844  
688.000000	50.936918  
688.500000	49.858846  
689.000000	48.620944  
689.500000	47.181538  
690.000000	45.730198  
690.500000	44.188528  
691.000000	42.703907  
691.500000	41.236515  
692.000000	39.756549  
692.500000	38.380946  
693.000000	37.198513  
693.500000	36.164469  
694.000000	35.229274  
694.500000	34.396406  
695.000000	33.799758  
695.500000	33.110231  
696.000000	32.305051  
696.500000	31.556491  
697.000000	30.642966  
697.500000	29.631910  
698.000000	28.655699  
698.500000	27.870053  
699.000000	27.159855  
699.500000	26.521858  
700.000000	26.048801  
700.500000	25.471423  
701.000000	24.794018  
701.500000	24.060970  
702.000000	23.311209  
702.500000	22.497896  
703.000000	21.815936  
703.500000	21.388480  
704.000000	21.021612  
704.500000	20.773756  
705.000000	20.571812  
705.500000	20.280183  
706.000000	19.782641  
706.500000	19.248031  
707.000000	18.633693  
707.500000	17.949231  
708.000000	17.408361  
708.500000	16.971803  
709.000000	16.514185  
709.500000	16.078111  
710.000000	15.772235  
710.500000	15.473322  
711.000000	15.150350  
711.500000	15.005703  
712.000000	14.974291  
712.500000	14.836582  
713.000000	14.616176  
713.500000	14.414259  
714.000000	14.170389  
714.500000	13.798474  
715.000000	13.598855  
715.500000	13.508619  
716.000000	13.424686  
716.500000	13.361187  
717.000000	13.294758  
717.500000	13.170539  
718.000000	12.827951  
718.500000	12.514682  
719.000000	12.144044  
719.500000	11.772699  
720.000000	11.458276  
720.500000	11.156970  
721.000000	10.891823  
721.500000	10.598213  
722.000000	10.375794  
722.500000	10.170139  
723.000000	9.945814   
723.500000	9.836708   
724.000000	9.772586   
724.500000	9.676851   
725.000000	9.624291   
725.500000	9.624272   
726.000000	9.616743   
726.500000	9.562371   
727.000000	9.408779   
727.500000	9.249922   
728.000000	8.975812   
728.500000	8.660985   
729.000000	8.324408   
729.500000	8.004159   
730.000000	7.801788   
730.500000	7.658866   
731.000000	7.632957   
731.500000	7.647096   
732.000000	7.654627   
732.500000	7.665333   
733.000000	7.545000   
733.500000	7.456230   
734.000000	7.435576   
734.500000	7.413894   
735.000000	7.430985   
735.500000	7.402664   
736.000000	7.375979   
736.500000	7.284400   
737.000000	7.052695   
737.500000	6.895289   
738.000000	6.717025   
738.500000	6.645654   
739.000000	6.594749   
739.500000	6.563653   
740.000000	6.554523   
740.500000	6.462467   
741.000000	6.322222   
741.500000	6.066495   
742.000000	5.805896   
742.500000	5.657252   
743.000000	5.600840   
743.500000	5.685942   
744.000000	5.867009   
744.500000	6.072803   
745.000000	6.148077   
745.500000	6.004133   
746.000000	5.762230   
746.500000	5.527391   
747.000000	5.340369   
747.500000	5.259873   
748.000000	5.254948   
748.500000	5.325458   
749.000000	5.392617   
749.500000	5.384619   
750.000000	5.368218   
750.500000	5.267927   
751.000000	5.160569   
751.500000	5.015320   
752.000000	4.917239   
752.500000	4.928248   
753.000000	4.944768   
753.500000	5.019007   
754.000000	5.057263   
754.500000	5.031564   
755.000000	4.912033   
755.500000	4.757508   
756.000000	4.643192   
756.500000	4.538933   
757.000000	4.472686   
757.500000	4.482961   
758.000000	4.506406   
758.500000	4.498413   
759.000000	4.507317   
759.500000	4.522541   
760.000000	4.495864   
760.500000	4.360053   
761.000000	4.277714   
761.500000	4.224408   
762.000000	4.166686   
762.500000	4.184807   
763.000000	4.244614   
763.500000	4.323564   
764.000000	4.354259   
764.500000	4.411411   
765.000000	4.456044   
765.500000	4.394230   
766.000000	4.301697   
766.500000	4.145341   
767.000000	3.973588   
767.500000	3.757430   
768.000000	3.667359   
768.500000	3.712864   
769.000000	3.767903   
769.500000	3.840033   
770.000000	3.855705   
770.500000	3.874350   
771.000000	3.758257   
771.500000	3.622788   
772.000000	3.538298   
772.500000	3.488881   
773.000000	3.442727   
773.500000	3.368923   
774.000000	3.356604   
774.500000	3.314795   
775.000000	3.254925   
775.500000	3.204688   
776.000000	3.225252   
776.500000	3.274205   
777.000000	3.334116   
777.500000	3.394324   
778.000000	3.397862   
778.500000	3.369406   
779.000000	3.277545   
779.500000	3.191246   
780.000000	3.109645   
780.500000	3.073270   
781.000000	3.058823   
781.500000	3.047046   
782.000000	3.033482   
782.500000	3.005419   
783.000000	2.982200   
783.500000	2.967955   
784.000000	3.019243   
784.500000	3.073673   
785.000000	3.189873   
785.500000	3.313061   
786.000000	3.370317   
786.500000	3.360593   
787.000000	3.281742   
787.500000	3.210738   
788.000000	3.054434   
788.500000	2.956706   
789.000000	2.908471   
789.500000	2.864231   
790.000000	2.834736   
790.500000	2.769055   
791.000000	2.727038   
791.500000	2.625530   
792.000000	2.576391   
792.500000	2.585324   
793.000000	2.621688   
793.500000	2.732205   
794.000000	2.814493   
794.500000	2.863291   
795.000000	2.863920   
795.500000	2.883046   
796.000000	2.841059   
796.500000	2.737218   
797.000000	2.689369   
797.500000	2.601589   
798.000000	2.470827   
798.500000	2.337241   
799.000000	2.283280   
799.500000	2.229257   
800.000000	2.170356   
800.500000	2.123100   
801.000000	2.102261   
801.500000	2.059241   
802.000000	2.010612   
802.500000	2.044703   
803.000000	2.094445   
803.500000	2.181120   
804.000000	2.231987   
804.500000	2.301473   
805.000000	2.312382   
805.500000	2.244829   
806.000000	2.149367   
806.500000	2.012567   
807.000000	1.964369   
807.500000	1.927196   
808.000000	1.993233   
808.500000	2.143089   
809.000000	2.275786   
809.500000	2.344348   
810.000000	2.274890   
810.500000	2.093233   
811.000000	1.851981   
811.500000	1.643192   
812.000000	1.555380   
812.500000	1.532426   
813.000000	1.632712   
813.500000	1.777517   
814.000000	1.880447   
814.500000	1.966823   
815.000000	2.019899   
815.500000	2.084198   
816.000000	2.051369   
816.500000	2.011717   
817.000000	1.980000   
817.500000	1.879664   
818.000000	1.790799   
818.500000	1.730690   
819.000000	1.784797   
819.500000	1.803116   
820.000000	1.864354   
820.500000	1.937606   
821.000000	1.976619   
821.500000	2.045155   
822.000000	2.077037   
822.500000	2.162165   
823.000000	2.235918   
823.500000	2.338651   
824.000000	2.433823   
824.500000	2.496137   
825.000000	2.596842   
825.500000	2.612166   
826.000000	2.601033   
826.500000	2.481888   
827.000000	2.312400   
827.500000	2.114029   
828.000000	1.911135   
828.500000	1.800897   
829.000000	1.763282   
829.500000	1.809120   
830.000000	1.852083   
830.500000	1.840259   
831.000000	1.777267   
831.500000	1.665886   
832.000000	1.529983   
832.500000	1.389959   
833.000000	1.309977   
833.500000	1.261181   
834.000000	1.215929   
834.500000	1.149710   
835.000000	1.113428   
835.500000	1.066608   
836.000000	1.039270   
836.500000	1.048461   
837.000000	1.096103   
837.500000	1.137265   
838.000000	1.132176   
838.500000	1.087218   
839.000000	1.020638   
839.500000	0.930493   
840.000000	0.851821   
840.500000	0.808608   
841.000000	0.805025   
841.500000	0.816270   
842.000000	0.811100   
842.500000	0.792580   
843.000000	0.767495   
843.500000	0.754159   
844.000000	0.742131   
844.500000	0.703302   
845.000000	0.674862   
845.500000	0.631261   
846.000000	0.557302   
846.500000	0.503938   
847.000000	0.485751   
847.500000	0.474743   
848.000000	0.438871   
848.500000	0.422265   
849.000000	0.418103   
849.500000	0.377951   
850.000000	0.343482   
850.500000	0.339324   
851.000000	0.318632   
851.500000	0.257269   
852.000000	0.192833   
852.500000	0.117393   
853.000000	0.028834   
853.500000	-0.033189  
854.000000	-0.045194  
854.500000	-0.023003  
855.000000	0.018319   
855.500000	0.093320   
856.000000	0.159061   
856.500000	0.224424   
857.000000	0.253025   
857.500000	0.259003   
858.000000	0.242881   
858.500000	0.210621   
859.000000	0.166580   
859.500000	0.092434   
860.000000	0.018970   
860.500000	-0.050519  
861.000000	-0.127137  
861.500000	-0.168107  
862.000000	-0.157706  
862.500000	-0.097801  
863.000000	-0.022695  
863.500000	0.047849   
864.000000	0.085035   
864.500000	0.065369   
865.000000	0.025805   
865.500000	-0.031081  
866.000000	-0.060252  
866.500000	-0.069100  
867.000000	-0.067191  
867.500000	-0.054261  
868.000000	-0.052486  
868.500000	-0.038235  
869.000000	-0.039398  
869.500000	-0.000168  
870.000000	0.047523   
870.500000	0.083805   
871.000000	0.101172   
871.500000	0.106189   
872.000000	0.102256   
872.500000	0.066191   
873.000000	0.048552   
873.500000	0.038968   
874.000000	0.028654   
874.500000	0.026884   
875.000000	0.025426   
875.500000	0.033270   
876.000000	0.027922   
876.500000	0.007615   
877.000000	-0.033927  
877.500000	-0.093864  
878.000000	-0.139218  
878.500000	-0.198389  
879.000000	-0.243525  
879.500000	-0.256358  
880.000000	-0.240667  
880.500000	-0.195064  
881.000000	-0.130966  
881.500000	-0.042749  
882.000000	0.012239   
882.500000	0.044692   
883.000000	0.029803   
883.500000	-0.032025  
884.000000	-0.072378  
884.500000	-0.078951  
885.000000	-0.065294  
885.500000	-0.044619  
886.000000	0.000526   
886.500000	0.027721   
887.000000	-0.007035  
887.500000	-0.049627  
888.000000	-0.068224  
888.500000	-0.076385  
889.000000	-0.094330  
889.500000	-0.074855  
890.000000	-0.034256  
890.500000	-0.018736  
891.000000	-0.008231  
891.500000	0.037235   
892.000000	0.086912   
892.500000	0.112510   
893.000000	0.101150   
893.500000	0.078423   
894.000000	0.026205   
894.500000	-0.047888  
895.000000	-0.095291  
895.500000	-0.109853  
896.000000	-0.078595  
896.500000	-0.057265  

