PE FL                   SPECTRUM    ASCII       PEDS        1.60        
  -1
S00BA7~1.SP
24/04/11
16:24:43.00
24/04/11
16:24:43.00
Jan

896.500000
1









LS55
405.00
5.00
5.00
SCAN
1
20
100
100
0
400
0
1
0
1
5
ON
736 405 
1 0 0
#HDR
-1
-1
#GR
NM

0.00002384185791015625
0.0
450.000000
0.500000
894
8
357.638287
-0.185391
#DATA
450.000000	0.198000   
450.500000	0.179480   
451.000000	0.188682   
451.500000	0.160658   
452.000000	0.114408   
452.500000	0.056126   
453.000000	0.005762   
453.500000	-0.038899  
454.000000	-0.069411  
454.500000	-0.040189  
455.000000	-0.011467  
455.500000	0.007829   
456.000000	0.041627   
456.500000	0.044601   
457.000000	0.054089   
457.500000	0.060259   
458.000000	0.088326   
458.500000	0.170378   
459.000000	0.244701   
459.500000	0.312500   
460.000000	0.328346   
460.500000	0.343159   
461.000000	0.310933   
461.500000	0.244671   
462.000000	0.168831   
462.500000	0.103623   
463.000000	0.019777   
463.500000	-0.047248  
464.000000	-0.043011  
464.500000	-0.030953  
465.000000	0.009719   
465.500000	0.048775   
466.000000	0.112530   
466.500000	0.120450   
467.000000	0.084888   
467.500000	0.080634   
468.000000	0.047257   
468.500000	0.029055   
469.000000	-0.002024  
469.500000	0.001072   
470.000000	0.008888   
470.500000	0.029155   
471.000000	0.073298   
471.500000	0.092183   
472.000000	0.094278   
472.500000	0.093352   
473.000000	0.082165   
473.500000	0.048894   
474.000000	0.000888   
474.500000	-0.007552  
475.000000	-0.000218  
475.500000	-0.012094  
476.000000	0.009111   
476.500000	0.070287   
477.000000	0.101230   
477.500000	0.106302   
478.000000	0.114064   
478.500000	0.136641   
479.000000	0.118487   
479.500000	0.115074   
480.000000	0.165361   
480.500000	0.222758   
481.000000	0.289376   
481.500000	0.317896   
482.000000	0.350853   
482.500000	0.345851   
483.000000	0.315150   
483.500000	0.291230   
484.000000	0.237204   
484.500000	0.207246   
485.000000	0.160144   
485.500000	0.134406   
486.000000	0.114732   
486.500000	0.117589   
487.000000	0.162302   
487.500000	0.200128   
488.000000	0.248684   
488.500000	0.290801   
489.000000	0.303788   
489.500000	0.281454   
490.000000	0.229688   
490.500000	0.204870   
491.000000	0.178452   
491.500000	0.165011   
492.000000	0.190309   
492.500000	0.210400   
493.000000	0.190153   
493.500000	0.157977   
494.000000	0.150970   
494.500000	0.166174   
495.000000	0.194421   
495.500000	0.290233   
496.000000	0.397729   
496.500000	0.445280   
497.000000	0.473513   
497.500000	0.469016   
498.000000	0.481191   
498.500000	0.502079   
499.000000	0.579367   
499.500000	0.678853   
500.000000	0.710074   
500.500000	0.706842   
501.000000	0.634732   
501.500000	0.545300   
502.000000	0.465705   
502.500000	0.460083   
503.000000	0.503037   
503.500000	0.581851   
504.000000	0.682719   
504.500000	0.749625   
505.000000	0.767230   
505.500000	0.759751   
506.000000	0.754699   
506.500000	0.736033   
507.000000	0.741085   
507.500000	0.801636   
508.000000	0.859289   
508.500000	0.893933   
509.000000	0.967283   
509.500000	1.099517   
510.000000	1.254038   
510.500000	1.394178   
511.000000	1.564504   
511.500000	1.704166   
512.000000	1.751569   
512.500000	1.753844   
513.000000	1.766667   
513.500000	1.806549   
514.000000	1.849779   
514.500000	1.915150   
515.000000	1.999686   
515.500000	2.040263   
516.000000	2.041782   
516.500000	2.049445   
517.000000	2.096447   
517.500000	2.160352   
518.000000	2.242252   
518.500000	2.332987   
519.000000	2.434178   
519.500000	2.527682   
520.000000	2.576745   
520.500000	2.619385   
521.000000	2.629953   
521.500000	2.620688   
522.000000	2.602897   
522.500000	2.623638   
523.000000	2.698946   
523.500000	2.758181   
524.000000	2.848914   
524.500000	2.913111   
525.000000	2.961502   
525.500000	3.055977   
526.000000	3.238992   
526.500000	3.504348   
527.000000	3.878502   
527.500000	4.280402   
528.000000	4.643371   
528.500000	4.922910   
529.000000	5.103612   
529.500000	5.193022   
530.000000	5.174987   
530.500000	5.171493   
531.000000	5.148578   
531.500000	5.178020   
532.000000	5.261042   
532.500000	5.415038   
533.000000	5.610708   
533.500000	5.847671   
534.000000	6.144413   
534.500000	6.377445   
535.000000	6.606812   
535.500000	6.868413   
536.000000	7.182233   
536.500000	7.514877   
537.000000	7.903662   
537.500000	8.394510   
538.000000	8.855226   
538.500000	9.342176   
539.000000	9.819441   
539.500000	10.251552  
540.000000	10.665319  
540.500000	10.977682  
541.000000	11.234493  
541.500000	11.363109  
542.000000	11.380129  
542.500000	11.305916  
543.000000	11.168790  
543.500000	11.150328  
544.000000	11.154632  
544.500000	11.243269  
545.000000	11.236307  
545.500000	11.130927  
546.000000	10.897551  
546.500000	10.563070  
547.000000	10.258276  
547.500000	10.015556  
548.000000	9.969807   
548.500000	10.108814  
549.000000	10.206380  
549.500000	10.259176  
550.000000	10.215554  
550.500000	10.085204  
551.000000	9.906319   
551.500000	9.799692   
552.000000	9.899944   
552.500000	9.997302   
553.000000	10.165105  
553.500000	10.333486  
554.000000	10.409816  
554.500000	10.493018  
555.000000	10.487992  
555.500000	10.572532  
556.000000	10.700406  
556.500000	10.888207  
557.000000	11.078792  
557.500000	11.211623  
558.000000	11.422688  
558.500000	11.628949  
559.000000	11.850410  
559.500000	12.178758  
560.000000	12.578144  
560.500000	13.026402  
561.000000	13.435760  
561.500000	13.863322  
562.000000	14.206337  
562.500000	14.510187  
563.000000	14.826940  
563.500000	15.193853  
564.000000	15.634786  
564.500000	16.129578  
565.000000	16.788319  
565.500000	17.526083  
566.000000	18.363903  
566.500000	19.215853  
567.000000	20.105846  
567.500000	20.871161  
568.000000	21.455690  
568.500000	22.004745  
569.000000	22.503807  
569.500000	22.967640  
570.000000	23.462079  
570.500000	24.249116  
571.000000	25.060311  
571.500000	25.861712  
572.000000	26.651693  
572.500000	27.566619  
573.000000	28.421814  
573.500000	29.063322  
574.000000	29.813829  
574.500000	30.478640  
575.000000	31.111170  
575.500000	31.632079  
576.000000	32.254155  
576.500000	32.974712  
577.000000	33.754294  
577.500000	34.654250  
578.000000	35.610081  
578.500000	36.628081  
579.000000	37.644814  
579.500000	38.545337  
580.000000	39.313690  
580.500000	40.153827  
581.000000	40.832033  
581.500000	41.391497  
582.000000	41.794311  
582.500000	42.498293  
583.000000	43.403374  
583.500000	44.242178  
584.000000	45.507617  
584.500000	46.812035  
585.000000	48.042029  
585.500000	48.927662  
586.000000	49.889667  
586.500000	51.170124  
587.000000	52.287575  
587.500000	53.692400  
588.000000	55.116936  
588.500000	56.442743  
589.000000	57.442367  
589.500000	58.191267  
590.000000	59.286808  
590.500000	60.249306  
591.000000	61.715530  
591.500000	63.521693  
592.000000	65.509567  
592.500000	67.634823  
593.000000	69.414654  
593.500000	71.212580  
594.000000	72.581766  
594.500000	74.050658  
595.000000	75.360170  
595.500000	76.713311  
596.000000	78.396040  
596.500000	80.069927  
597.000000	81.866554  
597.500000	83.713230  
598.000000	85.813252  
598.500000	87.786458  
599.000000	89.609907  
599.500000	91.602560  
600.000000	93.617426  
600.500000	95.564224  
601.000000	97.765667  
601.500000	100.048283 
602.000000	102.268131 
602.500000	104.193259 
603.000000	105.923040 
603.500000	107.672213 
604.000000	109.432124 
604.500000	111.624890 
605.000000	114.083627 
605.500000	116.956790 
606.000000	120.020315 
606.500000	122.947554 
607.000000	125.864756 
607.500000	128.712141 
608.000000	131.565408 
608.500000	134.526758 
609.000000	137.741827 
609.500000	141.092979 
610.000000	144.155645 
610.500000	147.565359 
611.000000	151.066920 
611.500000	154.307836 
612.000000	157.461925 
612.500000	160.699456 
613.000000	163.472090 
613.500000	165.462424 
614.000000	167.595317 
614.500000	170.001311 
615.000000	172.644448 
615.500000	176.056250 
616.000000	180.460168 
616.500000	185.508762 
617.000000	190.287717 
617.500000	195.014912 
618.000000	199.298968 
618.500000	202.771827 
619.000000	205.672658 
619.500000	208.219962 
620.000000	210.908050 
620.500000	214.023441 
621.000000	217.970987 
621.500000	222.379256 
622.000000	227.020667 
622.500000	231.619810 
623.000000	235.534094 
623.500000	239.104239 
624.000000	242.500756 
624.500000	246.071545 
625.000000	249.978463 
625.500000	254.393378 
626.000000	259.133732 
626.500000	263.597549 
627.000000	268.138645 
627.500000	272.501784 
628.000000	276.715755 
628.500000	280.625641 
629.000000	284.657413 
629.500000	288.817634 
630.000000	292.272901 
630.500000	295.787682 
631.000000	299.131040 
631.500000	302.023551 
632.000000	304.394593 
632.500000	306.892788 
633.000000	309.932096 
633.500000	313.117337 
634.000000	317.009200 
634.500000	321.179875 
635.000000	325.388012 
635.500000	328.773257 
636.000000	331.438513 
636.500000	333.553905 
637.000000	335.076228 
637.500000	336.278539 
638.000000	337.423558 
638.500000	338.979931 
639.000000	340.389434 
639.500000	341.957786 
640.000000	343.635447 
640.500000	345.949615 
641.000000	348.021777 
641.500000	350.043309 
642.000000	352.019877 
642.500000	353.480664 
643.000000	354.618671 
643.500000	354.862714 
644.000000	355.347818 
644.500000	355.355753 
645.000000	355.695697 
645.500000	355.794922 
646.000000	355.950864 
646.500000	356.753107 
647.000000	357.111927 
647.500000	357.377469 
648.000000	357.257434 
648.500000	357.638287 
649.000000	356.924638 
649.500000	355.289469 
650.000000	353.384476 
650.500000	350.981736 
651.000000	348.257918 
651.500000	345.763126 
652.000000	344.200183 
652.500000	342.494103 
653.000000	340.651252 
653.500000	338.805137 
654.000000	336.575450 
654.500000	334.473113 
655.000000	332.506081 
655.500000	331.157515 
656.000000	329.516595 
656.500000	327.385602 
657.000000	324.644641 
657.500000	320.872285 
658.000000	316.605332 
658.500000	312.361638 
659.000000	308.425211 
659.500000	304.667538 
660.000000	301.105150 
660.500000	297.637254 
661.000000	294.010497 
661.500000	290.032404 
662.000000	285.997430 
662.500000	281.885551 
663.000000	277.338645 
663.500000	272.659946 
664.000000	267.855849 
664.500000	263.042367 
665.000000	257.943339 
665.500000	253.235775 
666.000000	249.261137 
666.500000	245.185217 
667.000000	241.260109 
667.500000	237.370833 
668.000000	233.055675 
668.500000	227.976194 
669.000000	222.649556 
669.500000	217.587198 
670.000000	212.374064 
670.500000	207.266189 
671.000000	202.774840 
671.500000	198.369717 
672.000000	193.791168 
672.500000	189.336289 
673.000000	184.854469 
673.500000	180.100903 
674.000000	174.849923 
674.500000	169.938756 
675.000000	165.221680 
675.500000	160.666717 
676.000000	156.603944 
676.500000	152.859161 
677.000000	149.298345 
677.500000	145.399168 
678.000000	141.403949 
678.500000	137.130879 
679.000000	132.859949 
679.500000	128.926332 
680.000000	125.292580 
680.500000	122.057851 
681.000000	119.200990 
681.500000	116.458641 
682.000000	113.585632 
682.500000	110.474866 
683.000000	107.092658 
683.500000	103.489025 
684.000000	99.768604  
684.500000	96.241560  
685.000000	93.126465  
685.500000	90.396116  
686.000000	88.125291  
686.500000	86.059109  
687.000000	84.146326  
687.500000	82.360248  
688.000000	80.441194  
688.500000	78.419443  
689.000000	76.278089  
689.500000	74.292064  
690.000000	72.182985  
690.500000	69.992222  
691.000000	67.795031  
691.500000	65.615042  
692.000000	63.513263  
692.500000	61.322833  
693.000000	59.373122  
693.500000	57.689530  
694.000000	56.200113  
694.500000	54.612805  
695.000000	53.164345  
695.500000	51.921350  
696.000000	50.422430  
696.500000	48.986515  
697.000000	47.645365  
697.500000	46.557269  
698.000000	45.326786  
698.500000	44.170981  
699.000000	43.228161  
699.500000	42.124168  
700.000000	41.041278  
700.500000	39.840961  
701.000000	38.727296  
701.500000	37.458278  
702.000000	36.332523  
702.500000	35.362766  
703.000000	34.460526  
703.500000	33.774218  
704.000000	33.045831  
704.500000	32.299530  
705.000000	31.371116  
705.500000	30.460320  
706.000000	29.520972  
706.500000	28.591565  
707.000000	27.852168  
707.500000	27.214105  
708.000000	26.654589  
708.500000	26.067192  
709.000000	25.492543  
709.500000	24.927315  
710.000000	24.272562  
710.500000	23.642207  
711.000000	23.057688  
711.500000	22.532126  
712.000000	22.124055  
712.500000	21.760376  
713.000000	21.445914  
713.500000	21.182072  
714.000000	20.931773  
714.500000	20.588556  
715.000000	20.204113  
715.500000	19.768059  
716.000000	19.243508  
716.500000	18.580634  
717.000000	17.969699  
717.500000	17.478179  
718.000000	17.045846  
718.500000	16.752230  
719.000000	16.532894  
719.500000	16.396879  
720.000000	16.131742  
720.500000	15.780834  
721.000000	15.355831  
721.500000	14.892777  
722.000000	14.517827  
722.500000	14.175378  
723.000000	13.965868  
723.500000	13.808129  
724.000000	13.596912  
724.500000	13.288239  
725.000000	12.900109  
725.500000	12.561981  
726.000000	12.230725  
726.500000	11.954014  
727.000000	11.832725  
727.500000	11.742200  
728.000000	11.666983  
728.500000	11.553469  
729.000000	11.560515  
729.500000	11.622730  
730.000000	11.627211  
730.500000	11.606565  
731.000000	11.438087  
731.500000	11.106384  
732.000000	10.592150  
732.500000	10.048020  
733.000000	9.725307   
733.500000	9.538671   
734.000000	9.535072   
734.500000	9.662805   
735.000000	9.761801   
735.500000	9.724706   
736.000000	9.450586   
736.500000	9.133410   
737.000000	8.810066   
737.500000	8.566192   
738.000000	8.454181   
738.500000	8.442283   
739.000000	8.468287   
739.500000	8.402727   
740.000000	8.279769   
740.500000	8.111808   
741.000000	7.907523   
741.500000	7.694486   
742.000000	7.542269   
742.500000	7.406254   
743.000000	7.343662   
743.500000	7.268949   
744.000000	7.225628   
744.500000	7.152252   
745.000000	7.059680   
745.500000	7.005313   
746.000000	6.884888   
746.500000	6.810679   
747.000000	6.714191   
747.500000	6.650055   
748.000000	6.549788   
748.500000	6.386081   
749.000000	6.292341   
749.500000	6.125059   
750.000000	6.008330   
750.500000	5.914250   
751.000000	5.875944   
751.500000	5.872844   
752.000000	5.833994   
752.500000	5.903204   
753.000000	5.927274   
753.500000	5.906599   
754.000000	5.815250   
754.500000	5.653131   
755.000000	5.471547   
755.500000	5.232981   
756.000000	5.106467   
756.500000	5.011627   
757.000000	4.929816   
757.500000	4.914584   
758.000000	4.938391   
758.500000	5.003675   
759.000000	5.012109   
759.500000	5.059159   
760.000000	5.098840   
760.500000	5.033599   
761.000000	4.919805   
761.500000	4.791673   
762.000000	4.794983   
762.500000	4.759374   
763.000000	4.789610   
763.500000	4.874231   
764.000000	4.918723   
764.500000	4.885560   
765.000000	4.798261   
765.500000	4.766525   
766.000000	4.675888   
766.500000	4.545922   
767.000000	4.439805   
767.500000	4.329441   
768.000000	4.171387   
768.500000	4.054168   
769.000000	4.044838   
769.500000	4.074165   
770.000000	4.104988   
770.500000	4.138792   
771.000000	4.133604   
771.500000	4.033981   
772.000000	3.908894   
772.500000	3.789430   
773.000000	3.727066   
773.500000	3.700766   
774.000000	3.727651   
774.500000	3.781695   
775.000000	3.808228   
775.500000	3.777807   
776.000000	3.680814   
776.500000	3.549057   
777.000000	3.422423   
777.500000	3.343246   
778.000000	3.304423   
778.500000	3.299756   
779.000000	3.323779   
779.500000	3.350500   
780.000000	3.374992   
780.500000	3.390378   
781.000000	3.393803   
781.500000	3.396855   
782.000000	3.373730   
782.500000	3.328042   
783.000000	3.256576   
783.500000	3.163588   
784.000000	3.108801   
784.500000	3.100987   
785.000000	3.144703   
785.500000	3.215413   
786.000000	3.313328   
786.500000	3.406372   
787.000000	3.425241   
787.500000	3.416408   
788.000000	3.361133   
788.500000	3.297397   
789.000000	3.192582   
789.500000	3.071428   
790.000000	3.007755   
790.500000	2.935133   
791.000000	2.887417   
791.500000	2.830044   
792.000000	2.816523   
792.500000	2.822139   
793.000000	2.807233   
793.500000	2.816198   
794.000000	2.825128   
794.500000	2.837745   
795.000000	2.814862   
795.500000	2.803693   
796.000000	2.799599   
796.500000	2.775578   
797.000000	2.757523   
797.500000	2.761756   
798.000000	2.768024   
798.500000	2.748185   
799.000000	2.700283   
799.500000	2.613905   
800.000000	2.485886   
800.500000	2.323792   
801.000000	2.221079   
801.500000	2.184829   
802.000000	2.216402   
802.500000	2.330131   
803.000000	2.447823   
803.500000	2.513595   
804.000000	2.505265   
804.500000	2.419617   
805.000000	2.318576   
805.500000	2.208779   
806.000000	2.153224   
806.500000	2.104090   
807.000000	2.059569   
807.500000	2.070805   
808.000000	2.078632   
808.500000	2.090122   
809.000000	2.094886   
809.500000	2.106493   
810.000000	2.082135   
810.500000	2.037192   
811.000000	2.047899   
811.500000	2.075961   
812.000000	2.093538   
812.500000	2.149567   
813.000000	2.176205   
813.500000	2.121267   
814.000000	2.045133   
814.500000	1.961020   
815.000000	1.923398   
815.500000	1.852847   
816.000000	1.847406   
816.500000	1.884729   
817.000000	1.861591   
817.500000	1.840732   
818.000000	1.816812   
818.500000	1.811152   
819.000000	1.702920   
819.500000	1.589562   
820.000000	1.561745   
820.500000	1.584873   
821.000000	1.679601   
821.500000	1.899215   
822.000000	2.224743   
822.500000	2.496029   
823.000000	2.689755   
823.500000	2.826183   
824.000000	2.860649   
824.500000	2.777222   
825.000000	2.735495   
825.500000	2.699476   
826.000000	2.606243   
826.500000	2.508623   
827.000000	2.383840   
827.500000	2.240925   
828.000000	2.053103   
828.500000	1.956948   
829.000000	1.883144   
829.500000	1.821417   
830.000000	1.789413   
830.500000	1.760949   
831.000000	1.689282   
831.500000	1.551777   
832.000000	1.429942   
832.500000	1.300630   
833.000000	1.200649   
833.500000	1.141077   
834.000000	1.121267   
834.500000	1.111881   
835.000000	1.119285   
835.500000	1.126254   
836.000000	1.113385   
836.500000	1.120584   
837.000000	1.092844   
837.500000	1.081302   
838.000000	1.068502   
838.500000	1.034864   
839.000000	0.988654   
839.500000	0.928625   
840.000000	0.877328   
840.500000	0.810855   
841.000000	0.746571   
841.500000	0.733397   
842.000000	0.712333   
842.500000	0.724133   
843.000000	0.736888   
843.500000	0.765942   
844.000000	0.798640   
844.500000	0.793719   
845.000000	0.770858   
845.500000	0.671795   
846.000000	0.561456   
846.500000	0.409369   
847.000000	0.256927   
847.500000	0.174502   
848.000000	0.163309   
848.500000	0.207679   
849.000000	0.279714   
849.500000	0.381988   
850.000000	0.439248   
850.500000	0.432335   
851.000000	0.395764   
851.500000	0.349298   
852.000000	0.277716   
852.500000	0.196630   
853.000000	0.149647   
853.500000	0.115576   
854.000000	0.075105   
854.500000	0.052202   
855.000000	0.034810   
855.500000	0.021946   
856.000000	-0.010141  
856.500000	-0.006667  
857.000000	0.042896   
857.500000	0.101556   
858.000000	0.175050   
858.500000	0.260975   
859.000000	0.313181   
859.500000	0.288515   
860.000000	0.226606   
860.500000	0.153788   
861.000000	0.064784   
861.500000	-0.020113  
862.000000	-0.055437  
862.500000	-0.067525  
863.000000	-0.055977  
863.500000	-0.054506  
864.000000	-0.059734  
864.500000	-0.056833  
865.000000	-0.065256  
865.500000	-0.069406  
866.000000	-0.086760  
866.500000	-0.079526  
867.000000	-0.070194  
867.500000	-0.073927  
868.000000	-0.060936  
868.500000	-0.029890  
869.000000	-0.023534  
869.500000	-0.038343  
870.000000	-0.053966  
870.500000	-0.070217  
871.000000	-0.099178  
871.500000	-0.100018  
872.000000	-0.071098  
872.500000	-0.033760  
873.000000	0.024729   
873.500000	0.054719   
874.000000	0.048606   
874.500000	0.001018   
875.000000	-0.031478  
875.500000	-0.053426  
876.000000	-0.083940  
876.500000	-0.062927  
877.000000	-0.041773  
877.500000	-0.031957  
878.000000	-0.042972  
878.500000	-0.048346  
879.000000	-0.026298  
879.500000	-0.008818  
880.000000	0.033408   
880.500000	0.039025   
881.000000	0.036346   
881.500000	0.029977   
882.000000	0.012365   
882.500000	0.001816   
883.000000	0.013792   
883.500000	0.052729   
884.000000	0.041821   
884.500000	0.010033   
885.000000	0.004309   
885.500000	0.006769   
886.000000	-0.002050  
886.500000	0.000397   
887.000000	0.044452   
887.500000	0.052038   
888.000000	0.032113   
888.500000	0.016860   
889.000000	0.005814   
889.500000	-0.024536  
890.000000	-0.081743  
890.500000	-0.118593  
891.000000	-0.145936  
891.500000	-0.175376  
892.000000	-0.185391  
892.500000	-0.160578  
893.000000	-0.120246  
893.500000	-0.100988  
894.000000	-0.079345  
894.500000	-0.048103  
895.000000	-0.009595  
895.500000	0.016576   
896.000000	0.051059   
896.500000	0.096732   

