PE FL                   SPECTRUM    ASCII       PEDS        1.60        
  -1
S003BF~1.SP
24/04/11
16:54:40.00
24/04/11
16:54:40.00
Jan

896.500000
1









LS55
405.00
5.00
5.00
SCAN
1
20
100
100
0
400
0
1
0
1
5
ON
736 405 
1 0 0
#HDR
-1
-1
#GR
NM

0.00002384185791015625
0.0
450.000000
0.500000
894
8
324.457679
-0.146818
#DATA
450.000000	0.068000   
450.500000	0.093198   
451.000000	0.091508   
451.500000	0.032385   
452.000000	0.002623   
452.500000	-0.057875  
453.000000	-0.078858  
453.500000	-0.039120  
454.000000	0.029252   
454.500000	0.106252   
455.000000	0.124179   
455.500000	0.108764   
456.000000	0.053903   
456.500000	-0.022027  
457.000000	-0.040044  
457.500000	-0.033153  
458.000000	-0.008669  
458.500000	0.018979   
459.000000	0.006948   
459.500000	-0.052317  
460.000000	-0.146818  
460.500000	-0.145693  
461.000000	-0.090476  
461.500000	-0.010994  
462.000000	0.068803   
462.500000	0.110293   
463.000000	0.099740   
463.500000	0.011113   
464.000000	-0.062380  
464.500000	-0.102345  
465.000000	-0.083658  
465.500000	-0.026163  
466.000000	0.056454   
466.500000	0.149504   
467.000000	0.227363   
467.500000	0.254634   
468.000000	0.232491   
468.500000	0.201391   
469.000000	0.167350   
469.500000	0.133380   
470.000000	0.138103   
470.500000	0.194415   
471.000000	0.247998   
471.500000	0.251439   
472.000000	0.206166   
472.500000	0.122543   
473.000000	0.067751   
473.500000	0.064608   
474.000000	0.115708   
474.500000	0.221435   
475.000000	0.310066   
475.500000	0.329716   
476.000000	0.259022   
476.500000	0.138226   
477.000000	0.051076   
477.500000	0.005730   
478.000000	0.064209   
478.500000	0.181510   
479.000000	0.294853   
479.500000	0.316593   
480.000000	0.225215   
480.500000	0.111599   
481.000000	0.000139   
481.500000	-0.078866  
482.000000	-0.091851  
482.500000	-0.052098  
483.000000	0.002994   
483.500000	0.006743   
484.000000	0.021601   
484.500000	0.059656   
485.000000	0.082523   
485.500000	0.097222   
486.000000	0.138836   
486.500000	0.147215   
487.000000	0.099949   
487.500000	0.037085   
488.000000	-0.001753  
488.500000	-0.056376  
489.000000	-0.084434  
489.500000	-0.026341  
490.000000	0.062961   
490.500000	0.160074   
491.000000	0.274064   
491.500000	0.396729   
492.000000	0.430081   
492.500000	0.376202   
493.000000	0.324619   
493.500000	0.281983   
494.000000	0.236552   
494.500000	0.230064   
495.000000	0.313551   
495.500000	0.380126   
496.000000	0.377100   
496.500000	0.322300   
497.000000	0.246740   
497.500000	0.172530   
498.000000	0.141781   
498.500000	0.201914   
499.000000	0.355651   
499.500000	0.533293   
500.000000	0.656949   
500.500000	0.719276   
501.000000	0.727736   
501.500000	0.695072   
502.000000	0.638987   
502.500000	0.633840   
503.000000	0.685727   
503.500000	0.727517   
504.000000	0.759168   
504.500000	0.771988   
505.000000	0.777139   
505.500000	0.763886   
506.000000	0.779729   
506.500000	0.851486   
507.000000	0.938018   
507.500000	1.026359   
508.000000	1.115710   
508.500000	1.153246   
509.000000	1.138155   
509.500000	1.083421   
510.000000	1.048589   
510.500000	1.001027   
511.000000	0.979322   
511.500000	1.011710   
512.000000	1.057871   
512.500000	1.170332   
513.000000	1.309089   
513.500000	1.520751   
514.000000	1.691829   
514.500000	1.831085   
515.000000	1.939435   
515.500000	1.992085   
516.000000	2.041923   
516.500000	2.077027   
517.000000	2.177217   
517.500000	2.276029   
518.000000	2.417038   
518.500000	2.546100   
519.000000	2.628330   
519.500000	2.704877   
520.000000	2.743701   
520.500000	2.769712   
521.000000	2.774686   
521.500000	2.820905   
522.000000	2.870758   
522.500000	2.932115   
523.000000	3.025450   
523.500000	3.110892   
524.000000	3.161786   
524.500000	3.149259   
525.000000	3.148150   
525.500000	3.180135   
526.000000	3.214217   
526.500000	3.311040   
527.000000	3.400667   
527.500000	3.539315   
528.000000	3.705478   
528.500000	3.924432   
529.000000	4.172463   
529.500000	4.400038   
530.000000	4.641799   
530.500000	4.830423   
531.000000	4.980384   
531.500000	5.141647   
532.000000	5.310000   
532.500000	5.489916   
533.000000	5.679076   
533.500000	5.937430   
534.000000	6.255612   
534.500000	6.491684   
535.000000	6.917066   
535.500000	7.401241   
536.000000	7.888159   
536.500000	8.334530   
537.000000	8.711244   
537.500000	9.106714   
538.000000	9.327946   
538.500000	9.716038   
539.000000	10.100588  
539.500000	10.469966  
540.000000	10.781382  
540.500000	11.038821  
541.000000	11.294048  
541.500000	11.418797  
542.000000	11.633497  
542.500000	11.834085  
543.000000	12.039031  
543.500000	12.202486  
544.000000	12.216827  
544.500000	12.031640  
545.000000	11.760534  
545.500000	11.461987  
546.000000	11.133528  
546.500000	10.805649  
547.000000	10.622732  
547.500000	10.487962  
548.000000	10.283480  
548.500000	10.119044  
549.000000	9.979896   
549.500000	9.908692   
550.000000	9.859105   
550.500000	9.958185   
551.000000	10.090938  
551.500000	10.136181  
552.000000	10.131858  
552.500000	9.992625   
553.000000	9.831695   
553.500000	9.646923   
554.000000	9.566534   
554.500000	9.630717   
555.000000	9.860467   
555.500000	10.343348  
556.000000	10.853482  
556.500000	11.314510  
557.000000	11.705990  
557.500000	11.913235  
558.000000	11.885588  
558.500000	11.764834  
559.000000	11.780909  
559.500000	11.950730  
560.000000	12.288816  
560.500000	12.838864  
561.000000	13.409250  
561.500000	13.847237  
562.000000	14.205452  
562.500000	14.501931  
563.000000	14.845280  
563.500000	15.222491  
564.000000	15.742092  
564.500000	16.375686  
565.000000	16.916309  
565.500000	17.451116  
566.000000	17.929317  
566.500000	18.434675  
567.000000	19.000593  
567.500000	19.629610  
568.000000	20.457651  
568.500000	21.327679  
569.000000	22.127166  
569.500000	22.820497  
570.000000	23.436371  
570.500000	24.021461  
571.000000	24.486400  
571.500000	25.058460  
572.000000	25.764602  
572.500000	26.364625  
573.000000	26.947855  
573.500000	27.507925  
574.000000	28.114959  
574.500000	28.753805  
575.000000	29.535092  
575.500000	30.540710  
576.000000	31.518946  
576.500000	32.482241  
577.000000	33.250218  
577.500000	33.761734  
578.000000	34.055339  
578.500000	34.184599  
579.000000	34.357549  
579.500000	34.597046  
580.000000	35.161196  
580.500000	36.109886  
581.000000	37.227654  
581.500000	38.543764  
582.000000	39.775914  
582.500000	40.950469  
583.000000	41.937270  
583.500000	42.816875  
584.000000	43.734966  
584.500000	44.619139  
585.000000	45.730673  
585.500000	46.868740  
586.000000	48.194304  
586.500000	49.818614  
587.000000	51.521961  
587.500000	53.374478  
588.000000	55.073569  
588.500000	56.509899  
589.000000	57.603562  
589.500000	58.259307  
590.000000	58.959285  
590.500000	59.775677  
591.000000	60.893636  
591.500000	62.332259  
592.000000	63.783269  
592.500000	65.528539  
593.000000	66.898582  
593.500000	68.183515  
594.000000	69.577769  
594.500000	70.996710  
595.000000	72.655894  
595.500000	74.186905  
596.000000	76.127196  
596.500000	77.882929  
597.000000	79.644833  
597.500000	81.758595  
598.000000	83.870621  
598.500000	86.130133  
599.000000	88.127775  
599.500000	90.123907  
600.000000	91.869927  
600.500000	93.434692  
601.000000	95.263469  
601.500000	97.156063  
602.000000	99.332610  
602.500000	101.727235 
603.000000	104.169890 
603.500000	106.610391 
604.000000	108.813586 
604.500000	110.968257 
605.000000	113.144155 
605.500000	115.322159 
606.000000	117.796332 
606.500000	120.320983 
607.000000	123.274734 
607.500000	126.343116 
608.000000	129.356842 
608.500000	132.363269 
609.000000	135.322849 
609.500000	138.546319 
610.000000	141.721833 
610.500000	144.749027 
611.000000	147.792165 
611.500000	150.742116 
612.000000	153.256816 
612.500000	155.799413 
613.000000	158.613719 
613.500000	161.772849 
614.000000	164.917851 
614.500000	168.303038 
615.000000	172.258020 
615.500000	175.986931 
616.000000	179.852217 
616.500000	183.754235 
617.000000	187.505994 
617.500000	190.739068 
618.000000	193.247929 
618.500000	195.676918 
619.000000	198.019445 
619.500000	200.688269 
620.000000	204.124115 
620.500000	208.134840 
621.000000	212.412131 
621.500000	216.368873 
622.000000	219.904751 
622.500000	223.263233 
623.000000	226.317959 
623.500000	229.370549 
624.000000	233.040274 
624.500000	237.107773 
625.000000	241.276938 
625.500000	245.237029 
626.000000	249.273439 
626.500000	253.484719 
627.000000	257.002183 
627.500000	260.481640 
628.000000	263.800673 
628.500000	266.790742 
629.000000	269.669931 
629.500000	272.552395 
630.000000	276.239946 
630.500000	279.837051 
631.000000	283.660749 
631.500000	287.534866 
632.000000	290.651998 
632.500000	293.615990 
633.000000	295.846994 
633.500000	297.979332 
634.000000	299.965484 
634.500000	301.972560 
635.000000	304.637951 
635.500000	306.712625 
636.000000	308.865922 
636.500000	311.102846 
637.000000	312.898491 
637.500000	314.326317 
638.000000	315.277975 
638.500000	316.649680 
639.000000	317.427987 
639.500000	318.138730 
640.000000	319.380749 
640.500000	320.366141 
641.000000	321.549259 
641.500000	322.541487 
642.000000	323.808630 
642.500000	324.457679 
643.000000	324.205647 
643.500000	323.728150 
644.000000	322.769128 
644.500000	321.817825 
645.000000	321.359931 
645.500000	321.731003 
646.000000	322.323714 
646.500000	322.860879 
647.000000	322.728560 
647.500000	321.553760 
648.000000	319.643491 
648.500000	317.249350 
649.000000	315.121979 
649.500000	313.072428 
650.000000	311.435554 
650.500000	309.604677 
651.000000	307.491499 
651.500000	305.381372 
652.000000	303.103124 
652.500000	301.056077 
653.000000	298.619495 
653.500000	296.271582 
654.000000	293.837027 
654.500000	291.272463 
655.000000	288.577942 
655.500000	285.850083 
656.000000	283.583491 
656.500000	280.984046 
657.000000	277.775129 
657.500000	273.908539 
658.000000	270.012118 
658.500000	265.805864 
659.000000	261.606282 
659.500000	258.076500 
660.000000	254.854428 
660.500000	251.353528 
661.000000	247.470139 
661.500000	243.686003 
662.000000	239.627270 
662.500000	235.026350 
663.000000	230.534805 
663.500000	226.097129 
664.000000	221.648085 
664.500000	217.266712 
665.000000	212.736105 
665.500000	208.186842 
666.000000	203.397907 
666.500000	198.551257 
667.000000	194.003369 
667.500000	189.680445 
668.000000	186.037679 
668.500000	182.635966 
669.000000	179.564014 
669.500000	176.243011 
670.000000	172.298029 
670.500000	167.848482 
671.000000	162.813743 
671.500000	157.712359 
672.000000	152.671771 
672.500000	148.140610 
673.000000	144.054042 
673.500000	140.209589 
674.000000	136.805259 
674.500000	133.444213 
675.000000	130.027719 
675.500000	126.484794 
676.000000	123.026113 
676.500000	119.616228 
677.000000	116.614769 
677.500000	114.067372 
678.000000	111.680376 
678.500000	109.096367 
679.000000	106.274302 
679.500000	103.185341 
680.000000	99.872996  
680.500000	96.499712  
681.000000	93.518434  
681.500000	90.910126  
682.000000	88.427476  
682.500000	85.874870  
683.000000	83.274740  
683.500000	80.687011  
684.000000	78.020656  
684.500000	75.592977  
685.000000	73.446339  
685.500000	71.547623  
686.000000	69.616512  
686.500000	67.498237  
687.000000	65.621792  
687.500000	63.813818  
688.000000	62.202593  
688.500000	60.660048  
689.000000	59.183166  
689.500000	57.695549  
690.000000	55.820480  
690.500000	53.897580  
691.000000	51.867645  
691.500000	49.996393  
692.000000	48.366176  
692.500000	46.898974  
693.000000	45.739640  
693.500000	44.534654  
694.000000	43.451296  
694.500000	42.283215  
695.000000	41.120844  
695.500000	40.116541  
696.000000	39.114172  
696.500000	38.181708  
697.000000	37.292500  
697.500000	36.527621  
698.000000	35.644530  
698.500000	34.692103  
699.000000	33.761825  
699.500000	32.813703  
700.000000	31.799220  
700.500000	30.873387  
701.000000	30.071131  
701.500000	29.244551  
702.000000	28.426153  
702.500000	27.722153  
703.000000	27.101658  
703.500000	26.370751  
704.000000	25.699107  
704.500000	25.084287  
705.000000	24.542298  
705.500000	24.031493  
706.000000	23.572820  
706.500000	23.117651  
707.000000	22.624588  
707.500000	22.175280  
708.000000	21.626139  
708.500000	21.041025  
709.000000	20.480591  
709.500000	19.960413  
710.000000	19.462150  
710.500000	19.077486  
711.000000	18.866526  
711.500000	18.591959  
712.000000	18.203662  
712.500000	17.724263  
713.000000	17.275519  
713.500000	16.801322  
714.000000	16.399009  
714.500000	16.190929  
715.000000	16.033543  
715.500000	15.754020  
716.000000	15.282016  
716.500000	14.882940  
717.000000	14.412769  
717.500000	13.914038  
718.000000	13.618456  
718.500000	13.470111  
719.000000	13.317866  
719.500000	13.051270  
720.000000	12.906775  
720.500000	12.817053  
721.000000	12.661701  
721.500000	12.463430  
722.000000	12.283445  
722.500000	12.044293  
723.000000	11.745129  
723.500000	11.490526  
724.000000	11.374213  
724.500000	11.346306  
725.000000	11.253883  
725.500000	11.095089  
726.000000	10.743122  
726.500000	10.350207  
727.000000	9.813955   
727.500000	9.387089   
728.000000	9.230011   
728.500000	9.292680   
729.000000	9.442918   
729.500000	9.516122   
730.000000	9.576046   
730.500000	9.417187   
731.000000	9.162376   
731.500000	8.878218   
732.000000	8.698610   
732.500000	8.582387   
733.000000	8.409929   
733.500000	8.336755   
734.000000	8.202241   
734.500000	8.012510   
735.000000	7.826209   
735.500000	7.704361   
736.000000	7.676884   
736.500000	7.616764   
737.000000	7.618710   
737.500000	7.661243   
738.000000	7.615048   
738.500000	7.540152   
739.000000	7.334719   
739.500000	7.173723   
740.000000	7.008823   
740.500000	6.924445   
741.000000	6.976792   
741.500000	6.958128   
742.000000	6.960356   
742.500000	6.878994   
743.000000	6.738406   
743.500000	6.576883   
744.000000	6.425901   
744.500000	6.372617   
745.000000	6.307825   
745.500000	6.256667   
746.000000	6.236276   
746.500000	6.165218   
747.000000	6.062669   
747.500000	5.993751   
748.000000	5.954224   
748.500000	5.930122   
749.000000	5.864233   
749.500000	5.843925   
750.000000	5.783871   
750.500000	5.671888   
751.000000	5.636994   
751.500000	5.562628   
752.000000	5.540192   
752.500000	5.494371   
753.000000	5.497714   
753.500000	5.477749   
754.000000	5.334504   
754.500000	5.280337   
755.000000	5.143684   
755.500000	5.031155   
756.000000	4.878799   
756.500000	4.809300   
757.000000	4.742790   
757.500000	4.628181   
758.000000	4.594521   
758.500000	4.567202   
759.000000	4.593944   
759.500000	4.587424   
760.000000	4.642076   
760.500000	4.676413   
761.000000	4.652076   
761.500000	4.639460   
762.000000	4.639810   
762.500000	4.618057   
763.000000	4.577000   
763.500000	4.595896   
764.000000	4.610066   
764.500000	4.628977   
765.000000	4.606582   
765.500000	4.574881   
766.000000	4.478222   
766.500000	4.343742   
767.000000	4.263181   
767.500000	4.190068   
768.000000	4.150014   
768.500000	4.059654   
769.000000	3.953536   
769.500000	3.867016   
770.000000	3.738729   
770.500000	3.665790   
771.000000	3.644998   
771.500000	3.745413   
772.000000	3.797834   
772.500000	3.779128   
773.000000	3.748224   
773.500000	3.613395   
774.000000	3.481135   
774.500000	3.385042   
775.000000	3.399985   
775.500000	3.428211   
776.000000	3.433621   
776.500000	3.456328   
777.000000	3.414274   
777.500000	3.326964   
778.000000	3.227781   
778.500000	3.166064   
779.000000	3.121576   
779.500000	3.103100   
780.000000	3.101554   
780.500000	3.096406   
781.000000	3.082536   
781.500000	3.074580   
782.000000	3.084552   
782.500000	3.121283   
783.000000	3.147562   
783.500000	3.117794   
784.000000	3.079695   
784.500000	2.998376   
785.000000	2.915192   
785.500000	2.872473   
786.000000	2.885311   
786.500000	2.944753   
787.000000	3.016393   
787.500000	3.078371   
788.000000	3.100760   
788.500000	3.116211   
789.000000	3.131181   
789.500000	3.131890   
790.000000	3.089131   
790.500000	3.057066   
791.000000	3.018365   
791.500000	2.985413   
792.000000	2.974222   
792.500000	2.985499   
793.000000	3.014198   
793.500000	2.960679   
794.000000	2.874526   
794.500000	2.758777   
795.000000	2.666612   
795.500000	2.609929   
796.000000	2.607155   
796.500000	2.676189   
797.000000	2.705037   
797.500000	2.711604   
798.000000	2.665398   
798.500000	2.627666   
799.000000	2.576923   
799.500000	2.535909   
800.000000	2.536842   
800.500000	2.512083   
801.000000	2.488267   
801.500000	2.427001   
802.000000	2.365884   
802.500000	2.257235   
803.000000	2.109228   
803.500000	1.998256   
804.000000	1.903807   
804.500000	1.858601   
805.000000	1.888009   
805.500000	2.013992   
806.000000	2.164302   
806.500000	2.208046   
807.000000	2.192671   
807.500000	2.119730   
808.000000	1.966103   
808.500000	1.821584   
809.000000	1.760029   
809.500000	1.759404   
810.000000	1.719133   
810.500000	1.700565   
811.000000	1.706766   
811.500000	1.743354   
812.000000	1.805983   
812.500000	1.938692   
813.000000	2.058272   
813.500000	2.073575   
814.000000	1.990962   
814.500000	1.842465   
815.000000	1.679532   
815.500000	1.497599   
816.000000	1.439768   
816.500000	1.471033   
817.000000	1.567951   
817.500000	1.673153   
818.000000	1.810202   
818.500000	1.995044   
819.000000	2.085129   
819.500000	2.158077   
820.000000	2.197853   
820.500000	2.260649   
821.000000	2.289682   
821.500000	2.335844   
822.000000	2.421194   
822.500000	2.463608   
823.000000	2.478150   
823.500000	2.454543   
824.000000	2.470849   
824.500000	2.493890   
825.000000	2.550486   
825.500000	2.589192   
826.000000	2.587526   
826.500000	2.502571   
827.000000	2.367615   
827.500000	2.201977   
828.000000	2.047057   
828.500000	2.018862   
829.000000	1.994690   
829.500000	1.977179   
830.000000	1.895122   
830.500000	1.775178   
831.000000	1.584764   
831.500000	1.354549   
832.000000	1.209536   
832.500000	1.120968   
833.000000	1.105682   
833.500000	1.117443   
834.000000	1.164851   
834.500000	1.195048   
835.000000	1.181389   
835.500000	1.143033   
836.000000	1.095074   
836.500000	1.036871   
837.000000	0.991148   
837.500000	0.962213   
838.000000	0.948196   
838.500000	0.931541   
839.000000	0.890244   
839.500000	0.849280   
840.000000	0.780417   
840.500000	0.724974   
841.000000	0.729886   
841.500000	0.760554   
842.000000	0.810777   
842.500000	0.854192   
843.000000	0.846129   
843.500000	0.767237   
844.000000	0.628153   
844.500000	0.536499   
845.000000	0.465204   
845.500000	0.450031   
846.000000	0.502738   
846.500000	0.559638   
847.000000	0.614901   
847.500000	0.609636   
848.000000	0.615851   
848.500000	0.595987   
849.000000	0.572417   
849.500000	0.543892   
850.000000	0.491632   
850.500000	0.429424   
851.000000	0.346816   
851.500000	0.272380   
852.000000	0.214612   
852.500000	0.179053   
853.000000	0.114211   
853.500000	0.060716   
854.000000	-0.005491  
854.500000	-0.042168  
855.000000	-0.066090  
855.500000	-0.067267  
856.000000	-0.031619  
856.500000	-0.005899  
857.000000	0.034439   
857.500000	0.048944   
858.000000	0.090701   
858.500000	0.077326   
859.000000	0.049710   
859.500000	0.033300   
860.000000	0.042187   
860.500000	0.054545   
861.000000	0.065423   
861.500000	0.122508   
862.000000	0.130610   
862.500000	0.109326   
863.000000	0.082139   
863.500000	0.080521   
864.000000	0.048723   
864.500000	0.011239   
865.000000	0.011983   
865.500000	-0.019042  
866.000000	-0.041179  
866.500000	-0.042692  
867.000000	-0.016209  
867.500000	0.013935   
868.000000	0.057669   
868.500000	0.078836   
869.000000	0.058608   
869.500000	0.010037   
870.000000	-0.025495  
870.500000	-0.080074  
871.000000	-0.130721  
871.500000	-0.132354  
872.000000	-0.129740  
872.500000	-0.125317  
873.000000	-0.121816  
873.500000	-0.103181  
874.000000	-0.114621  
874.500000	-0.122126  
875.000000	-0.088448  
875.500000	-0.038517  
876.000000	0.004769   
876.500000	0.027517   
877.000000	0.044239   
877.500000	0.028204   
878.000000	-0.001263  
878.500000	-0.023935  
879.000000	-0.004400  
879.500000	0.021903   
880.000000	0.030931   
880.500000	0.059398   
881.000000	0.066250   
881.500000	0.050788   
882.000000	0.008641   
882.500000	-0.015578  
883.000000	-0.013669  
883.500000	-0.055089  
884.000000	-0.073350  
884.500000	-0.085269  
885.000000	-0.095912  
885.500000	-0.103684  
886.000000	-0.093484  
886.500000	-0.046549  
887.000000	-0.032024  
887.500000	-0.006649  
888.000000	0.005753   
888.500000	0.001870   
889.000000	-0.010545  
889.500000	-0.012489  
890.000000	-0.005398  
890.500000	-0.008938  
891.000000	0.013719   
891.500000	0.034888   
892.000000	0.026389   
892.500000	-0.012183  
893.000000	-0.024977  
893.500000	-0.043662  
894.000000	-0.069608  
894.500000	-0.060126  
895.000000	-0.024250  
895.500000	0.016614   
896.000000	0.030730   
896.500000	0.054283   

