PE FL                   SPECTRUM    ASCII       PEDS        1.60        
  -1
S01BAB~1.SP
24/04/11
17:07:30.00
24/04/11
17:07:30.00
Jan

896.500000
1









LS55
405.00
5.00
5.00
SCAN
1
20
100
100
0
400
0
1
0
1
5
ON
736 405 
1 0 0
#HDR
-1
-1
#GR
NM

0.00002384185791015625
0.0
450.000000
0.500000
894
8
323.785287
-0.352198
#DATA
450.000000	0.132000   
450.500000	0.171133   
451.000000	0.178606   
451.500000	0.184712   
452.000000	0.117875   
452.500000	0.043762   
453.000000	-0.058977  
453.500000	-0.134653  
454.000000	-0.169705  
454.500000	-0.158252  
455.000000	-0.076886  
455.500000	-0.020307  
456.000000	0.004191   
456.500000	-0.007554  
457.000000	-0.020690  
457.500000	-0.039113  
458.000000	-0.015654  
458.500000	0.051397   
459.000000	0.084805   
459.500000	0.109662   
460.000000	0.082183   
460.500000	0.046981   
461.000000	-0.016315  
461.500000	-0.054020  
462.000000	-0.030384  
462.500000	0.015148   
463.000000	0.072415   
463.500000	0.116343   
464.000000	0.146959   
464.500000	0.125098   
465.000000	0.102645   
465.500000	0.121580   
466.000000	0.152356   
466.500000	0.164923   
467.000000	0.183747   
467.500000	0.197742   
468.000000	0.157191   
468.500000	0.120968   
469.000000	0.100747   
469.500000	0.131923   
470.000000	0.144719   
470.500000	0.137178   
471.000000	0.090987   
471.500000	-0.000450  
472.000000	-0.074953  
472.500000	-0.140556  
473.000000	-0.090905  
473.500000	0.024111   
474.000000	0.186660   
474.500000	0.289294   
475.000000	0.304269   
475.500000	0.292725   
476.000000	0.178231   
476.500000	0.062352   
477.000000	-0.001933  
477.500000	0.026656   
478.000000	0.076814   
478.500000	0.113239   
479.000000	0.189588   
479.500000	0.227628   
480.000000	0.215788   
480.500000	0.190460   
481.000000	0.183528   
481.500000	0.155499   
482.000000	0.089423   
482.500000	0.055732   
483.000000	0.083270   
483.500000	0.111166   
484.000000	0.171792   
484.500000	0.272326   
485.000000	0.336320   
485.500000	0.295141   
486.000000	0.194005   
486.500000	0.089341   
487.000000	-0.036473  
487.500000	-0.157244  
488.000000	-0.187797  
488.500000	-0.097831  
489.000000	-0.017363  
489.500000	0.035988   
490.000000	0.112274   
490.500000	0.170949   
491.000000	0.195738   
491.500000	0.194487   
492.000000	0.256562   
492.500000	0.299007   
493.000000	0.282662   
493.500000	0.259257   
494.000000	0.220025   
494.500000	0.196024   
495.000000	0.159697   
495.500000	0.172092   
496.000000	0.232565   
496.500000	0.272280   
497.000000	0.291133   
497.500000	0.280949   
498.000000	0.288795   
498.500000	0.340061   
499.000000	0.412623   
499.500000	0.515589   
500.000000	0.592014   
500.500000	0.583545   
501.000000	0.498322   
501.500000	0.353141   
502.000000	0.247974   
502.500000	0.190176   
503.000000	0.250571   
503.500000	0.421040   
504.000000	0.607593   
504.500000	0.764948   
505.000000	0.859059   
505.500000	0.895567   
506.000000	0.866979   
506.500000	0.827669   
507.000000	0.837055   
507.500000	0.846597   
508.000000	0.869684   
508.500000	0.907647   
509.000000	0.962081   
509.500000	1.012727   
510.000000	1.070588   
510.500000	1.170014   
511.000000	1.288829   
511.500000	1.426771   
512.000000	1.538771   
512.500000	1.660805   
513.000000	1.773330   
513.500000	1.811144   
514.000000	1.810129   
514.500000	1.780851   
515.000000	1.786311   
515.500000	1.761679   
516.000000	1.813875   
516.500000	1.926946   
517.000000	2.086478   
517.500000	2.250942   
518.000000	2.399994   
518.500000	2.533628   
519.000000	2.570000   
519.500000	2.591159   
520.000000	2.575513   
520.500000	2.579680   
521.000000	2.598782   
521.500000	2.625332   
522.000000	2.679102   
522.500000	2.703085   
523.000000	2.746742   
523.500000	2.780343   
524.000000	2.852846   
524.500000	2.949948   
525.000000	3.063712   
525.500000	3.247582   
526.000000	3.461680   
526.500000	3.675458   
527.000000	3.871400   
527.500000	4.070510   
528.000000	4.309191   
528.500000	4.488636   
529.000000	4.709033   
529.500000	4.947397   
530.000000	5.194124   
530.500000	5.391389   
531.000000	5.558697   
531.500000	5.800027   
532.000000	5.956630   
532.500000	6.166009   
533.000000	6.376990   
533.500000	6.651146   
534.000000	6.881053   
534.500000	7.068640   
535.000000	7.295565   
535.500000	7.504886   
536.000000	7.841667   
536.500000	8.216675   
537.000000	8.624987   
537.500000	8.988092   
538.000000	9.345447   
538.500000	9.672760   
539.000000	10.005528  
539.500000	10.409307  
540.000000	10.904825  
540.500000	11.430116  
541.000000	11.840068  
541.500000	12.101654  
542.000000	12.165055  
542.500000	12.081758  
543.000000	11.848634  
543.500000	11.708710  
544.000000	11.694291  
544.500000	11.755903  
545.000000	11.790576  
545.500000	11.829539  
546.000000	11.837790  
546.500000	11.657142  
547.000000	11.406578  
547.500000	11.152128  
548.000000	10.976935  
548.500000	10.791115  
549.000000	10.666371  
549.500000	10.574801  
550.000000	10.447428  
550.500000	10.292545  
551.000000	10.098057  
551.500000	9.944040   
552.000000	9.836838   
552.500000	9.840491   
553.000000	9.929343   
553.500000	10.104888  
554.000000	10.316000  
554.500000	10.520035  
555.000000	10.673170  
555.500000	10.807001  
556.000000	10.995230  
556.500000	11.257432  
557.000000	11.537970  
557.500000	11.797753  
558.000000	12.066246  
558.500000	12.365903  
559.000000	12.668359  
559.500000	13.029894  
560.000000	13.534753  
560.500000	14.039356  
561.000000	14.447834  
561.500000	14.755875  
562.000000	15.012437  
562.500000	15.150717  
563.000000	15.339786  
563.500000	15.735998  
564.000000	16.279029  
564.500000	16.917320  
565.000000	17.562152  
565.500000	18.207012  
566.000000	18.777341  
566.500000	19.232179  
567.000000	19.834528  
567.500000	20.419406  
568.000000	21.037031  
568.500000	21.665881  
569.000000	22.281126  
569.500000	22.991743  
570.000000	23.553079  
570.500000	24.288671  
571.000000	25.023443  
571.500000	25.825484  
572.000000	26.541083  
572.500000	27.148565  
573.000000	27.854781  
573.500000	28.374165  
574.000000	28.974630  
574.500000	29.530059  
575.000000	30.055693  
575.500000	30.532799  
576.000000	31.000454  
576.500000	31.654246  
577.000000	32.346278  
577.500000	33.185259  
578.000000	34.108656  
578.500000	35.092272  
579.000000	35.970949  
579.500000	36.837729  
580.000000	37.827692  
580.500000	38.738011  
581.000000	39.518345  
581.500000	40.250849  
582.000000	40.965686  
582.500000	41.600445  
583.000000	42.336957  
583.500000	43.426259  
584.000000	44.717124  
584.500000	46.048174  
585.000000	47.336252  
585.500000	48.686285  
586.000000	49.831003  
586.500000	50.869213  
587.000000	52.038884  
587.500000	53.206701  
588.000000	54.455653  
588.500000	55.621883  
589.000000	56.874471  
589.500000	58.305400  
590.000000	59.891315  
590.500000	61.735781  
591.000000	63.579380  
591.500000	65.482038  
592.000000	67.070883  
592.500000	68.325936  
593.000000	69.653341  
593.500000	71.139545  
594.000000	72.888207  
594.500000	74.751756  
595.000000	76.739406  
595.500000	78.730458  
596.000000	80.318094  
596.500000	81.815064  
597.000000	83.327693  
597.500000	85.016990  
598.000000	86.832456  
598.500000	88.818261  
599.000000	90.945925  
599.500000	92.855406  
600.000000	94.733339  
600.500000	96.608510  
601.000000	98.738922  
601.500000	101.047710 
602.000000	103.528615 
602.500000	106.322636 
603.000000	108.923500 
603.500000	111.443786 
604.000000	113.813107 
604.500000	116.001608 
605.000000	118.317831 
605.500000	120.537523 
606.000000	123.149100 
606.500000	125.682760 
607.000000	128.552333 
607.500000	131.600200 
608.000000	134.444385 
608.500000	137.645487 
609.000000	140.555855 
609.500000	143.616732 
610.000000	146.328185 
610.500000	149.191788 
611.000000	152.313499 
611.500000	155.358439 
612.000000	158.983755 
612.500000	162.776510 
613.000000	166.450239 
613.500000	169.624246 
614.000000	172.610124 
614.500000	175.147764 
615.000000	177.310697 
615.500000	179.782730 
616.000000	182.871916 
616.500000	186.032109 
617.000000	189.832270 
617.500000	194.206717 
618.000000	198.304606 
618.500000	202.106769 
619.000000	205.672970 
619.500000	209.213131 
620.000000	211.829003 
620.500000	214.376799 
621.000000	217.560884 
621.500000	220.885769 
622.000000	224.935673 
622.500000	229.670473 
623.000000	234.651794 
623.500000	238.975369 
624.000000	242.552372 
624.500000	245.630456 
625.000000	248.231647 
625.500000	251.016573 
626.000000	254.396981 
626.500000	258.463148 
627.000000	263.211558 
627.500000	267.789829 
628.000000	271.991038 
628.500000	275.759458 
629.000000	279.023051 
629.500000	281.748669 
630.000000	283.999489 
630.500000	286.326107 
631.000000	288.344326 
631.500000	290.340231 
632.000000	292.692599 
632.500000	295.515736 
633.000000	298.734243 
633.500000	301.985593 
634.000000	305.042756 
634.500000	307.420606 
635.000000	309.587541 
635.500000	311.089998 
636.000000	312.264339 
636.500000	313.613313 
637.000000	314.915853 
637.500000	315.863395 
638.000000	316.305495 
638.500000	317.035005 
639.000000	317.550473 
639.500000	318.127998 
640.000000	319.105280 
640.500000	320.300833 
641.000000	321.543923 
641.500000	322.452949 
642.000000	323.372265 
642.500000	323.706536 
643.000000	323.785287 
643.500000	323.514400 
644.000000	322.949148 
644.500000	322.301838 
645.000000	321.460228 
645.500000	320.596975 
646.000000	319.684621 
646.500000	318.990910 
647.000000	318.215217 
647.500000	317.653968 
648.000000	317.037582 
648.500000	316.023593 
649.000000	314.614465 
649.500000	312.798135 
650.000000	310.734625 
650.500000	308.334582 
651.000000	305.794053 
651.500000	303.273725 
652.000000	300.675354 
652.500000	297.678987 
653.000000	294.437564 
653.500000	290.863374 
654.000000	287.442070 
654.500000	284.111079 
655.000000	281.030916 
655.500000	278.230545 
656.000000	275.436291 
656.500000	272.494517 
657.000000	269.243927 
657.500000	266.006504 
658.000000	262.545168 
658.500000	258.811877 
659.000000	254.859504 
659.500000	251.012257 
660.000000	247.082693 
660.500000	243.279272 
661.000000	239.439925 
661.500000	235.777337 
662.000000	232.148439 
662.500000	227.939564 
663.000000	223.493847 
663.500000	218.690252 
664.000000	213.833350 
664.500000	209.007623 
665.000000	204.543588 
665.500000	200.506576 
666.000000	196.487695 
666.500000	192.305152 
667.000000	188.186695 
667.500000	184.031283 
668.000000	179.707810 
668.500000	175.210953 
669.000000	170.660935 
669.500000	166.370348 
670.000000	162.009666 
670.500000	158.020116 
671.000000	154.215964 
671.500000	150.173970 
672.000000	146.000378 
672.500000	141.543322 
673.000000	137.308988 
673.500000	133.050382 
674.000000	129.192000 
674.500000	125.948923 
675.000000	122.703150 
675.500000	119.539181 
676.000000	116.077257 
676.500000	112.745116 
677.000000	109.329645 
677.500000	105.993536 
678.000000	103.206263 
678.500000	100.368385 
679.000000	97.776615  
679.500000	95.081205  
680.000000	92.394580  
680.500000	89.725487  
681.000000	87.065970  
681.500000	84.694690  
682.000000	82.259601  
682.500000	80.171094  
683.000000	78.150356  
683.500000	75.921265  
684.000000	73.739348  
684.500000	71.486925  
685.000000	69.407435  
685.500000	67.247901  
686.000000	65.273923  
686.500000	63.418487  
687.000000	61.482664  
687.500000	59.693228  
688.000000	57.966807  
688.500000	56.352317  
689.000000	54.930437  
689.500000	53.625742  
690.000000	52.297738  
690.500000	50.807207  
691.000000	49.165788  
691.500000	47.420309  
692.000000	45.642246  
692.500000	44.182011  
693.000000	42.920074  
693.500000	41.932048  
694.000000	41.148300  
694.500000	40.352667  
695.000000	39.559712  
695.500000	38.493248  
696.000000	37.396936  
696.500000	36.208964  
697.000000	35.125797  
697.500000	34.132554  
698.000000	33.071185  
698.500000	32.178521  
699.000000	31.194033  
699.500000	30.344142  
700.000000	29.594692  
700.500000	28.887836  
701.000000	28.381211  
701.500000	27.743003  
702.000000	27.201257  
702.500000	26.484055  
703.000000	25.835074  
703.500000	25.222278  
704.000000	24.491853  
704.500000	23.951068  
705.000000	23.315437  
705.500000	22.693671  
706.000000	22.047179  
706.500000	21.492912  
707.000000	21.001191  
707.500000	20.430690  
708.000000	20.031009  
708.500000	19.692998  
709.000000	19.279116  
709.500000	18.885725  
710.000000	18.635333  
710.500000	18.336896  
711.000000	17.977884  
711.500000	17.607447  
712.000000	17.303435  
712.500000	16.943341  
713.000000	16.578662  
713.500000	16.269365  
714.000000	15.964319  
714.500000	15.581077  
715.000000	15.219053  
715.500000	14.938576  
716.000000	14.747666  
716.500000	14.591773  
717.000000	14.438165  
717.500000	14.239361  
718.000000	13.861972  
718.500000	13.493595  
719.000000	13.074315  
719.500000	12.699966  
720.000000	12.469716  
720.500000	12.359975  
721.000000	12.293228  
721.500000	12.055710  
722.000000	11.810747  
722.500000	11.552636  
723.000000	11.240131  
723.500000	10.921690  
724.000000	10.744927  
724.500000	10.571881  
725.000000	10.332174  
725.500000	10.104994  
726.000000	9.991988   
726.500000	9.875899   
727.000000	9.768300   
727.500000	9.756647   
728.000000	9.736003   
728.500000	9.657638   
729.000000	9.466873   
729.500000	9.344634   
730.000000	9.168974   
730.500000	8.960957   
731.000000	8.826046   
731.500000	8.681803   
732.000000	8.571682   
732.500000	8.451352   
733.000000	8.414504   
733.500000	8.363975   
734.000000	8.280662   
734.500000	8.179450   
735.000000	7.942263   
735.500000	7.688638   
736.000000	7.453426   
736.500000	7.336738   
737.000000	7.244957   
737.500000	7.149300   
738.000000	7.156020   
738.500000	7.134666   
739.000000	7.055460   
739.500000	6.942543   
740.000000	6.893740   
740.500000	6.878226   
741.000000	6.776725   
741.500000	6.680070   
742.000000	6.590528   
742.500000	6.480256   
743.000000	6.271836   
743.500000	6.095949   
744.000000	6.098988   
744.500000	6.153439   
745.000000	6.229725   
745.500000	6.306799   
746.000000	6.368139   
746.500000	6.277361   
747.000000	5.997827   
747.500000	5.744337   
748.000000	5.573743   
748.500000	5.476586   
749.000000	5.454641   
749.500000	5.528781   
750.000000	5.575096   
750.500000	5.545990   
751.000000	5.519690   
751.500000	5.511753   
752.000000	5.476454   
752.500000	5.414818   
753.000000	5.345233   
753.500000	5.208064   
754.000000	5.037896   
754.500000	4.883489   
755.000000	4.776311   
755.500000	4.657109   
756.000000	4.520964   
756.500000	4.417873   
757.000000	4.342025   
757.500000	4.311309   
758.000000	4.350372   
758.500000	4.483779   
759.000000	4.672435   
759.500000	4.854558   
760.000000	4.960384   
760.500000	4.975901   
761.000000	4.944170   
761.500000	4.812204   
762.000000	4.666393   
762.500000	4.511933   
763.000000	4.431853   
763.500000	4.392948   
764.000000	4.366764   
764.500000	4.390330   
765.000000	4.427387   
765.500000	4.462194   
766.000000	4.462560   
766.500000	4.491317   
767.000000	4.497671   
767.500000	4.378259   
768.000000	4.213857   
768.500000	4.038363   
769.000000	3.846961   
769.500000	3.669664   
770.000000	3.558055   
770.500000	3.512599   
771.000000	3.446161   
771.500000	3.380621   
772.000000	3.393602   
772.500000	3.448925   
773.000000	3.482907   
773.500000	3.502493   
774.000000	3.517157   
774.500000	3.475871   
775.000000	3.373580   
775.500000	3.306410   
776.000000	3.306282   
776.500000	3.354400   
777.000000	3.411126   
777.500000	3.441543   
778.000000	3.426638   
778.500000	3.364306   
779.000000	3.322187   
779.500000	3.276688   
780.000000	3.276606   
780.500000	3.289660   
781.000000	3.270374   
781.500000	3.197994   
782.000000	3.106855   
782.500000	3.074102   
783.000000	3.024760   
783.500000	3.021166   
784.000000	3.029975   
784.500000	3.066307   
785.000000	3.059526   
785.500000	3.021315   
786.000000	2.970094   
786.500000	2.909942   
787.000000	2.894480   
787.500000	2.854309   
788.000000	2.832823   
788.500000	2.810745   
789.000000	2.819192   
789.500000	2.830664   
790.000000	2.814690   
790.500000	2.879821   
791.000000	2.971226   
791.500000	3.051903   
792.000000	3.085721   
792.500000	3.114027   
793.000000	3.107057   
793.500000	2.935844   
794.000000	2.746001   
794.500000	2.615821   
795.000000	2.510797   
795.500000	2.409643   
796.000000	2.372302   
796.500000	2.443066   
797.000000	2.499693   
797.500000	2.491476   
798.000000	2.528153   
798.500000	2.540116   
799.000000	2.515176   
799.500000	2.478944   
800.000000	2.477397   
800.500000	2.485460   
801.000000	2.398348   
801.500000	2.326873   
802.000000	2.242931   
802.500000	2.170766   
803.000000	2.124419   
803.500000	2.118183   
804.000000	2.192205   
804.500000	2.234621   
805.000000	2.274350   
805.500000	2.278491   
806.000000	2.240612   
806.500000	2.190575   
807.000000	2.140038   
807.500000	2.112428   
808.000000	2.098142   
808.500000	2.090990   
809.000000	2.072482   
809.500000	2.055756   
810.000000	2.026840   
810.500000	1.992397   
811.000000	1.920573   
811.500000	1.831654   
812.000000	1.764278   
812.500000	1.736152   
813.000000	1.759100   
813.500000	1.784289   
814.000000	1.825372   
814.500000	1.852222   
815.000000	1.806287   
815.500000	1.725120   
816.000000	1.610432   
816.500000	1.531940   
817.000000	1.474888   
817.500000	1.456532   
818.000000	1.517756   
818.500000	1.620402   
819.000000	1.828658   
819.500000	2.036432   
820.000000	2.223237   
820.500000	2.377942   
821.000000	2.453621   
821.500000	2.498818   
822.000000	2.478198   
822.500000	2.548450   
823.000000	2.669979   
823.500000	2.786705   
824.000000	2.879458   
824.500000	2.885879   
825.000000	2.852983   
825.500000	2.723124   
826.000000	2.562812   
826.500000	2.414237   
827.000000	2.288465   
827.500000	2.210871   
828.000000	2.105870   
828.500000	2.052040   
829.000000	2.015970   
829.500000	1.944634   
830.000000	1.838834   
830.500000	1.707886   
831.000000	1.622287   
831.500000	1.513109   
832.000000	1.432589   
832.500000	1.353860   
833.000000	1.262881   
833.500000	1.175840   
834.000000	1.077773   
834.500000	1.026773   
835.000000	1.011410   
835.500000	1.050029   
836.000000	1.114204   
836.500000	1.137432   
837.000000	1.153927   
837.500000	1.104406   
838.000000	1.021975   
838.500000	0.951061   
839.000000	0.889625   
839.500000	0.881050   
840.000000	0.850191   
840.500000	0.852122   
841.000000	0.867608   
841.500000	0.849823   
842.000000	0.829905   
842.500000	0.765352   
843.000000	0.715547   
843.500000	0.623139   
844.000000	0.543578   
844.500000	0.492085   
845.000000	0.453786   
845.500000	0.434994   
846.000000	0.415072   
846.500000	0.450894   
847.000000	0.469666   
847.500000	0.461534   
848.000000	0.440278   
848.500000	0.400031   
849.000000	0.352621   
849.500000	0.305194   
850.000000	0.311912   
850.500000	0.330450   
851.000000	0.376756   
851.500000	0.440141   
852.000000	0.467228   
852.500000	0.451680   
853.000000	0.385333   
853.500000	0.321335   
854.000000	0.240371   
854.500000	0.155649   
855.000000	0.154975   
855.500000	0.138261   
856.000000	0.109649   
856.500000	0.049309   
857.000000	0.017868   
857.500000	-0.002205  
858.000000	-0.033374  
858.500000	0.005298   
859.000000	0.085853   
859.500000	0.198565   
860.000000	0.275153   
860.500000	0.334282   
861.000000	0.345909   
861.500000	0.268892   
862.000000	0.147918   
862.500000	0.014213   
863.000000	-0.083085  
863.500000	-0.164066  
864.000000	-0.176374  
864.500000	-0.157068  
865.000000	-0.119608  
865.500000	-0.110564  
866.000000	-0.112417  
866.500000	-0.114489  
867.000000	-0.102411  
867.500000	-0.049923  
868.000000	0.018710   
868.500000	0.082680   
869.000000	0.104345   
869.500000	0.089573   
870.000000	0.049679   
870.500000	0.029942   
871.000000	0.009397   
871.500000	0.007725   
872.000000	0.017435   
872.500000	-0.013359  
873.000000	-0.088654  
873.500000	-0.196732  
874.000000	-0.267525  
874.500000	-0.336269  
875.000000	-0.352198  
875.500000	-0.280829  
876.000000	-0.166643  
876.500000	-0.066912  
877.000000	0.019816   
877.500000	0.117200   
878.000000	0.167591   
878.500000	0.142615   
879.000000	0.097059   
879.500000	0.051805   
880.000000	-0.016187  
880.500000	-0.082432  
881.000000	-0.104480  
881.500000	-0.066844  
882.000000	-0.053063  
882.500000	-0.066988  
883.000000	-0.070732  
883.500000	-0.088768  
884.000000	-0.142855  
884.500000	-0.206857  
885.000000	-0.220957  
885.500000	-0.210233  
886.000000	-0.197441  
886.500000	-0.163508  
887.000000	-0.100875  
887.500000	-0.047439  
888.000000	-0.008821  
888.500000	0.017239   
889.000000	0.055753   
889.500000	0.081439   
890.000000	0.078269   
890.500000	0.103068   
891.000000	0.114968   
891.500000	0.082265   
892.000000	-0.015551  
892.500000	-0.109259  
893.000000	-0.200448  
893.500000	-0.302213  
894.000000	-0.337604  
894.500000	-0.301803  
895.000000	-0.231820  
895.500000	-0.169016  
896.000000	-0.105237  
896.500000	-0.069417  

