PE FL                   SPECTRUM    ASCII       PEDS        1.60        
  -1
S01BB7~1.SP
24/04/11
17:24:37.00
24/04/11
17:24:37.00
Jan

896.500000
1









LS55
405.00
5.00
5.00
SCAN
1
20
100
100
0
400
0
1
0
1
5
ON
736 405 
1 0 0
#HDR
-1
-1
#GR
NM

0.00002384185791015625
0.0
450.000000
0.500000
894
8
298.886597
-0.252990
#DATA
450.000000	0.133000   
450.500000	0.032786   
451.000000	-0.036612  
451.500000	-0.094146  
452.000000	-0.168840  
452.500000	-0.215109  
453.000000	-0.194235  
453.500000	-0.100096  
454.000000	-0.019346  
454.500000	0.066606   
455.000000	0.130888   
455.500000	0.114122   
456.000000	0.034454   
456.500000	-0.028716  
457.000000	-0.041717  
457.500000	-0.022244  
458.000000	0.050128   
458.500000	0.147753   
459.000000	0.225627   
459.500000	0.229064   
460.000000	0.203081   
460.500000	0.141085   
461.000000	0.091632   
461.500000	0.070443   
462.000000	0.063022   
462.500000	0.080011   
463.000000	0.104599   
463.500000	0.153224   
464.000000	0.192356   
464.500000	0.227886   
465.000000	0.262499   
465.500000	0.259515   
466.000000	0.239795   
466.500000	0.201771   
467.000000	0.104107   
467.500000	0.009842   
468.000000	-0.082820  
468.500000	-0.164012  
469.000000	-0.234304  
469.500000	-0.252990  
470.000000	-0.210330  
470.500000	-0.186528  
471.000000	-0.136374  
471.500000	-0.086415  
472.000000	-0.054740  
472.500000	-0.087050  
473.000000	-0.105758  
473.500000	-0.060435  
474.000000	-0.019287  
474.500000	0.090068   
475.000000	0.207948   
475.500000	0.303098   
476.000000	0.286988   
476.500000	0.194868   
477.000000	0.105534   
477.500000	0.020389   
478.000000	0.004055   
478.500000	0.028038   
479.000000	0.090940   
479.500000	0.134055   
480.000000	0.137142   
480.500000	0.146424   
481.000000	0.163031   
481.500000	0.220263   
482.000000	0.272163   
482.500000	0.320808   
483.000000	0.312278   
483.500000	0.247656   
484.000000	0.159621   
484.500000	0.088183   
485.000000	0.032359   
485.500000	-0.004339  
486.000000	0.018393   
486.500000	0.034549   
487.000000	0.041050   
487.500000	0.063473   
488.000000	0.081556   
488.500000	0.050319   
489.000000	0.027211   
489.500000	0.037254   
490.000000	0.042755   
490.500000	0.018747   
491.000000	0.042031   
491.500000	0.095270   
492.000000	0.095951   
492.500000	0.101621   
493.000000	0.151424   
493.500000	0.222786   
494.000000	0.269307   
494.500000	0.331619   
495.000000	0.411743   
495.500000	0.426413   
496.000000	0.385382   
496.500000	0.338736   
497.000000	0.307857   
497.500000	0.284461   
498.000000	0.287693   
498.500000	0.346324   
499.000000	0.425636   
499.500000	0.482157   
500.000000	0.497217   
500.500000	0.456296   
501.000000	0.373929   
501.500000	0.277155   
502.000000	0.224460   
502.500000	0.224181   
503.000000	0.347825   
503.500000	0.529250   
504.000000	0.722445   
504.500000	0.877710   
505.000000	0.968599   
505.500000	0.992773   
506.000000	0.926647   
506.500000	0.896497   
507.000000	0.859769   
507.500000	0.831350   
508.000000	0.822467   
508.500000	0.856833   
509.000000	0.924608   
509.500000	0.986133   
510.000000	1.131272   
510.500000	1.277701   
511.000000	1.362734   
511.500000	1.410638   
512.000000	1.449350   
512.500000	1.450539   
513.000000	1.470168   
513.500000	1.568343   
514.000000	1.706710   
514.500000	1.849166   
515.000000	1.971320   
515.500000	2.116699   
516.000000	2.212807   
516.500000	2.322571   
517.000000	2.453864   
517.500000	2.589953   
518.000000	2.718102   
518.500000	2.775927   
519.000000	2.811742   
519.500000	2.775152   
520.000000	2.742523   
520.500000	2.738378   
521.000000	2.729909   
521.500000	2.779079   
522.000000	2.811794   
522.500000	2.895912   
523.000000	2.958936   
523.500000	3.044057   
524.000000	3.158135   
524.500000	3.325586   
525.000000	3.567363   
525.500000	3.750751   
526.000000	3.958983   
526.500000	4.147465   
527.000000	4.293914   
527.500000	4.394621   
528.000000	4.556141   
528.500000	4.859231   
529.000000	5.154679   
529.500000	5.482541   
530.000000	5.822393   
530.500000	6.125918   
531.000000	6.264448   
531.500000	6.330879   
532.000000	6.426669   
532.500000	6.590014   
533.000000	6.703408   
533.500000	6.877751   
534.000000	7.133233   
534.500000	7.371736   
535.000000	7.578641   
535.500000	7.774955   
536.000000	8.109849   
536.500000	8.462395   
537.000000	8.877118   
537.500000	9.394443   
538.000000	10.007070  
538.500000	10.626083  
539.000000	11.114512  
539.500000	11.623434  
540.000000	12.026064  
540.500000	12.294920  
541.000000	12.418014  
541.500000	12.462975  
542.000000	12.429152  
542.500000	12.335905  
543.000000	12.230267  
543.500000	12.164328  
544.000000	12.088437  
544.500000	12.006348  
545.000000	11.891289  
545.500000	11.713961  
546.000000	11.575988  
546.500000	11.503115  
547.000000	11.466983  
547.500000	11.355877  
548.000000	11.264883  
548.500000	11.071564  
549.000000	10.756009  
549.500000	10.491617  
550.000000	10.320825  
550.500000	10.292198  
551.000000	10.223734  
551.500000	10.245712  
552.000000	10.239775  
552.500000	10.180525  
553.000000	10.171441  
553.500000	10.241064  
554.000000	10.413128  
554.500000	10.575179  
555.000000	10.767220  
555.500000	10.994263  
556.000000	11.210194  
556.500000	11.406172  
557.000000	11.592675  
557.500000	11.781506  
558.000000	12.016868  
558.500000	12.289680  
559.000000	12.660641  
559.500000	13.115864  
560.000000	13.594922  
560.500000	14.138591  
561.000000	14.482805  
561.500000	14.767415  
562.000000	15.096450  
562.500000	15.414129  
563.000000	15.836829  
563.500000	16.410354  
564.000000	17.189664  
564.500000	17.854309  
565.000000	18.407278  
565.500000	18.955217  
566.000000	19.437552  
566.500000	19.765660  
567.000000	20.178638  
567.500000	20.821897  
568.000000	21.474912  
568.500000	22.173703  
569.000000	22.964545  
569.500000	23.795465  
570.000000	24.392400  
570.500000	24.915178  
571.000000	25.440335  
571.500000	25.938821  
572.000000	26.457304  
572.500000	27.101241  
573.000000	27.900320  
573.500000	28.696512  
574.000000	29.424363  
574.500000	30.066730  
575.000000	30.619998  
575.500000	31.072443  
576.000000	31.555159  
576.500000	32.067174  
577.000000	32.701962  
577.500000	33.421014  
578.000000	34.227576  
578.500000	35.119612  
579.000000	35.961493  
579.500000	36.898690  
580.000000	37.759588  
580.500000	38.529300  
581.000000	39.218348  
581.500000	39.965933  
582.000000	40.855588  
582.500000	41.779009  
583.000000	42.907532  
583.500000	44.157727  
584.000000	45.406697  
584.500000	46.461604  
585.000000	47.491857  
585.500000	48.513319  
586.000000	49.456521  
586.500000	50.542708  
587.000000	51.762519  
587.500000	53.241397  
588.000000	54.630768  
588.500000	56.306589  
589.000000	57.947565  
589.500000	59.490478  
590.000000	60.969564  
590.500000	62.182795  
591.000000	63.586703  
591.500000	64.758139  
592.000000	66.168653  
592.500000	67.633098  
593.000000	69.281612  
593.500000	71.047662  
594.000000	72.530881  
594.500000	74.143448  
595.000000	75.731378  
595.500000	77.555213  
596.000000	79.318005  
596.500000	81.172176  
597.000000	83.249389  
597.500000	85.038564  
598.000000	86.705354  
598.500000	88.415413  
599.000000	90.358786  
599.500000	92.328910  
600.000000	94.459695  
600.500000	96.979686  
601.000000	99.623784  
601.500000	102.176059 
602.000000	104.478141 
602.500000	106.727541 
603.000000	108.750743 
603.500000	110.533489 
604.000000	112.407736 
604.500000	114.633441 
605.000000	117.204935 
605.500000	119.976220 
606.000000	123.095094 
606.500000	126.213230 
607.000000	129.115022 
607.500000	131.621541 
608.000000	134.046883 
608.500000	136.464139 
609.000000	138.760497 
609.500000	141.242098 
610.000000	143.891115 
610.500000	146.782525 
611.000000	149.672807 
611.500000	152.487818 
612.000000	155.580131 
612.500000	159.107901 
613.000000	162.736016 
613.500000	166.070294 
614.000000	169.404692 
614.500000	172.624717 
615.000000	175.449265 
615.500000	178.304671 
616.000000	181.589044 
616.500000	185.138833 
617.000000	188.526450 
617.500000	191.912831 
618.000000	195.368102 
618.500000	198.682846 
619.000000	202.062970 
619.500000	205.560051 
620.000000	209.298957 
620.500000	212.860333 
621.000000	216.576493 
621.500000	220.173259 
622.000000	223.709846 
622.500000	227.486810 
623.000000	230.953250 
623.500000	234.180115 
624.000000	236.893675 
624.500000	239.393936 
625.000000	241.972640 
625.500000	244.713048 
626.000000	247.732495 
626.500000	250.903829 
627.000000	254.076619 
627.500000	256.782359 
628.000000	259.164918 
628.500000	261.575962 
629.000000	264.076096 
629.500000	266.629725 
630.000000	269.505788 
630.500000	272.494864 
631.000000	275.604957 
631.500000	278.499081 
632.000000	281.169033 
632.500000	283.659630 
633.000000	285.764881 
633.500000	287.707133 
634.000000	289.159059 
634.500000	290.674090 
635.000000	292.041285 
635.500000	293.191398 
636.000000	294.114098 
636.500000	294.730554 
637.000000	295.628519 
637.500000	295.943313 
638.000000	296.681966 
638.500000	297.657730 
639.000000	298.398766 
639.500000	298.871771 
640.000000	298.886597 
640.500000	298.737556 
641.000000	297.918530 
641.500000	296.980419 
642.000000	296.422985 
642.500000	296.213105 
643.000000	296.023460 
643.500000	296.178400 
644.000000	296.412992 
644.500000	296.345423 
645.000000	295.811000 
645.500000	295.137755 
646.000000	294.466623 
646.500000	293.394000 
647.000000	292.397551 
647.500000	291.304636 
648.000000	289.731508 
648.500000	287.476317 
649.000000	284.710975 
649.500000	281.789684 
650.000000	279.128955 
650.500000	276.601014 
651.000000	274.582107 
651.500000	272.841012 
652.000000	271.102233 
652.500000	269.417309 
653.000000	267.307649 
653.500000	265.173619 
654.000000	262.606261 
654.500000	259.908846 
655.000000	256.706797 
655.500000	253.155521 
656.000000	249.529907 
656.500000	245.666244 
657.000000	241.628679 
657.500000	237.534270 
658.000000	233.893027 
658.500000	229.994072 
659.000000	225.909144 
659.500000	221.945413 
660.000000	217.940909 
660.500000	213.539740 
661.000000	208.926805 
661.500000	204.909226 
662.000000	201.059317 
662.500000	197.307211 
663.000000	193.951367 
663.500000	190.527808 
664.000000	186.634105 
664.500000	182.193604 
665.000000	177.517627 
665.500000	172.608157 
666.000000	167.497426 
666.500000	163.069200 
667.000000	158.895951 
667.500000	154.953497 
668.000000	151.244998 
668.500000	147.711447 
669.000000	144.115018 
669.500000	140.031294 
670.000000	136.235933 
670.500000	132.573419 
671.000000	129.003573 
671.500000	125.554823 
672.000000	122.336634 
672.500000	119.577690 
673.000000	116.594608 
673.500000	113.703306 
674.000000	110.804415 
674.500000	107.639716 
675.000000	104.424562 
675.500000	101.019918 
676.000000	97.923972  
676.500000	94.938105  
677.000000	92.374027  
677.500000	90.174330  
678.000000	87.899166  
678.500000	85.660103  
679.000000	83.284846  
679.500000	80.635962  
680.000000	77.751881  
680.500000	75.194703  
681.000000	72.815589  
681.500000	70.295564  
682.000000	67.993209  
682.500000	65.915781  
683.000000	63.917844  
683.500000	61.979035  
684.000000	60.317100  
684.500000	58.704873  
685.000000	57.186163  
685.500000	55.791074  
686.000000	54.413465  
686.500000	52.976690  
687.000000	51.539322  
687.500000	50.247755  
688.000000	48.714955  
688.500000	47.267738  
689.000000	45.899864  
689.500000	44.618055  
690.000000	43.460532  
690.500000	42.339528  
691.000000	41.400024  
691.500000	40.253897  
692.000000	39.119354  
692.500000	37.889259  
693.000000	36.725660  
693.500000	35.740011  
694.000000	34.721751  
694.500000	33.874246  
695.000000	33.053534  
695.500000	32.303421  
696.000000	31.519211  
696.500000	30.680484  
697.000000	29.935764  
697.500000	29.102814  
698.000000	28.271217  
698.500000	27.476625  
699.000000	26.700484  
699.500000	26.065022  
700.000000	25.430445  
700.500000	24.891569  
701.000000	24.350322  
701.500000	23.773547  
702.000000	23.138463  
702.500000	22.471359  
703.000000	21.881510  
703.500000	21.304747  
704.000000	20.765528  
704.500000	20.400721  
705.000000	20.110491  
705.500000	19.684894  
706.000000	19.245165  
706.500000	18.798024  
707.000000	18.425081  
707.500000	17.997797  
708.000000	17.694452  
708.500000	17.493356  
709.000000	17.140923  
709.500000	16.749061  
710.000000	16.231871  
710.500000	15.788831  
711.000000	15.325048  
711.500000	14.992701  
712.000000	14.782617  
712.500000	14.537799  
713.000000	14.339680  
713.500000	14.026935  
714.000000	13.737799  
714.500000	13.462740  
715.000000	13.202721  
715.500000	12.947191  
716.000000	12.638820  
716.500000	12.314614  
717.000000	11.914302  
717.500000	11.557283  
718.000000	11.320883  
718.500000	11.172200  
719.000000	11.127638  
719.500000	11.134445  
720.000000	11.129192  
720.500000	11.079230  
721.000000	10.944116  
721.500000	10.802833  
722.000000	10.587061  
722.500000	10.321315  
723.000000	10.030417  
723.500000	9.722990   
724.000000	9.481267   
724.500000	9.249530   
725.000000	9.097974   
725.500000	9.035866   
726.000000	9.116179   
726.500000	9.223183   
727.000000	9.263636   
727.500000	9.265092   
728.000000	9.137623   
728.500000	8.897556   
729.000000	8.569003   
729.500000	8.330053   
730.000000	8.119675   
730.500000	7.975025   
731.000000	7.874400   
731.500000	7.778873   
732.000000	7.648938   
732.500000	7.428968   
733.000000	7.229738   
733.500000	7.063747   
734.000000	6.986918   
734.500000	6.952215   
735.000000	6.931627   
735.500000	6.922141   
736.000000	6.876849   
736.500000	6.805842   
737.000000	6.743614   
737.500000	6.720239   
738.000000	6.712014   
738.500000	6.650035   
739.000000	6.537259   
739.500000	6.382833   
740.000000	6.210987   
740.500000	6.067272   
741.000000	5.963424   
741.500000	5.904981   
742.000000	5.833322   
742.500000	5.759688   
743.000000	5.647191   
743.500000	5.557410   
744.000000	5.477680   
744.500000	5.478072   
745.000000	5.499215   
745.500000	5.486423   
746.000000	5.515243   
746.500000	5.495820   
747.000000	5.498413   
747.500000	5.461363   
748.000000	5.486849   
748.500000	5.503695   
749.000000	5.461588   
749.500000	5.397313   
750.000000	5.232955   
750.500000	5.038450   
751.000000	4.797280   
751.500000	4.634541   
752.000000	4.507176   
752.500000	4.479549   
753.000000	4.523705   
753.500000	4.520803   
754.000000	4.484959   
754.500000	4.392311   
755.000000	4.335126   
755.500000	4.259502   
756.000000	4.252964   
756.500000	4.333094   
757.000000	4.403576   
757.500000	4.447515   
758.000000	4.439285   
758.500000	4.461532   
759.000000	4.445053   
759.500000	4.390864   
760.000000	4.344367   
760.500000	4.288257   
761.000000	4.273857   
761.500000	4.242582   
762.000000	4.274285   
762.500000	4.341905   
763.000000	4.381452   
763.500000	4.436979   
764.000000	4.432359   
764.500000	4.335382   
765.000000	4.182862   
765.500000	4.014610   
766.000000	3.878267   
766.500000	3.791141   
767.000000	3.800536   
767.500000	3.872016   
768.000000	3.880126   
768.500000	3.857178   
769.000000	3.763089   
769.500000	3.614443   
770.000000	3.458558   
770.500000	3.332630   
771.000000	3.328332   
771.500000	3.345307   
772.000000	3.424432   
772.500000	3.489764   
773.000000	3.500499   
773.500000	3.532079   
774.000000	3.510463   
774.500000	3.474434   
775.000000	3.450649   
775.500000	3.466634   
776.000000	3.468612   
776.500000	3.470025   
777.000000	3.483873   
777.500000	3.466909   
778.000000	3.375946   
778.500000	3.225024   
779.000000	3.148977   
779.500000	3.095593   
780.000000	3.097048   
780.500000	3.156781   
781.000000	3.257621   
781.500000	3.326365   
782.000000	3.290784   
782.500000	3.254860   
783.000000	3.186068   
783.500000	3.112829   
784.000000	3.050775   
784.500000	3.000497   
785.000000	2.981990   
785.500000	2.945838   
786.000000	2.934410   
786.500000	2.966471   
787.000000	3.005359   
787.500000	3.039027   
788.000000	3.011358   
788.500000	2.940400   
789.000000	2.851699   
789.500000	2.769443   
790.000000	2.736864   
790.500000	2.759261   
791.000000	2.819497   
791.500000	2.881332   
792.000000	2.899333   
792.500000	2.872226   
793.000000	2.808072   
793.500000	2.720970   
794.000000	2.649040   
794.500000	2.581302   
795.000000	2.555584   
795.500000	2.543380   
796.000000	2.557538   
796.500000	2.564818   
797.000000	2.581387   
797.500000	2.613294   
798.000000	2.610717   
798.500000	2.597001   
799.000000	2.568272   
799.500000	2.527367   
800.000000	2.428538   
800.500000	2.299124   
801.000000	2.200335   
801.500000	2.125712   
802.000000	2.073693   
802.500000	2.062684   
803.000000	2.149758   
803.500000	2.245473   
804.000000	2.304027   
804.500000	2.395886   
805.000000	2.437723   
805.500000	2.417066   
806.000000	2.349057   
806.500000	2.327057   
807.000000	2.311020   
807.500000	2.220684   
808.000000	2.133354   
808.500000	2.012352   
809.000000	1.927769   
809.500000	1.830387   
810.000000	1.824658   
810.500000	1.880129   
811.000000	1.928354   
811.500000	2.006905   
812.000000	2.019558   
812.500000	2.026884   
813.000000	1.967758   
813.500000	1.919267   
814.000000	1.871020   
814.500000	1.789697   
815.000000	1.731139   
815.500000	1.669606   
816.000000	1.658246   
816.500000	1.631552   
817.000000	1.660547   
817.500000	1.712413   
818.000000	1.732660   
818.500000	1.807808   
819.000000	1.935081   
819.500000	2.087821   
820.000000	2.180632   
820.500000	2.264105   
821.000000	2.333766   
821.500000	2.379231   
822.000000	2.455510   
822.500000	2.546762   
823.000000	2.668460   
823.500000	2.743322   
824.000000	2.791805   
824.500000	2.821719   
825.000000	2.735385   
825.500000	2.629233   
826.000000	2.462653   
826.500000	2.282048   
827.000000	2.058736   
827.500000	1.855371   
828.000000	1.766231   
828.500000	1.685821   
829.000000	1.691675   
829.500000	1.691320   
830.000000	1.686948   
830.500000	1.609615   
831.000000	1.465679   
831.500000	1.381007   
832.000000	1.295617   
832.500000	1.264844   
833.000000	1.239790   
833.500000	1.210090   
834.000000	1.154038   
834.500000	1.074888   
835.000000	0.993001   
835.500000	0.935740   
836.000000	0.954705   
836.500000	1.003578   
837.000000	1.066248   
837.500000	1.102643   
838.000000	1.109627   
838.500000	1.075389   
839.000000	1.044289   
839.500000	1.033482   
840.000000	1.037387   
840.500000	1.056443   
841.000000	1.055552   
841.500000	1.006417   
842.000000	0.927263   
842.500000	0.854567   
843.000000	0.794361   
843.500000	0.733595   
844.000000	0.695372   
844.500000	0.700591   
845.000000	0.698018   
845.500000	0.686248   
846.000000	0.644374   
846.500000	0.586853   
847.000000	0.523883   
847.500000	0.435610   
848.000000	0.355393   
848.500000	0.310120   
849.000000	0.287604   
849.500000	0.235942   
850.000000	0.160847   
850.500000	0.099231   
851.000000	0.045647   
851.500000	-0.015165  
852.000000	-0.009285  
852.500000	0.053382   
853.000000	0.141491   
853.500000	0.199491   
854.000000	0.240031   
854.500000	0.250205   
855.000000	0.208914   
855.500000	0.164781   
856.000000	0.116398   
856.500000	0.078977   
857.000000	0.050727   
857.500000	0.035912   
858.000000	0.061805   
858.500000	0.112608   
859.000000	0.178389   
859.500000	0.241899   
860.000000	0.275992   
860.500000	0.278614   
861.000000	0.240716   
861.500000	0.199187   
862.000000	0.128602   
862.500000	0.069810   
863.000000	0.045469   
863.500000	0.029931   
864.000000	0.018755   
864.500000	0.010439   
865.000000	0.000244   
865.500000	-0.057862  
866.000000	-0.141055  
866.500000	-0.174827  
867.000000	-0.171326  
867.500000	-0.135588  
868.000000	-0.051166  
868.500000	0.059562   
869.000000	0.129788   
869.500000	0.123975   
870.000000	0.086551   
870.500000	0.026102   
871.000000	-0.048742  
871.500000	-0.097573  
872.000000	-0.121695  
872.500000	-0.119421  
873.000000	-0.108725  
873.500000	-0.082647  
874.000000	-0.055415  
874.500000	-0.036456  
875.000000	-0.025560  
875.500000	-0.041981  
876.000000	-0.089504  
876.500000	-0.132769  
877.000000	-0.160079  
877.500000	-0.156406  
878.000000	-0.144695  
878.500000	-0.108274  
879.000000	-0.097816  
879.500000	-0.092968  
880.000000	-0.077920  
880.500000	-0.061881  
881.000000	-0.021820  
881.500000	0.024012   
882.000000	0.094790   
882.500000	0.104207   
883.000000	0.102269   
883.500000	0.082907   
884.000000	0.035306   
884.500000	0.001862   
885.000000	-0.039161  
885.500000	-0.060883  
886.000000	-0.132654  
886.500000	-0.185517  
887.000000	-0.226356  
887.500000	-0.246430  
888.000000	-0.209864  
888.500000	-0.142701  
889.000000	-0.052736  
889.500000	0.010825   
890.000000	0.067434   
890.500000	0.083734   
891.000000	0.054044   
891.500000	0.010126   
892.000000	-0.040231  
892.500000	-0.079977  
893.000000	-0.115202  
893.500000	-0.114500  
894.000000	-0.104027  
894.500000	-0.108087  
895.000000	-0.127929  
895.500000	-0.139974  
896.000000	-0.136949  
896.500000	-0.160664  

