PE FL                   SPECTRUM    ASCII       PEDS        1.60        
  -1
S01B97~1.SP
24/04/11
17:18:54.00
24/04/11
17:18:54.00
Jan

896.500000
1









LS55
405.00
5.00
5.00
SCAN
1
20
100
100
0
400
0
1
0
1
5
ON
736 405 
1 0 0
#HDR
-1
-1
#GR
NM

0.00002384185791015625
0.0
450.000000
0.500000
894
8
314.409059
-0.256877
#DATA
450.000000	0.201000   
450.500000	0.151573   
451.000000	0.071447   
451.500000	-0.007632  
452.000000	-0.039510  
452.500000	-0.040092  
453.000000	-0.018858  
453.500000	0.051380   
454.000000	0.122369   
454.500000	0.150506   
455.000000	0.158385   
455.500000	0.154547   
456.000000	0.143810   
456.500000	0.102705   
457.000000	0.080367   
457.500000	0.087571   
458.000000	0.108248   
458.500000	0.149935   
459.000000	0.207341   
459.500000	0.285096   
460.000000	0.311692   
460.500000	0.272415   
461.000000	0.198332   
461.500000	0.113936   
462.000000	0.066979   
462.500000	0.059471   
463.000000	0.086523   
463.500000	0.122810   
464.000000	0.144638   
464.500000	0.133595   
465.000000	0.124959   
465.500000	0.134005   
466.000000	0.137699   
466.500000	0.130352   
467.000000	0.133699   
467.500000	0.164558   
468.000000	0.186179   
468.500000	0.194096   
469.000000	0.223771   
469.500000	0.258155   
470.000000	0.261226   
470.500000	0.231278   
471.000000	0.215901   
471.500000	0.199833   
472.000000	0.178764   
472.500000	0.152990   
473.000000	0.166974   
473.500000	0.178116   
474.000000	0.172730   
474.500000	0.195645   
475.000000	0.219910   
475.500000	0.196632   
476.000000	0.088400   
476.500000	-0.054046  
477.000000	-0.165009  
477.500000	-0.249469  
478.000000	-0.256877  
478.500000	-0.170948  
479.000000	-0.039870  
479.500000	0.045473   
480.000000	0.065998   
480.500000	0.039944   
481.000000	-0.043460  
481.500000	-0.154298  
482.000000	-0.207614  
482.500000	-0.213508  
483.000000	-0.201437  
483.500000	-0.178289  
484.000000	-0.144549  
484.500000	-0.101380  
485.000000	-0.051625  
485.500000	0.027541   
486.000000	0.130658   
486.500000	0.224473   
487.000000	0.331090   
487.500000	0.391923   
488.000000	0.379914   
488.500000	0.348862   
489.000000	0.301627   
489.500000	0.250037   
490.000000	0.219912   
490.500000	0.257764   
491.000000	0.299424   
491.500000	0.293371   
492.000000	0.268810   
492.500000	0.208252   
493.000000	0.108237   
493.500000	0.001387   
494.000000	-0.029482  
494.500000	-0.000836  
495.000000	0.082178   
495.500000	0.176159   
496.000000	0.255243   
496.500000	0.280543   
497.000000	0.252333   
497.500000	0.209571   
498.000000	0.176651   
498.500000	0.189419   
499.000000	0.252335   
499.500000	0.340307   
500.000000	0.435072   
500.500000	0.508124   
501.000000	0.540528   
501.500000	0.546500   
502.000000	0.553435   
502.500000	0.614538   
503.000000	0.683922   
503.500000	0.780593   
504.000000	0.878905   
504.500000	0.924398   
505.000000	0.939161   
505.500000	0.892218   
506.000000	0.871738   
506.500000	0.857890   
507.000000	0.870679   
507.500000	0.879820   
508.000000	0.884814   
508.500000	0.907226   
509.000000	0.903244   
509.500000	0.955363   
510.000000	1.112059   
510.500000	1.358220   
511.000000	1.592348   
511.500000	1.781410   
512.000000	1.952094   
512.500000	2.009382   
513.000000	1.957460   
513.500000	1.930526   
514.000000	1.967122   
514.500000	2.041588   
515.000000	2.085615   
515.500000	2.150538   
516.000000	2.181602   
516.500000	2.171641   
517.000000	2.188320   
517.500000	2.243525   
518.000000	2.391105   
518.500000	2.548578   
519.000000	2.702593   
519.500000	2.795500   
520.000000	2.832139   
520.500000	2.820393   
521.000000	2.789270   
521.500000	2.799499   
522.000000	2.828539   
522.500000	2.911296   
523.000000	2.934805   
523.500000	3.002237   
524.000000	3.066046   
524.500000	3.170070   
525.000000	3.330679   
525.500000	3.516502   
526.000000	3.783779   
526.500000	3.989617   
527.000000	4.228599   
527.500000	4.414723   
528.000000	4.555825   
528.500000	4.768868   
529.000000	4.962287   
529.500000	5.201619   
530.000000	5.379202   
530.500000	5.559217   
531.000000	5.733400   
531.500000	5.790801   
532.000000	5.917556   
532.500000	6.068007   
533.000000	6.294337   
533.500000	6.567781   
534.000000	6.842688   
534.500000	7.164020   
535.000000	7.396764   
535.500000	7.674038   
536.000000	7.975012   
536.500000	8.319654   
537.000000	8.761753   
537.500000	9.225615   
538.000000	9.779452   
538.500000	10.317072  
539.000000	10.797847  
539.500000	11.257051  
540.000000	11.585849  
540.500000	11.814233  
541.000000	11.925697  
541.500000	12.010207  
542.000000	12.068706  
542.500000	12.010903  
543.000000	12.050460  
543.500000	12.062799  
544.000000	11.987153  
544.500000	11.841584  
545.000000	11.713799  
545.500000	11.653849  
546.000000	11.497569  
546.500000	11.339142  
547.000000	11.187658  
547.500000	10.996953  
548.000000	10.781814  
548.500000	10.620660  
549.000000	10.632868  
549.500000	10.653244  
550.000000	10.657927  
550.500000	10.670643  
551.000000	10.638434  
551.500000	10.542534  
552.000000	10.376675  
552.500000	10.380282  
553.000000	10.382792  
553.500000	10.359183  
554.000000	10.347419  
554.500000	10.389044  
555.000000	10.482539  
555.500000	10.535116  
556.000000	10.830981  
556.500000	11.175211  
557.000000	11.517153  
557.500000	11.843354  
558.000000	12.164489  
558.500000	12.500094  
559.000000	12.673756  
559.500000	12.896680  
560.000000	13.142423  
560.500000	13.333226  
561.000000	13.578256  
561.500000	13.901081  
562.000000	14.336972  
562.500000	14.906569  
563.000000	15.568070  
563.500000	16.244246  
564.000000	16.863252  
564.500000	17.515012  
565.000000	18.116126  
565.500000	18.616215  
566.000000	19.090508  
566.500000	19.584233  
567.000000	20.100458  
567.500000	20.618476  
568.000000	21.245755  
568.500000	21.971968  
569.000000	22.688831  
569.500000	23.378050  
570.000000	24.084452  
570.500000	24.828192  
571.000000	25.563883  
571.500000	26.287879  
572.000000	27.001578  
572.500000	27.701790  
573.000000	28.170150  
573.500000	28.499415  
574.000000	28.774148  
574.500000	29.054050  
575.000000	29.532716  
575.500000	30.149491  
576.000000	30.994677  
576.500000	31.819499  
577.000000	32.647330  
577.500000	33.447883  
578.000000	34.151404  
578.500000	34.985359  
579.000000	35.812191  
579.500000	36.712820  
580.000000	37.475282  
580.500000	38.132697  
581.000000	38.818729  
581.500000	39.361575  
582.000000	40.054152  
582.500000	40.829320  
583.000000	41.880593  
583.500000	43.162944  
584.000000	44.373508  
584.500000	45.800547  
585.000000	47.186675  
585.500000	48.637478  
586.000000	50.094820  
586.500000	51.568797  
587.000000	53.128398  
587.500000	54.347760  
588.000000	55.676309  
588.500000	57.027692  
589.000000	58.490358  
589.500000	60.080729  
590.000000	61.806862  
590.500000	63.793745  
591.000000	65.557740  
591.500000	67.150621  
592.000000	68.558053  
592.500000	69.843063  
593.000000	71.020077  
593.500000	72.203376  
594.000000	73.597445  
594.500000	75.182820  
595.000000	76.703825  
595.500000	78.091480  
596.000000	79.542228  
596.500000	81.003801  
597.000000	82.482660  
597.500000	84.171827  
598.000000	86.567423  
598.500000	89.284153  
599.000000	91.856371  
599.500000	94.378105  
600.000000	96.849152  
600.500000	99.039452  
601.000000	100.994380 
601.500000	103.200300 
602.000000	105.523111 
602.500000	107.601257 
603.000000	109.294781 
603.500000	110.958526 
604.000000	112.546632 
604.500000	114.383623 
605.000000	116.830497 
605.500000	119.796103 
606.000000	122.954439 
606.500000	125.978241 
607.000000	129.005922 
607.500000	131.981905 
608.000000	135.190764 
608.500000	138.822964 
609.000000	142.660890 
609.500000	146.597187 
610.000000	150.107820 
610.500000	152.974877 
611.000000	155.371040 
611.500000	157.469411 
612.000000	159.653269 
612.500000	162.100371 
613.000000	165.323927 
613.500000	169.111539 
614.000000	173.016697 
614.500000	176.633981 
615.000000	180.051217 
615.500000	183.255159 
616.000000	186.005487 
616.500000	189.027066 
617.000000	192.300807 
617.500000	195.896858 
618.000000	199.420196 
618.500000	202.831712 
619.000000	206.336365 
619.500000	209.307100 
620.000000	212.272920 
620.500000	215.384304 
621.000000	218.790448 
621.500000	222.413929 
622.000000	225.929189 
622.500000	229.417749 
623.000000	232.678844 
623.500000	235.741619 
624.000000	238.952534 
624.500000	242.126846 
625.000000	245.472567 
625.500000	248.914771 
626.000000	252.378196 
626.500000	255.913840 
627.000000	259.386215 
627.500000	263.155640 
628.000000	267.275855 
628.500000	271.066857 
629.000000	274.752278 
629.500000	277.757402 
630.000000	280.051166 
630.500000	282.006358 
631.000000	283.767922 
631.500000	286.025974 
632.000000	288.074131 
632.500000	290.330406 
633.000000	292.451799 
633.500000	294.235949 
634.000000	296.297781 
634.500000	298.701050 
635.000000	301.624378 
635.500000	304.119256 
636.000000	306.586441 
636.500000	308.434398 
637.000000	309.536864 
637.500000	309.886614 
638.000000	310.324677 
638.500000	310.944632 
639.000000	311.552142 
639.500000	312.544109 
640.000000	313.419298 
640.500000	314.190473 
641.000000	314.409059 
641.500000	314.374614 
642.000000	314.151545 
642.500000	313.748278 
643.000000	313.649743 
643.500000	313.470775 
644.000000	313.326502 
644.500000	313.116972 
645.000000	312.566875 
645.500000	311.383179 
646.000000	309.598870 
646.500000	307.992254 
647.000000	306.173111 
647.500000	304.369178 
648.000000	302.796525 
648.500000	301.567942 
649.000000	300.277690 
649.500000	298.432679 
650.000000	296.572699 
650.500000	294.071554 
651.000000	291.073996 
651.500000	287.485769 
652.000000	284.067719 
652.500000	280.828883 
653.000000	277.594751 
653.500000	274.937469 
654.000000	272.469716 
654.500000	270.258751 
655.000000	267.405369 
655.500000	264.320955 
656.000000	260.851358 
656.500000	257.121677 
657.000000	253.074944 
657.500000	248.677814 
658.000000	244.783625 
658.500000	240.919597 
659.000000	237.388968 
659.500000	233.805018 
660.000000	230.525283 
660.500000	226.990769 
661.000000	222.957038 
661.500000	218.749964 
662.000000	214.140966 
662.500000	209.359573 
663.000000	204.494508 
663.500000	199.963779 
664.000000	195.361775 
664.500000	191.205157 
665.000000	187.235246 
665.500000	183.388942 
666.000000	179.530365 
666.500000	175.730237 
667.000000	172.031888 
667.500000	167.674790 
668.000000	163.359833 
668.500000	158.936946 
669.000000	154.764582 
669.500000	150.586415 
670.000000	146.302729 
670.500000	142.101517 
671.000000	137.984788 
671.500000	134.160202 
672.000000	130.519038 
672.500000	127.293994 
673.000000	124.484771 
673.500000	121.591573 
674.000000	118.394059 
674.500000	115.144621 
675.000000	111.796846 
675.500000	108.408181 
676.000000	105.224192 
676.500000	102.436473 
677.000000	99.878324  
677.500000	97.245243  
678.000000	94.732432  
678.500000	91.953948  
679.000000	89.308476  
679.500000	86.670751  
680.000000	84.121372  
680.500000	81.718398  
681.000000	79.618903  
681.500000	77.721773  
682.000000	75.528426  
682.500000	73.196322  
683.000000	70.915035  
683.500000	68.459927  
684.000000	65.964159  
684.500000	63.963972  
685.000000	62.191159  
685.500000	60.518649  
686.000000	58.878682  
686.500000	57.500688  
687.000000	55.958467  
687.500000	54.191940  
688.000000	52.533270  
688.500000	50.760569  
689.000000	48.960961  
689.500000	47.070408  
690.000000	45.500244  
690.500000	44.189031  
691.000000	43.198653  
691.500000	42.446478  
692.000000	41.712823  
692.500000	40.809168  
693.000000	39.724962  
693.500000	38.577805  
694.000000	37.342224  
694.500000	36.288139  
695.000000	35.337296  
695.500000	34.469829  
696.000000	33.574029  
696.500000	32.581296  
697.000000	31.491907  
697.500000	30.311892  
698.000000	29.305584  
698.500000	28.426430  
699.000000	27.689141  
699.500000	27.004871  
700.000000	26.376148  
700.500000	25.740259  
701.000000	25.159452  
701.500000	24.664437  
702.000000	24.144860  
702.500000	23.658599  
703.000000	23.123372  
703.500000	22.494634  
704.000000	21.769320  
704.500000	21.110155  
705.000000	20.628901  
705.500000	20.246012  
706.000000	20.004805  
706.500000	19.826782  
707.000000	19.511768  
707.500000	19.051415  
708.000000	18.570094  
708.500000	18.058502  
709.000000	17.587842  
709.500000	17.222495  
710.000000	16.985304  
710.500000	16.724946  
711.000000	16.413593  
711.500000	16.094957  
712.000000	15.778658  
712.500000	15.482820  
713.000000	15.190443  
713.500000	14.908677  
714.000000	14.586315  
714.500000	14.288328  
715.000000	14.031087  
715.500000	13.755417  
716.000000	13.499118  
716.500000	13.251083  
717.000000	12.944855  
717.500000	12.582320  
718.000000	12.264875  
718.500000	12.059905  
719.000000	11.898430  
719.500000	11.787426  
720.000000	11.721040  
720.500000	11.655237  
721.000000	11.517307  
721.500000	11.297795  
722.000000	11.146695  
722.500000	10.989649  
723.000000	10.759408  
723.500000	10.449192  
724.000000	10.150332  
724.500000	9.969098   
725.000000	9.787914   
725.500000	9.639018   
726.000000	9.559029   
726.500000	9.486404   
727.000000	9.274896   
727.500000	9.012042   
728.000000	8.832220   
728.500000	8.647736   
729.000000	8.449884   
729.500000	8.298218   
730.000000	8.218220   
730.500000	8.124343   
731.000000	8.016847   
731.500000	8.038959   
732.000000	8.091107   
732.500000	8.162432   
733.000000	8.117178   
733.500000	8.005461   
734.000000	7.885727   
734.500000	7.725335   
735.000000	7.581460   
735.500000	7.439322   
736.000000	7.403011   
736.500000	7.325701   
737.000000	7.133280   
737.500000	6.957719   
738.000000	6.840536   
738.500000	6.717118   
739.000000	6.606795   
739.500000	6.613484   
740.000000	6.679964   
740.500000	6.652484   
741.000000	6.576936   
741.500000	6.487142   
742.000000	6.325582   
742.500000	6.141602   
743.000000	6.043786   
743.500000	6.022792   
744.000000	6.025964   
744.500000	6.109983   
745.000000	6.215153   
745.500000	6.265152   
746.000000	6.269491   
746.500000	6.258866   
747.000000	6.167137   
747.500000	5.957315   
748.000000	5.733012   
748.500000	5.484504   
749.000000	5.187391   
749.500000	4.955163   
750.000000	4.840365   
750.500000	4.730846   
751.000000	4.650269   
751.500000	4.647241   
752.000000	4.687324   
752.500000	4.674172   
753.000000	4.721209   
753.500000	4.842738   
754.000000	4.903081   
754.500000	4.871178   
755.000000	4.790582   
755.500000	4.706625   
756.000000	4.598298   
756.500000	4.478326   
757.000000	4.487799   
757.500000	4.551137   
758.000000	4.610430   
758.500000	4.614909   
759.000000	4.595469   
759.500000	4.578384   
760.000000	4.482526   
760.500000	4.379289   
761.000000	4.339742   
761.500000	4.342035   
762.000000	4.315172   
762.500000	4.246328   
763.000000	4.171808   
763.500000	4.062653   
764.000000	3.937712   
764.500000	3.861109   
765.000000	3.895853   
765.500000	3.973382   
766.000000	4.104115   
766.500000	4.272122   
767.000000	4.410473   
767.500000	4.424172   
768.000000	4.353977   
768.500000	4.261679   
769.000000	4.091339   
769.500000	3.893743   
770.000000	3.748871   
770.500000	3.593717   
771.000000	3.504925   
771.500000	3.479291   
772.000000	3.561504   
772.500000	3.665604   
773.000000	3.778493   
773.500000	3.892870   
774.000000	3.873794   
774.500000	3.725693   
775.000000	3.533688   
775.500000	3.336667   
776.000000	3.176424   
776.500000	3.081788   
777.000000	3.106725   
777.500000	3.180128   
778.000000	3.233974   
778.500000	3.304428   
779.000000	3.363474   
779.500000	3.429588   
780.000000	3.410487   
780.500000	3.330554   
781.000000	3.283853   
781.500000	3.185723   
782.000000	3.108821   
782.500000	3.030922   
783.000000	3.089421   
783.500000	3.139224   
784.000000	3.174489   
784.500000	3.214617   
785.000000	3.222712   
785.500000	3.241916   
786.000000	3.177142   
786.500000	3.149562   
787.000000	3.094658   
787.500000	3.007024   
788.000000	2.921716   
788.500000	2.837441   
789.000000	2.829358   
789.500000	2.811712   
790.000000	2.846044   
790.500000	2.897831   
791.000000	2.971654   
791.500000	3.033576   
792.000000	3.042354   
792.500000	3.017922   
793.000000	2.947204   
793.500000	2.861493   
794.000000	2.769990   
794.500000	2.708825   
795.000000	2.696294   
795.500000	2.712808   
796.000000	2.753139   
796.500000	2.785202   
797.000000	2.819870   
797.500000	2.778636   
798.000000	2.673417   
798.500000	2.497771   
799.000000	2.315441   
799.500000	2.174851   
800.000000	2.066877   
800.500000	2.071751   
801.000000	2.143100   
801.500000	2.241983   
802.000000	2.296068   
802.500000	2.335166   
803.000000	2.378289   
803.500000	2.371434   
804.000000	2.364463   
804.500000	2.326198   
805.000000	2.271419   
805.500000	2.164473   
806.000000	2.056539   
806.500000	1.986354   
807.000000	1.975079   
807.500000	2.029847   
808.000000	2.118628   
808.500000	2.167504   
809.000000	2.169933   
809.500000	2.118285   
810.000000	2.018538   
810.500000	1.925293   
811.000000	1.878905   
811.500000	1.918196   
812.000000	1.988025   
812.500000	2.071779   
813.000000	2.162820   
813.500000	2.226395   
814.000000	2.222833   
814.500000	2.149994   
815.000000	2.108575   
815.500000	2.047000   
816.000000	1.935307   
816.500000	1.811588   
817.000000	1.753280   
817.500000	1.713688   
818.000000	1.697174   
818.500000	1.777985   
819.000000	1.898016   
819.500000	1.965220   
820.000000	2.039987   
820.500000	2.154326   
821.000000	2.208834   
821.500000	2.199569   
822.000000	2.236597   
822.500000	2.249768   
823.000000	2.211610   
823.500000	2.229938   
824.000000	2.340920   
824.500000	2.453538   
825.000000	2.528962   
825.500000	2.643448   
826.000000	2.707565   
826.500000	2.656204   
827.000000	2.546977   
827.500000	2.419877   
828.000000	2.263964   
828.500000	2.042115   
829.000000	1.846825   
829.500000	1.678452   
830.000000	1.531000   
830.500000	1.453269   
831.000000	1.438834   
831.500000	1.473267   
832.000000	1.491628   
832.500000	1.492602   
833.000000	1.461152   
833.500000	1.370717   
834.000000	1.271955   
834.500000	1.173031   
835.000000	1.098050   
835.500000	1.032940   
836.000000	0.999962   
836.500000	0.991730   
837.000000	0.973638   
837.500000	0.969536   
838.000000	0.960461   
838.500000	0.967547   
839.000000	0.973654   
839.500000	1.008038   
840.000000	1.027931   
840.500000	0.989124   
841.000000	0.929378   
841.500000	0.844094   
842.000000	0.736860   
842.500000	0.605031   
843.000000	0.527456   
843.500000	0.512745   
844.000000	0.510948   
844.500000	0.524966   
845.000000	0.576647   
845.500000	0.640764   
846.000000	0.667307   
846.500000	0.667888   
847.000000	0.625935   
847.500000	0.523057   
848.000000	0.356395   
848.500000	0.182552   
849.000000	0.027220   
849.500000	-0.026122  
850.000000	0.021840   
850.500000	0.097706   
851.000000	0.226235   
851.500000	0.337777   
852.000000	0.394092   
852.500000	0.352777   
853.000000	0.290602   
853.500000	0.199044   
854.000000	0.055413   
854.500000	-0.058487  
855.000000	-0.110105  
855.500000	-0.100335  
856.000000	-0.066840  
856.500000	-0.003077  
857.000000	0.073673   
857.500000	0.101775   
858.000000	0.110165   
858.500000	0.116866   
859.000000	0.118977   
859.500000	0.132781   
860.000000	0.131398   
860.500000	0.136165   
861.000000	0.137478   
861.500000	0.102102   
862.000000	0.061881   
862.500000	0.007703   
863.000000	-0.034050  
863.500000	-0.085473  
864.000000	-0.115853  
864.500000	-0.078630  
865.000000	-0.019445  
865.500000	0.080092   
866.000000	0.150335   
866.500000	0.172152   
867.000000	0.157630   
867.500000	0.098094   
868.000000	0.064604   
868.500000	0.056153   
869.000000	0.059111   
869.500000	0.065931   
870.000000	0.058048   
870.500000	0.059495   
871.000000	0.034263   
871.500000	-0.001311  
872.000000	-0.000471  
872.500000	-0.005712  
873.000000	-0.024786  
873.500000	-0.067929  
874.000000	-0.089910  
874.500000	-0.090346  
875.000000	-0.102836  
875.500000	-0.065879  
876.000000	-0.023272  
876.500000	-0.015576  
877.000000	-0.045686  
877.500000	-0.084222  
878.000000	-0.111372  
878.500000	-0.142816  
879.000000	-0.161614  
879.500000	-0.153664  
880.000000	-0.146098  
880.500000	-0.123712  
881.000000	-0.115092  
881.500000	-0.120567  
882.000000	-0.107903  
882.500000	-0.058669  
883.000000	-0.012942  
883.500000	0.026024   
884.000000	0.074944   
884.500000	0.104207   
885.000000	0.070738   
885.500000	0.015914   
886.000000	-0.022779  
886.500000	-0.060756  
887.000000	-0.103484  
887.500000	-0.112864  
888.000000	-0.090447  
888.500000	-0.087235  
889.000000	-0.103090  
889.500000	-0.117330  
890.000000	-0.085775  
890.500000	-0.067725  
891.000000	-0.036677  
891.500000	0.012356   
892.000000	0.058220   
892.500000	0.082170   
893.000000	0.052411   
893.500000	0.047857   
894.000000	0.014350   
894.500000	-0.007018  
895.000000	-0.008042  
895.500000	0.004081   
896.000000	0.035703   
896.500000	0.051710   

