PE FL                   SPECTRUM    ASCII       PEDS        1.60        
  -1
S01387~1.SP
24/04/11
17:14:38.00
24/04/11
17:14:38.00
Jan

896.500000
1









LS55
405.00
5.00
5.00
SCAN
1
20
100
100
0
400
0
1
0
1
5
ON
736 405 
1 0 0
#HDR
-1
-1
#GR
NM

0.00002384185791015625
0.0
450.000000
0.500000
894
8
320.602231
-0.300070
#DATA
450.000000	-0.001000  
450.500000	0.148981   
451.000000	0.240755   
451.500000	0.212647   
452.000000	0.111137   
452.500000	-0.078074  
453.000000	-0.230194  
453.500000	-0.300070  
454.000000	-0.254018  
454.500000	-0.136369  
455.000000	-0.011456  
455.500000	0.103220   
456.000000	0.111478   
456.500000	0.039831   
457.000000	-0.033679  
457.500000	-0.072142  
458.000000	-0.044844  
458.500000	0.007205   
459.000000	0.111628   
459.500000	0.185862   
460.000000	0.174033   
460.500000	0.147385   
461.000000	0.082198   
461.500000	0.070708   
462.000000	0.079428   
462.500000	0.116499   
463.000000	0.164350   
463.500000	0.174337   
464.000000	0.217205   
464.500000	0.201816   
465.000000	0.202165   
465.500000	0.216680   
466.000000	0.205756   
466.500000	0.178584   
467.000000	0.100465   
467.500000	0.064027   
468.000000	0.022419   
468.500000	0.012239   
469.000000	0.062282   
469.500000	0.113792   
470.000000	0.137102   
470.500000	0.110818   
471.000000	0.086873   
471.500000	0.017821   
472.000000	-0.054504  
472.500000	-0.078983  
473.000000	-0.068610  
473.500000	-0.043435  
474.000000	0.006688   
474.500000	0.077775   
475.000000	0.087881   
475.500000	0.061847   
476.000000	0.037773   
476.500000	-0.002977  
477.000000	-0.024749  
477.500000	0.014276   
478.000000	0.086948   
478.500000	0.091380   
479.000000	0.066205   
479.500000	0.023356   
480.000000	-0.066332  
480.500000	-0.095625  
481.000000	-0.026018  
481.500000	0.134372   
482.000000	0.269289   
482.500000	0.373354   
483.000000	0.427480   
483.500000	0.401675   
484.000000	0.334289   
484.500000	0.253473   
485.000000	0.236556   
485.500000	0.215285   
486.000000	0.197827   
486.500000	0.164437   
487.000000	0.177426   
487.500000	0.218808   
488.000000	0.240927   
488.500000	0.303122   
489.000000	0.347857   
489.500000	0.366810   
490.000000	0.314371   
490.500000	0.303743   
491.000000	0.285573   
491.500000	0.233367   
492.000000	0.208612   
492.500000	0.192539   
493.000000	0.199712   
493.500000	0.137081   
494.000000	0.089601   
494.500000	0.039243   
495.000000	-0.013515  
495.500000	-0.038307  
496.000000	0.015423   
496.500000	0.149666   
497.000000	0.295159   
497.500000	0.440766   
498.000000	0.541009   
498.500000	0.545261   
499.000000	0.492424   
499.500000	0.455150   
500.000000	0.454406   
500.500000	0.517701   
501.000000	0.600435   
501.500000	0.691688   
502.000000	0.733012   
502.500000	0.734079   
503.000000	0.700564   
503.500000	0.656955   
504.000000	0.638473   
504.500000	0.640089   
505.000000	0.671536   
505.500000	0.712435   
506.000000	0.785582   
506.500000	0.837758   
507.000000	0.876894   
507.500000	0.921430   
508.000000	0.998296   
508.500000	1.058063   
509.000000	1.126588   
509.500000	1.229129   
510.000000	1.325987   
510.500000	1.377265   
511.000000	1.398667   
511.500000	1.465743   
512.000000	1.520118   
512.500000	1.612239   
513.000000	1.726996   
513.500000	1.883615   
514.000000	2.026790   
514.500000	2.097298   
515.000000	2.177257   
515.500000	2.232781   
516.000000	2.326092   
516.500000	2.425456   
517.000000	2.537328   
517.500000	2.662881   
518.000000	2.732651   
518.500000	2.747656   
519.000000	2.740090   
519.500000	2.718499   
520.000000	2.681333   
520.500000	2.652333   
521.000000	2.658283   
521.500000	2.685380   
522.000000	2.709016   
522.500000	2.795320   
523.000000	2.907395   
523.500000	3.048834   
524.000000	3.202554   
524.500000	3.401645   
525.000000	3.577625   
525.500000	3.689935   
526.000000	3.780990   
526.500000	3.870090   
527.000000	3.987717   
527.500000	4.082128   
528.000000	4.279821   
528.500000	4.503398   
529.000000	4.740209   
529.500000	4.954025   
530.000000	5.165304   
530.500000	5.375424   
531.000000	5.580840   
531.500000	5.862536   
532.000000	6.178569   
532.500000	6.486521   
533.000000	6.752022   
533.500000	6.970029   
534.000000	7.118287   
534.500000	7.290391   
535.000000	7.566044   
535.500000	7.934591   
536.000000	8.317378   
536.500000	8.754493   
537.000000	9.163029   
537.500000	9.497380   
538.000000	9.710875   
538.500000	9.941523   
539.000000	10.226684  
539.500000	10.473853  
540.000000	10.705916  
540.500000	10.865152  
541.000000	11.066740  
541.500000	11.236096  
542.000000	11.455697  
542.500000	11.726807  
543.000000	12.021738  
543.500000	12.247573  
544.000000	12.355111  
544.500000	12.322684  
545.000000	12.187836  
545.500000	12.019838  
546.000000	11.770128  
546.500000	11.481762  
547.000000	11.205102  
547.500000	10.977235  
548.000000	10.755434  
548.500000	10.647706  
549.000000	10.737304  
549.500000	10.881894  
550.000000	10.935684  
550.500000	10.946543  
551.000000	10.889940  
551.500000	10.746599  
552.000000	10.549411  
552.500000	10.429988  
553.000000	10.361118  
553.500000	10.293576  
554.000000	10.357029  
554.500000	10.494009  
555.000000	10.701139  
555.500000	10.952844  
556.000000	11.304282  
556.500000	11.625938  
557.000000	11.835528  
557.500000	11.967888  
558.000000	12.086153  
558.500000	12.159888  
559.000000	12.208382  
559.500000	12.365849  
560.000000	12.714070  
560.500000	13.144992  
561.000000	13.681643  
561.500000	14.316076  
562.000000	14.903406  
562.500000	15.433918  
563.000000	15.890243  
563.500000	16.391779  
564.000000	16.865426  
564.500000	17.351382  
565.000000	17.926391  
565.500000	18.481003  
566.000000	19.035717  
566.500000	19.598972  
567.000000	20.199506  
567.500000	20.781749  
568.000000	21.328988  
568.500000	21.950022  
569.000000	22.491858  
569.500000	23.001860  
570.000000	23.493953  
570.500000	24.023892  
571.000000	24.737103  
571.500000	25.546714  
572.000000	26.509805  
572.500000	27.550348  
573.000000	28.484588  
573.500000	29.173358  
574.000000	29.538756  
574.500000	29.776018  
575.000000	30.006515  
575.500000	30.360868  
576.000000	31.089840  
576.500000	32.042454  
577.000000	33.092695  
577.500000	34.136697  
578.000000	35.112170  
578.500000	35.979126  
579.000000	36.568380  
579.500000	37.278209  
580.000000	38.075005  
580.500000	38.725382  
581.000000	39.490361  
581.500000	40.414116  
582.000000	41.559252  
582.500000	42.656812  
583.000000	43.799942  
583.500000	45.084604  
584.000000	46.124864  
584.500000	47.066059  
585.000000	47.908105  
585.500000	48.900241  
586.000000	49.987322  
586.500000	51.182005  
587.000000	52.607970  
587.500000	54.028745  
588.000000	55.490662  
588.500000	56.953274  
589.000000	58.344825  
589.500000	59.693532  
590.000000	61.100066  
590.500000	62.348250  
591.000000	63.723664  
591.500000	65.328862  
592.000000	67.345185  
592.500000	69.398825  
593.000000	71.256864  
593.500000	73.081580  
594.000000	74.385654  
594.500000	75.484653  
595.000000	76.401530  
595.500000	77.664612  
596.000000	79.300747  
596.500000	81.155076  
597.000000	83.425040  
597.500000	85.622291  
598.000000	87.944447  
598.500000	90.200244  
599.000000	92.510432  
599.500000	94.854936  
600.000000	97.256519  
600.500000	99.576400  
601.000000	101.793096 
601.500000	104.004641 
602.000000	106.211300 
602.500000	108.258107 
603.000000	110.274035 
603.500000	112.618204 
604.000000	114.979220 
604.500000	117.455293 
605.000000	119.890376 
605.500000	122.369209 
606.000000	124.732228 
606.500000	126.970465 
607.000000	129.480389 
607.500000	132.214384 
608.000000	135.321448 
608.500000	138.334410 
609.000000	141.736918 
609.500000	145.059085 
610.000000	148.059289 
610.500000	151.038263 
611.000000	153.782395 
611.500000	156.618467 
612.000000	159.258126 
612.500000	162.441480 
613.000000	166.028584 
613.500000	169.635914 
614.000000	173.312202 
614.500000	176.780690 
615.000000	180.136556 
615.500000	182.992419 
616.000000	186.067404 
616.500000	189.495241 
617.000000	193.027716 
617.500000	196.681879 
618.000000	200.328790 
618.500000	204.195450 
619.000000	208.013762 
619.500000	211.907775 
620.000000	215.699007 
620.500000	219.626578 
621.000000	223.294228 
621.500000	226.635265 
622.000000	230.011923 
622.500000	233.299833 
623.000000	237.166090 
623.500000	241.105610 
624.000000	245.234580 
624.500000	249.498144 
625.000000	253.437690 
625.500000	256.902667 
626.000000	259.506027 
626.500000	262.278851 
627.000000	264.569126 
627.500000	266.760419 
628.000000	269.205263 
628.500000	272.038983 
629.000000	275.375259 
629.500000	278.528267 
630.000000	282.123385 
630.500000	285.433118 
631.000000	288.492792 
631.500000	291.425051 
632.000000	293.682317 
632.500000	295.445656 
633.000000	296.896565 
633.500000	298.959385 
634.000000	301.070430 
634.500000	303.479849 
635.000000	306.174413 
635.500000	308.802703 
636.000000	310.918293 
636.500000	312.427387 
637.000000	313.732051 
637.500000	314.647680 
638.000000	315.103369 
638.500000	315.397428 
639.000000	316.078174 
639.500000	316.655996 
640.000000	317.566925 
640.500000	318.609743 
641.000000	319.833782 
641.500000	320.595962 
642.000000	320.602231 
642.500000	320.372747 
643.000000	319.433799 
643.500000	318.490152 
644.000000	317.393102 
644.500000	317.073445 
645.000000	316.628899 
645.500000	315.933012 
646.000000	315.333690 
646.500000	314.416172 
647.000000	313.266653 
647.500000	311.307534 
648.000000	309.468001 
648.500000	307.328792 
649.000000	305.043213 
649.500000	303.213977 
650.000000	301.962126 
650.500000	301.229159 
651.000000	300.181487 
651.500000	298.930111 
652.000000	296.766871 
652.500000	293.880476 
653.000000	290.531970 
653.500000	286.889178 
654.000000	283.372480 
654.500000	280.308909 
655.000000	277.657428 
655.500000	274.621653 
656.000000	271.427743 
656.500000	267.976608 
657.000000	264.095634 
657.500000	259.867398 
658.000000	255.670990 
658.500000	251.809456 
659.000000	247.777469 
659.500000	244.020964 
660.000000	240.345769 
660.500000	236.681141 
661.000000	232.732504 
661.500000	228.541543 
662.000000	224.316578 
662.500000	219.317339 
663.000000	214.038510 
663.500000	208.652183 
664.000000	203.488773 
664.500000	198.935298 
665.000000	194.807706 
665.500000	191.536348 
666.000000	188.156985 
666.500000	184.684115 
667.000000	180.766756 
667.500000	176.483790 
668.000000	172.028690 
668.500000	167.465397 
669.000000	163.227282 
669.500000	158.744228 
670.000000	154.321376 
670.500000	150.149899 
671.000000	145.991461 
671.500000	142.021842 
672.000000	138.214064 
672.500000	134.602450 
673.000000	130.851990 
673.500000	126.899641 
674.000000	123.068615 
674.500000	119.329890 
675.000000	115.630981 
675.500000	112.244662 
676.000000	109.239276 
676.500000	106.637380 
677.000000	103.856890 
677.500000	101.129220 
678.000000	98.233339  
678.500000	95.235873  
679.000000	92.285914  
679.500000	89.533751  
680.000000	87.340545  
680.500000	85.215742  
681.000000	83.359218  
681.500000	81.457808  
682.000000	79.399489  
682.500000	76.970671  
683.000000	74.507126  
683.500000	72.379341  
684.000000	70.207350  
684.500000	68.262860  
685.000000	66.264380  
685.500000	64.449957  
686.000000	62.256595  
686.500000	59.996909  
687.000000	57.890580  
687.500000	55.817280  
688.000000	53.914736  
688.500000	52.004293  
689.000000	50.492502  
689.500000	48.985940  
690.000000	47.631465  
690.500000	46.426252  
691.000000	45.411862  
691.500000	44.591239  
692.000000	43.651209  
692.500000	42.638625  
693.000000	41.530183  
693.500000	40.347397  
694.000000	39.069873  
694.500000	37.833805  
695.000000	36.800257  
695.500000	35.830753  
696.000000	34.907198  
696.500000	34.009781  
697.000000	33.181423  
697.500000	32.246178  
698.000000	31.249313  
698.500000	30.457178  
699.000000	29.752615  
699.500000	29.060051  
700.000000	28.377076  
700.500000	27.796517  
701.000000	27.063103  
701.500000	26.205842  
702.000000	25.483942  
702.500000	24.793560  
703.000000	24.134000  
703.500000	23.521695  
704.000000	23.106729  
704.500000	22.655699  
705.000000	22.089923  
705.500000	21.592283  
706.000000	21.142495  
706.500000	20.519107  
707.000000	19.965916  
707.500000	19.604593  
708.000000	19.283925  
708.500000	18.920944  
709.000000	18.694833  
709.500000	18.529239  
710.000000	18.105818  
710.500000	17.624044  
711.000000	17.156614  
711.500000	16.666803  
712.000000	16.141480  
712.500000	15.773361  
713.000000	15.580751  
713.500000	15.345801  
714.000000	15.044992  
714.500000	14.778469  
715.000000	14.454209  
715.500000	14.135270  
716.000000	13.903756  
716.500000	13.677725  
717.000000	13.503614  
717.500000	13.242376  
718.000000	12.949638  
718.500000	12.545784  
719.000000	12.186302  
719.500000	11.898337  
720.000000	11.602881  
720.500000	11.418111  
721.000000	11.254374  
721.500000	11.056827  
722.000000	10.800196  
722.500000	10.606072  
723.000000	10.524244  
723.500000	10.426779  
724.000000	10.346183  
724.500000	10.268183  
725.000000	10.096007  
725.500000	9.886799   
726.000000	9.690389   
726.500000	9.591120   
727.000000	9.550662   
727.500000	9.476393   
728.000000	9.358523   
728.500000	9.106588   
729.000000	8.786480   
729.500000	8.429204   
730.000000	8.157269   
730.500000	8.062693   
731.000000	8.075864   
731.500000	8.120760   
732.000000	8.122474   
732.500000	8.073094   
733.000000	8.003858   
733.500000	7.947465   
734.000000	7.902788   
734.500000	7.855864   
735.000000	7.846027   
735.500000	7.834667   
736.000000	7.787677   
736.500000	7.663371   
737.000000	7.570213   
737.500000	7.425534   
738.000000	7.184215   
738.500000	6.973051   
739.000000	6.781402   
739.500000	6.680649   
740.000000	6.595576   
740.500000	6.569979   
741.000000	6.574996   
741.500000	6.518578   
742.000000	6.460693   
742.500000	6.392131   
743.000000	6.349612   
743.500000	6.286968   
744.000000	6.143254   
744.500000	5.977538   
745.000000	5.800105   
745.500000	5.655181   
746.000000	5.584879   
746.500000	5.562324   
747.000000	5.570007   
747.500000	5.501610   
748.000000	5.362124   
748.500000	5.184816   
749.000000	5.014615   
749.500000	4.911152   
750.000000	4.967376   
750.500000	5.138777   
751.000000	5.323183   
751.500000	5.448038   
752.000000	5.463682   
752.500000	5.401272   
753.000000	5.240064   
753.500000	5.096237   
754.000000	4.964994   
754.500000	4.889875   
755.000000	4.888172   
755.500000	4.905883   
756.000000	4.865964   
756.500000	4.793074   
757.000000	4.719641   
757.500000	4.583634   
758.000000	4.402853   
758.500000	4.304031   
759.000000	4.286415   
759.500000	4.254200   
760.000000	4.319771   
760.500000	4.460567   
761.000000	4.571671   
761.500000	4.574784   
762.000000	4.559552   
762.500000	4.555211   
763.000000	4.518259   
763.500000	4.524115   
764.000000	4.573786   
764.500000	4.654391   
765.000000	4.671706   
765.500000	4.652276   
766.000000	4.561729   
766.500000	4.419901   
767.000000	4.253716   
767.500000	4.074545   
768.000000	3.911400   
768.500000	3.752178   
769.000000	3.589610   
769.500000	3.469109   
770.000000	3.400617   
770.500000	3.408066   
771.000000	3.477282   
771.500000	3.552948   
772.000000	3.619486   
772.500000	3.589994   
773.000000	3.538810   
773.500000	3.419424   
774.000000	3.294224   
774.500000	3.228727   
775.000000	3.202884   
775.500000	3.246554   
776.000000	3.263619   
776.500000	3.323606   
777.000000	3.360294   
777.500000	3.359458   
778.000000	3.347159   
778.500000	3.322411   
779.000000	3.304354   
779.500000	3.241070   
780.000000	3.158350   
780.500000	3.151983   
781.000000	3.179875   
781.500000	3.207040   
782.000000	3.226983   
782.500000	3.261207   
783.000000	3.241497   
783.500000	3.132090   
784.000000	3.052758   
784.500000	3.036105   
785.000000	3.042786   
785.500000	3.045508   
786.000000	3.094927   
786.500000	3.148307   
787.000000	3.097246   
787.500000	2.999435   
788.000000	2.914126   
788.500000	2.859044   
789.000000	2.829502   
789.500000	2.849536   
790.000000	2.924769   
790.500000	2.993792   
791.000000	3.038985   
791.500000	3.035786   
792.000000	2.985426   
792.500000	2.875632   
793.000000	2.753176   
793.500000	2.661148   
794.000000	2.611159   
794.500000	2.621374   
795.000000	2.660814   
795.500000	2.724367   
796.000000	2.760886   
796.500000	2.799448   
797.000000	2.798046   
797.500000	2.769782   
798.000000	2.719289   
798.500000	2.607862   
799.000000	2.495552   
799.500000	2.354000   
800.000000	2.237576   
800.500000	2.169269   
801.000000	2.197287   
801.500000	2.271508   
802.000000	2.312168   
802.500000	2.384319   
803.000000	2.386849   
803.500000	2.311059   
804.000000	2.201979   
804.500000	2.141465   
805.000000	2.081560   
805.500000	1.976484   
806.000000	1.941302   
806.500000	1.898126   
807.000000	1.836977   
807.500000	1.803766   
808.000000	1.883762   
808.500000	1.950222   
809.000000	1.976434   
809.500000	2.029027   
810.000000	2.039476   
810.500000	2.000291   
811.000000	1.899085   
811.500000	1.846402   
812.000000	1.769007   
812.500000	1.699333   
813.000000	1.644771   
813.500000	1.614187   
814.000000	1.625660   
814.500000	1.662766   
815.000000	1.750168   
815.500000	1.842419   
816.000000	1.931250   
816.500000	1.969942   
817.000000	1.922435   
817.500000	1.841526   
818.000000	1.778697   
818.500000	1.720959   
819.000000	1.699076   
819.500000	1.785721   
820.000000	1.969875   
820.500000	2.153593   
821.000000	2.350877   
821.500000	2.521022   
822.000000	2.617447   
822.500000	2.630610   
823.000000	2.620016   
823.500000	2.599836   
824.000000	2.532397   
824.500000	2.545192   
825.000000	2.564736   
825.500000	2.564283   
826.000000	2.516001   
826.500000	2.497289   
827.000000	2.442586   
827.500000	2.295124   
828.000000	2.210545   
828.500000	2.149695   
829.000000	2.060708   
829.500000	1.895341   
830.000000	1.758929   
830.500000	1.593795   
831.000000	1.385532   
831.500000	1.206064   
832.000000	1.098677   
832.500000	1.047693   
833.000000	1.008168   
833.500000	1.046452   
834.000000	1.080478   
834.500000	1.083929   
835.000000	1.061615   
835.500000	1.033385   
836.000000	0.993786   
836.500000	0.951038   
837.000000	0.948046   
837.500000	0.951654   
838.000000	0.966710   
838.500000	0.972105   
839.000000	0.986897   
839.500000	0.977534   
840.000000	0.926927   
840.500000	0.876200   
841.000000	0.775658   
841.500000	0.674942   
842.000000	0.540721   
842.500000	0.421753   
843.000000	0.365022   
843.500000	0.358981   
844.000000	0.436218   
844.500000	0.506048   
845.000000	0.581172   
845.500000	0.616172   
846.000000	0.613274   
846.500000	0.572870   
847.000000	0.498217   
847.500000	0.442244   
848.000000	0.377768   
848.500000	0.300122   
849.000000	0.270280   
849.500000	0.276246   
850.000000	0.285645   
850.500000	0.331948   
851.000000	0.353113   
851.500000	0.381936   
852.000000	0.340280   
852.500000	0.286658   
853.000000	0.246343   
853.500000	0.191619   
854.000000	0.170846   
854.500000	0.112597   
855.000000	0.066007   
855.500000	-0.006434  
856.000000	-0.077601  
856.500000	-0.091892  
857.000000	-0.106988  
857.500000	-0.066649  
858.000000	-0.029552  
858.500000	0.017827   
859.000000	0.072638   
859.500000	0.107228   
860.000000	0.176697   
860.500000	0.219131   
861.000000	0.236634   
861.500000	0.232922   
862.000000	0.216640   
862.500000	0.185361   
863.000000	0.125434   
863.500000	0.104762   
864.000000	0.073243   
864.500000	0.048387   
865.000000	0.012367   
865.500000	0.008313   
866.000000	0.021461   
866.500000	0.039705   
867.000000	0.087992   
867.500000	0.106560   
868.000000	0.114376   
868.500000	0.068916   
869.000000	0.013166   
869.500000	-0.044597  
870.000000	-0.099927  
870.500000	-0.098141  
871.000000	-0.094656  
871.500000	-0.076825  
872.000000	-0.060927  
872.500000	-0.047634  
873.000000	-0.046916  
873.500000	-0.062729  
874.000000	-0.073226  
874.500000	-0.068384  
875.000000	-0.077821  
875.500000	-0.095716  
876.000000	-0.090866  
876.500000	-0.077209  
877.000000	-0.066061  
877.500000	-0.069404  
878.000000	-0.055985  
878.500000	-0.069369  
879.000000	-0.095671  
879.500000	-0.104525  
880.000000	-0.104623  
880.500000	-0.110306  
881.000000	-0.095647  
881.500000	-0.037194  
882.000000	0.008875   
882.500000	0.047244   
883.000000	0.097124   
883.500000	0.123057   
884.000000	0.088564   
884.500000	0.035131   
885.000000	-0.001816  
885.500000	-0.056695  
886.000000	-0.093554  
886.500000	-0.072964  
887.000000	-0.043953  
887.500000	-0.035272  
888.000000	-0.028358  
888.500000	-0.014148  
889.000000	-0.000486  
889.500000	0.007725   
890.000000	0.034402   
890.500000	0.048176   
891.000000	0.055823   
891.500000	0.051283   
892.000000	0.031697   
892.500000	0.011066   
893.000000	-0.016669  
893.500000	-0.041964  
894.000000	-0.061539  
894.500000	-0.076660  
895.000000	-0.095896  
895.500000	-0.126068  
896.000000	-0.111172  
896.500000	-0.085218  

