PE FL                   SPECTRUM    ASCII       PEDS        1.60        
  -1
S00BB7~1.SP
24/04/11
16:27:34.00
24/04/11
16:27:34.00
Jan

896.500000
1









LS55
405.00
5.00
5.00
SCAN
1
20
100
100
0
400
0
1
0
1
5
ON
736 405 
1 0 0
#HDR
-1
-1
#GR
NM

0.00002384185791015625
0.0
450.000000
0.500000
894
8
353.564187
-0.572000
#DATA
450.000000	-0.572000  
450.500000	-0.265311  
451.000000	-0.022172  
451.500000	0.152820   
452.000000	0.222940   
452.500000	0.229192   
453.000000	0.209617   
453.500000	0.188014   
454.000000	0.107276   
454.500000	0.047426   
455.000000	0.033187   
455.500000	0.045129   
456.000000	0.076378   
456.500000	0.133905   
457.000000	0.194103   
457.500000	0.165092   
458.000000	0.115667   
458.500000	0.040469   
459.000000	-0.007669  
459.500000	-0.036977  
460.000000	-0.010250  
460.500000	0.050918   
461.000000	0.115840   
461.500000	0.194124   
462.000000	0.213181   
462.500000	0.209588   
463.000000	0.166692   
463.500000	0.090443   
464.000000	0.024992   
464.500000	0.000998   
465.000000	-0.006367  
465.500000	-0.023291  
466.000000	-0.001007  
466.500000	0.041569   
467.000000	0.055725   
467.500000	0.077129   
468.000000	0.127270   
468.500000	0.146768   
469.000000	0.120977   
469.500000	0.108025   
470.000000	0.132489   
470.500000	0.161363   
471.000000	0.184764   
471.500000	0.223922   
472.000000	0.249979   
472.500000	0.247886   
473.000000	0.232784   
473.500000	0.211339   
474.000000	0.205397   
474.500000	0.186840   
475.000000	0.149714   
475.500000	0.112901   
476.000000	0.078189   
476.500000	0.059771   
477.000000	0.051079   
477.500000	0.030610   
478.000000	0.021014   
478.500000	-0.000643  
479.000000	-0.041721  
479.500000	-0.073768  
480.000000	-0.091833  
480.500000	-0.073821  
481.000000	-0.039231  
481.500000	0.049487   
482.000000	0.168430   
482.500000	0.290788   
483.000000	0.398576   
483.500000	0.419074   
484.000000	0.356935   
484.500000	0.229025   
485.000000	0.090198   
485.500000	-0.000901  
486.000000	-0.044519  
486.500000	0.015259   
487.000000	0.142005   
487.500000	0.264627   
488.000000	0.337410   
488.500000	0.369205   
489.000000	0.325311   
489.500000	0.221558   
490.000000	0.128701   
490.500000	0.074842   
491.000000	0.034256   
491.500000	-0.000410  
492.000000	0.030072   
492.500000	0.061539   
493.000000	0.075252   
493.500000	0.140005   
494.000000	0.272376   
494.500000	0.385814   
495.000000	0.451554   
495.500000	0.517573   
496.000000	0.545246   
496.500000	0.509508   
497.000000	0.483348   
497.500000	0.531178   
498.000000	0.585144   
498.500000	0.616070   
499.000000	0.643063   
499.500000	0.664300   
500.000000	0.634263   
500.500000	0.574439   
501.000000	0.545328   
501.500000	0.575012   
502.000000	0.613218   
502.500000	0.667547   
503.000000	0.734408   
503.500000	0.774933   
504.000000	0.784897   
504.500000	0.773406   
505.000000	0.792951   
505.500000	0.798081   
506.000000	0.821866   
506.500000	0.890753   
507.000000	0.936799   
507.500000	0.990612   
508.000000	1.049775   
508.500000	1.157374   
509.000000	1.233141   
509.500000	1.271179   
510.000000	1.309463   
510.500000	1.294975   
511.000000	1.266695   
511.500000	1.249202   
512.000000	1.334000   
512.500000	1.463680   
513.000000	1.610025   
513.500000	1.741497   
514.000000	1.825543   
514.500000	1.851988   
515.000000	1.838200   
515.500000	1.875909   
516.000000	1.930016   
516.500000	1.995252   
517.000000	2.071139   
517.500000	2.129565   
518.000000	2.150079   
518.500000	2.151805   
519.000000	2.206936   
519.500000	2.297473   
520.000000	2.396217   
520.500000	2.541233   
521.000000	2.686834   
521.500000	2.795079   
522.000000	2.863721   
522.500000	2.960480   
523.000000	3.077424   
523.500000	3.130710   
524.000000	3.169411   
524.500000	3.190710   
525.000000	3.231666   
525.500000	3.260267   
526.000000	3.308025   
526.500000	3.448927   
527.000000	3.616627   
527.500000	3.803636   
528.000000	4.024402   
528.500000	4.279803   
529.000000	4.545862   
529.500000	4.766400   
530.000000	5.002766   
530.500000	5.199341   
531.000000	5.272788   
531.500000	5.284647   
532.000000	5.260979   
532.500000	5.292337   
533.000000	5.370111   
533.500000	5.585853   
534.000000	5.939961   
534.500000	6.381528   
535.000000	6.921558   
535.500000	7.410410   
536.000000	7.845808   
536.500000	8.179853   
537.000000	8.446365   
537.500000	8.594745   
538.000000	8.712179   
538.500000	8.914103   
539.000000	9.148176   
539.500000	9.434469   
540.000000	9.746389   
540.500000	10.202283  
541.000000	10.597927  
541.500000	10.945165  
542.000000	11.284016  
542.500000	11.501437  
543.000000	11.566200  
543.500000	11.433141  
544.000000	11.270994  
544.500000	11.039983  
545.000000	10.887139  
545.500000	10.895421  
546.000000	11.010346  
546.500000	11.130385  
547.000000	11.190256  
547.500000	11.138693  
548.000000	10.927717  
548.500000	10.605187  
549.000000	10.372957  
549.500000	10.229378  
550.000000	10.069536  
550.500000	10.016664  
551.000000	9.993717   
551.500000	9.994207   
552.000000	9.931419   
552.500000	9.921194   
553.000000	9.972738   
553.500000	9.963131   
554.000000	10.015424  
554.500000	10.045393  
555.000000	10.198497  
555.500000	10.423064  
556.000000	10.800395  
556.500000	11.158879  
557.000000	11.463053  
557.500000	11.753818  
558.000000	11.849426  
558.500000	11.822905  
559.000000	11.845389  
559.500000	12.082769  
560.000000	12.348794  
560.500000	12.767248  
561.000000	13.310213  
561.500000	13.840198  
562.000000	14.331569  
562.500000	14.761155  
563.000000	15.223437  
563.500000	15.562697  
564.000000	15.965504  
564.500000	16.362794  
565.000000	16.755595  
565.500000	17.209899  
566.000000	17.820723  
566.500000	18.555712  
567.000000	19.367621  
567.500000	20.337018  
568.000000	21.335601  
568.500000	22.289586  
569.000000	23.026090  
569.500000	23.669944  
570.000000	24.169378  
570.500000	24.615833  
571.000000	25.018588  
571.500000	25.487410  
572.000000	26.166192  
572.500000	26.887230  
573.000000	27.749447  
573.500000	28.688044  
574.000000	29.650844  
574.500000	30.636217  
575.000000	31.488461  
575.500000	32.197406  
576.000000	32.804228  
576.500000	33.412705  
577.000000	34.009350  
577.500000	34.616068  
578.000000	35.345461  
578.500000	36.121977  
579.000000	36.698261  
579.500000	37.283647  
580.000000	38.014192  
580.500000	38.808235  
581.000000	39.732020  
581.500000	40.813666  
582.000000	41.984933  
582.500000	43.089474  
583.000000	44.080578  
583.500000	45.055363  
584.000000	45.907541  
584.500000	46.890369  
585.000000	47.882389  
585.500000	48.929471  
586.000000	50.048328  
586.500000	51.099025  
587.000000	52.244326  
587.500000	53.245348  
588.000000	54.255545  
588.500000	55.306777  
589.000000	56.386612  
589.500000	57.607335  
590.000000	58.854747  
590.500000	60.216855  
591.000000	61.680424  
591.500000	63.116077  
592.000000	64.695107  
592.500000	66.355254  
593.000000	68.271294  
593.500000	70.192486  
594.000000	72.111202  
594.500000	73.914998  
595.000000	75.561567  
595.500000	77.182306  
596.000000	78.688135  
596.500000	80.579456  
597.000000	82.550918  
597.500000	84.437818  
598.000000	85.984497  
598.500000	87.322589  
599.000000	88.706233  
599.500000	90.067810  
600.000000	91.955727  
600.500000	94.122836  
601.000000	96.497723  
601.500000	98.733256  
602.000000	100.852769 
602.500000	102.807126 
603.000000	104.790838 
603.500000	107.062975 
604.000000	109.551076 
604.500000	112.142014 
605.000000	114.780385 
605.500000	117.373411 
606.000000	119.667816 
606.500000	122.117000 
607.000000	124.774918 
607.500000	127.433957 
608.000000	130.078027 
608.500000	132.797248 
609.000000	135.434300 
609.500000	138.086892 
610.000000	140.884189 
610.500000	144.062319 
611.000000	147.639435 
611.500000	151.425584 
612.000000	155.297328 
612.500000	158.919884 
613.000000	162.282940 
613.500000	165.028942 
614.000000	167.258786 
614.500000	169.534350 
615.000000	172.197476 
615.500000	175.168064 
616.000000	178.600959 
616.500000	182.319604 
617.000000	186.260914 
617.500000	189.942218 
618.000000	193.478083 
618.500000	197.346050 
619.000000	201.090610 
619.500000	205.327226 
620.000000	209.463250 
620.500000	213.959220 
621.000000	218.177269 
621.500000	221.943675 
622.000000	225.685606 
622.500000	229.283410 
623.000000	233.190606 
623.500000	237.040552 
624.000000	241.345317 
624.500000	245.391293 
625.000000	249.096925 
625.500000	252.677294 
626.000000	255.862634 
626.500000	258.921205 
627.000000	262.024684 
627.500000	265.694094 
628.000000	269.429547 
628.500000	273.263979 
629.000000	276.825096 
629.500000	279.948014 
630.000000	282.923623 
630.500000	286.139352 
631.000000	289.823571 
631.500000	293.509461 
632.000000	297.813847 
632.500000	302.285029 
633.000000	306.330573 
633.500000	309.824011 
634.000000	313.119048 
634.500000	316.579103 
635.000000	319.532734 
635.500000	322.816465 
636.000000	326.099339 
636.500000	329.292938 
637.000000	331.696322 
637.500000	333.313059 
638.000000	334.979855 
638.500000	336.566395 
639.000000	338.211578 
639.500000	340.069764 
640.000000	342.402656 
640.500000	344.879823 
641.000000	346.227055 
641.500000	347.093896 
642.000000	347.955324 
642.500000	348.998597 
643.000000	350.014948 
643.500000	351.123658 
644.000000	352.610346 
644.500000	353.447692 
645.000000	353.564187 
645.500000	353.437454 
646.000000	352.944254 
646.500000	352.299977 
647.000000	350.937189 
647.500000	349.513196 
648.000000	348.270001 
648.500000	347.068623 
649.000000	346.439547 
649.500000	346.124532 
650.000000	346.322847 
650.500000	346.102916 
651.000000	345.052161 
651.500000	343.522152 
652.000000	341.033042 
652.500000	338.875818 
653.000000	336.162107 
653.500000	333.529812 
654.000000	330.758610 
654.500000	327.579703 
655.000000	324.292426 
655.500000	320.466608 
656.000000	317.391538 
656.500000	314.194593 
657.000000	311.277651 
657.500000	309.112632 
658.000000	306.928027 
658.500000	304.717348 
659.000000	301.701758 
659.500000	298.678886 
660.000000	294.948128 
660.500000	290.632931 
661.000000	286.734938 
661.500000	282.934345 
662.000000	279.344174 
662.500000	275.348957 
663.000000	271.303139 
663.500000	267.010619 
664.000000	262.283935 
664.500000	257.232573 
665.000000	252.115810 
665.500000	247.251220 
666.000000	242.096602 
666.500000	236.771977 
667.000000	232.053350 
667.500000	228.041046 
668.000000	224.264011 
668.500000	220.741742 
669.000000	217.387096 
669.500000	213.580879 
670.000000	208.836899 
670.500000	203.999228 
671.000000	199.376183 
671.500000	194.706415 
672.000000	190.216228 
672.500000	185.649402 
673.000000	181.054343 
673.500000	176.074554 
674.000000	171.339217 
674.500000	166.907610 
675.000000	162.458987 
675.500000	158.206092 
676.000000	153.822844 
676.500000	149.323821 
677.000000	144.943769 
677.500000	140.805350 
678.000000	137.094645 
678.500000	133.466191 
679.000000	130.122727 
679.500000	126.678053 
680.000000	123.058076 
680.500000	119.497113 
681.000000	116.160931 
681.500000	113.134413 
682.000000	110.115994 
682.500000	107.057320 
683.000000	104.049113 
683.500000	101.157150 
684.000000	98.154374  
684.500000	95.241697  
685.000000	92.457614  
685.500000	89.694298  
686.000000	86.765356  
686.500000	83.825545  
687.000000	81.324623  
687.500000	78.951176  
688.000000	76.822513  
688.500000	74.777181  
689.000000	72.895714  
689.500000	70.901209  
690.000000	68.810723  
690.500000	66.796955  
691.000000	64.827320  
691.500000	63.047604  
692.000000	61.355257  
692.500000	59.559465  
693.000000	57.851142  
693.500000	56.194020  
694.000000	54.648389  
694.500000	53.172094  
695.000000	51.850250  
695.500000	50.708050  
696.000000	49.306001  
696.500000	47.958760  
697.000000	46.590228  
697.500000	45.248406  
698.000000	43.935118  
698.500000	42.708569  
699.000000	41.616857  
699.500000	40.282035  
700.000000	39.055152  
700.500000	38.023081  
701.000000	36.882068  
701.500000	35.723755  
702.000000	34.698170  
702.500000	33.634371  
703.000000	32.494981  
703.500000	31.400237  
704.000000	30.702688  
704.500000	30.045046  
705.000000	29.418998  
705.500000	28.976395  
706.000000	28.497423  
706.500000	27.892235  
707.000000	27.032929  
707.500000	26.350853  
708.000000	25.700118  
708.500000	25.129953  
709.000000	24.679918  
709.500000	24.287610  
710.000000	23.885782  
710.500000	23.274820  
711.000000	22.619745  
711.500000	21.981179  
712.000000	21.401200  
712.500000	20.863755  
713.000000	20.504330  
713.500000	20.251992  
714.000000	19.878115  
714.500000	19.425055  
715.000000	18.927764  
715.500000	18.471855  
716.000000	18.056450  
716.500000	17.803205  
717.000000	17.612768  
717.500000	17.378443  
718.000000	17.078552  
718.500000	16.736508  
719.000000	16.300656  
719.500000	15.739712  
720.000000	15.240525  
720.500000	14.831341  
721.000000	14.486037  
721.500000	14.224866  
722.000000	14.082640  
722.500000	13.997662  
723.000000	13.891846  
723.500000	13.741105  
724.000000	13.580200  
724.500000	13.369395  
725.000000	13.043465  
725.500000	12.666059  
726.000000	12.336001  
726.500000	12.064237  
727.000000	11.768220  
727.500000	11.487541  
728.000000	11.314591  
728.500000	11.083693  
729.000000	10.854202  
729.500000	10.661647  
730.000000	10.492578  
730.500000	10.373209  
731.000000	10.252532  
731.500000	10.232064  
732.000000	10.129040  
732.500000	9.939970   
733.000000	9.832248   
733.500000	9.652959   
734.000000	9.387346   
734.500000	9.121827   
735.000000	8.987467   
735.500000	8.870165   
736.000000	8.709261   
736.500000	8.705278   
737.000000	8.751250   
737.500000	8.671315   
738.000000	8.504981   
738.500000	8.308038   
739.000000	8.135165   
739.500000	7.888725   
740.000000	7.700380   
740.500000	7.598261   
741.000000	7.472923   
741.500000	7.367009   
742.000000	7.311580   
742.500000	7.317285   
743.000000	7.333955   
743.500000	7.288168   
744.000000	7.205107   
744.500000	7.037033   
745.000000	6.742113   
745.500000	6.455513   
746.000000	6.253916   
746.500000	6.179183   
747.000000	6.122617   
747.500000	6.135790   
748.000000	6.216339   
748.500000	6.236799   
749.000000	6.168953   
749.500000	6.114256   
750.000000	6.099634   
750.500000	5.988617   
751.000000	5.819335   
751.500000	5.678126   
752.000000	5.571146   
752.500000	5.464092   
753.000000	5.408487   
753.500000	5.416576   
754.000000	5.392057   
754.500000	5.330597   
755.000000	5.235406   
755.500000	5.195389   
756.000000	5.219799   
756.500000	5.274426   
757.000000	5.322719   
757.500000	5.315795   
758.000000	5.246992   
758.500000	5.095673   
759.000000	4.895148   
759.500000	4.750179   
760.000000	4.691515   
760.500000	4.706903   
761.000000	4.731990   
761.500000	4.770905   
762.000000	4.775153   
762.500000	4.733977   
763.000000	4.654447   
763.500000	4.598421   
764.000000	4.623094   
764.500000	4.655098   
765.000000	4.750458   
765.500000	4.845719   
766.000000	4.860061   
766.500000	4.791812   
767.000000	4.610567   
767.500000	4.457176   
768.000000	4.283536   
768.500000	4.141172   
769.000000	4.047163   
769.500000	3.926597   
770.000000	3.870615   
770.500000	3.756243   
771.000000	3.714135   
771.500000	3.741853   
772.000000	3.779447   
772.500000	3.822107   
773.000000	3.786766   
773.500000	3.769760   
774.000000	3.630313   
774.500000	3.465040   
775.000000	3.348493   
775.500000	3.256474   
776.000000	3.226801   
776.500000	3.262805   
777.000000	3.379933   
777.500000	3.493734   
778.000000	3.539033   
778.500000	3.528827   
779.000000	3.479053   
779.500000	3.395846   
780.000000	3.341573   
780.500000	3.343784   
781.000000	3.406643   
781.500000	3.469643   
782.000000	3.474831   
782.500000	3.444263   
783.000000	3.337977   
783.500000	3.219050   
784.000000	3.109283   
784.500000	3.015849   
785.000000	2.941066   
785.500000	2.847133   
786.000000	2.807803   
786.500000	2.778029   
787.000000	2.773792   
787.500000	2.825797   
788.000000	2.877037   
788.500000	2.952029   
789.000000	3.006575   
789.500000	3.062046   
790.000000	3.105372   
790.500000	3.133025   
791.000000	3.139248   
791.500000	3.086571   
792.000000	2.991215   
792.500000	2.864578   
793.000000	2.787116   
793.500000	2.770615   
794.000000	2.803217   
794.500000	2.857270   
795.000000	2.886756   
795.500000	2.867810   
796.000000	2.800146   
796.500000	2.735981   
797.000000	2.723415   
797.500000	2.758356   
798.000000	2.781057   
798.500000	2.761473   
799.000000	2.709350   
799.500000	2.629534   
800.000000	2.538105   
800.500000	2.510977   
801.000000	2.554959   
801.500000	2.608602   
802.000000	2.627860   
802.500000	2.566614   
803.000000	2.498376   
803.500000	2.392259   
804.000000	2.268011   
804.500000	2.190727   
805.000000	2.164424   
805.500000	2.127634   
806.000000	2.021393   
806.500000	1.902701   
807.000000	1.848298   
807.500000	1.782777   
808.000000	1.778131   
808.500000	1.867480   
809.000000	2.005107   
809.500000	2.096374   
810.000000	2.100860   
810.500000	2.106599   
811.000000	2.035074   
811.500000	1.952729   
812.000000	1.925764   
812.500000	1.973309   
813.000000	2.032580   
813.500000	2.077970   
814.000000	2.134948   
814.500000	2.148215   
815.000000	2.127591   
815.500000	2.097912   
816.000000	2.091690   
816.500000	2.034508   
817.000000	1.931651   
817.500000	1.804243   
818.000000	1.709016   
818.500000	1.632380   
819.000000	1.609955   
819.500000	1.694369   
820.000000	1.831448   
820.500000	1.975844   
821.000000	2.068526   
821.500000	2.170332   
822.000000	2.271564   
822.500000	2.332966   
823.000000	2.417397   
823.500000	2.512821   
824.000000	2.573246   
824.500000	2.542476   
825.000000	2.507439   
825.500000	2.503111   
826.000000	2.493617   
826.500000	2.499825   
827.000000	2.546259   
827.500000	2.576044   
828.000000	2.494773   
828.500000	2.344621   
829.000000	2.178042   
829.500000	1.995430   
830.000000	1.766996   
830.500000	1.640701   
831.000000	1.597705   
831.500000	1.573346   
832.000000	1.586730   
832.500000	1.611630   
833.000000	1.632558   
833.500000	1.536105   
834.000000	1.411474   
834.500000	1.303717   
835.000000	1.164875   
835.500000	1.043031   
836.000000	0.964814   
836.500000	0.913647   
837.000000	0.873226   
837.500000	0.849933   
838.000000	0.869604   
838.500000	0.882025   
839.000000	0.921166   
839.500000	0.954710   
840.000000	0.943421   
840.500000	0.902341   
841.000000	0.859025   
841.500000	0.835851   
842.000000	0.801115   
842.500000	0.784942   
843.000000	0.758183   
843.500000	0.722521   
844.000000	0.673846   
844.500000	0.649083   
845.000000	0.651614   
845.500000	0.652508   
846.000000	0.651734   
846.500000	0.614218   
847.000000	0.550499   
847.500000	0.471378   
848.000000	0.382666   
848.500000	0.330723   
849.000000	0.320526   
849.500000	0.329597   
850.000000	0.351578   
850.500000	0.360749   
851.000000	0.365298   
851.500000	0.323445   
852.000000	0.298411   
852.500000	0.267769   
853.000000	0.195794   
853.500000	0.153380   
854.000000	0.136916   
854.500000	0.113178   
855.000000	0.083168   
855.500000	0.116745   
856.000000	0.174972   
856.500000	0.169196   
857.000000	0.174046   
857.500000	0.201048   
858.000000	0.195879   
858.500000	0.166491   
859.000000	0.157391   
859.500000	0.170048   
860.000000	0.133870   
860.500000	0.119871   
861.000000	0.115990   
861.500000	0.081512   
862.000000	0.049372   
862.500000	0.025113   
863.000000	0.033064   
863.500000	0.033137   
864.000000	0.075371   
864.500000	0.108565   
865.000000	0.124786   
865.500000	0.120137   
866.000000	0.104068   
866.500000	0.085122   
867.000000	0.057692   
867.500000	0.064656   
868.000000	0.068632   
868.500000	0.072421   
869.000000	0.036779   
869.500000	-0.005261  
870.000000	-0.037701  
870.500000	-0.058389  
871.000000	-0.072027  
871.500000	-0.081684  
872.000000	-0.061988  
872.500000	-0.078287  
873.000000	-0.102404  
873.500000	-0.096063  
874.000000	-0.079829  
874.500000	-0.088645  
875.000000	-0.114142  
875.500000	-0.119231  
876.000000	-0.141074  
876.500000	-0.181161  
877.000000	-0.201458  
877.500000	-0.199189  
878.000000	-0.197638  
878.500000	-0.195042  
879.000000	-0.187977  
879.500000	-0.177805  
880.000000	-0.153864  
880.500000	-0.122142  
881.000000	-0.103322  
881.500000	-0.096673  
882.000000	-0.075695  
882.500000	-0.085042  
883.000000	-0.111547  
883.500000	-0.098233  
884.000000	-0.060593  
884.500000	-0.032959  
885.000000	-0.017597  
885.500000	0.037278   
886.000000	0.066693   
886.500000	0.062471   
887.000000	0.064820   
887.500000	0.082528   
888.000000	0.088176   
888.500000	0.068877   
889.000000	0.073489   
889.500000	0.035866   
890.000000	-0.031256  
890.500000	-0.102005  
891.000000	-0.135300  
891.500000	-0.134929  
892.000000	-0.105183  
892.500000	-0.018580  
893.000000	0.050532   
893.500000	0.101846   
894.000000	0.119719   
894.500000	0.140517   
895.000000	0.120690   
895.500000	0.078063   
896.000000	0.047391   
896.500000	-0.002270  

