PE FL                   SPECTRUM    ASCII       PEDS        1.60        
  -1
S00B8F~1.SP
24/04/11
16:47:32.00
24/04/11
16:47:32.00
Jan

896.500000
1









LS55
405.00
5.00
5.00
SCAN
1
20
100
100
0
400
0
1
0
1
5
ON
736 405 
1 0 0
#HDR
-1
-1
#GR
NM

0.00002384185791015625
0.0
450.000000
0.500000
894
8
329.013211
-0.250743
#DATA
450.000000	0.825999   
450.500000	0.472545   
451.000000	0.186627   
451.500000	0.037820   
452.000000	-0.030226  
452.500000	-0.033508  
453.000000	-0.040035  
453.500000	-0.068773  
454.000000	-0.063667  
454.500000	-0.044918  
455.000000	-0.010076  
455.500000	0.054957   
456.000000	0.111419   
456.500000	0.117827   
457.000000	0.104179   
457.500000	0.113686   
458.000000	0.106640   
458.500000	0.054474   
459.000000	0.039146   
459.500000	0.033621   
460.000000	0.025773   
460.500000	0.053970   
461.000000	0.186623   
461.500000	0.362424   
462.000000	0.479881   
462.500000	0.535910   
463.000000	0.527478   
463.500000	0.454625   
464.000000	0.312463   
464.500000	0.209651   
465.000000	0.168623   
465.500000	0.155064   
466.000000	0.159089   
466.500000	0.153647   
467.000000	0.156189   
467.500000	0.123307   
468.000000	0.055855   
468.500000	0.021228   
469.000000	0.002708   
469.500000	-0.008829  
470.000000	-0.023610  
470.500000	-0.015367  
471.000000	0.027191   
471.500000	0.069454   
472.000000	0.146779   
472.500000	0.241719   
473.000000	0.320120   
473.500000	0.310137   
474.000000	0.239046   
474.500000	0.147482   
475.000000	0.030651   
475.500000	-0.046473  
476.000000	-0.041786  
476.500000	0.044808   
477.000000	0.116666   
477.500000	0.139435   
478.000000	0.148016   
478.500000	0.127762   
479.000000	0.104495   
479.500000	0.103512   
480.000000	0.146658   
480.500000	0.213230   
481.000000	0.230348   
481.500000	0.234526   
482.000000	0.199710   
482.500000	0.190502   
483.000000	0.154940   
483.500000	0.114089   
484.000000	0.079910   
484.500000	0.039033   
485.000000	0.032391   
485.500000	0.045027   
486.000000	0.128996   
486.500000	0.231185   
487.000000	0.292764   
487.500000	0.287771   
488.000000	0.203437   
488.500000	0.091688   
489.000000	-0.022291  
489.500000	-0.053204  
490.000000	0.028037   
490.500000	0.172480   
491.000000	0.320560   
491.500000	0.436426   
492.000000	0.473656   
492.500000	0.455402   
493.000000	0.361881   
493.500000	0.281614   
494.000000	0.223881   
494.500000	0.185005   
495.000000	0.226549   
495.500000	0.271946   
496.000000	0.345432   
496.500000	0.372037   
497.000000	0.357005   
497.500000	0.340378   
498.000000	0.281018   
498.500000	0.259122   
499.000000	0.237849   
499.500000	0.272729   
500.000000	0.309044   
500.500000	0.357389   
501.000000	0.404619   
501.500000	0.427840   
502.000000	0.455732   
502.500000	0.482755   
503.000000	0.534881   
503.500000	0.602762   
504.000000	0.699094   
504.500000	0.765547   
505.000000	0.841309   
505.500000	0.898766   
506.000000	0.948406   
506.500000	0.980666   
507.000000	1.007183   
507.500000	1.070031   
508.000000	1.098309   
508.500000	1.112909   
509.000000	1.099070   
509.500000	1.072975   
510.000000	1.047510   
510.500000	1.068942   
511.000000	1.110918   
511.500000	1.157224   
512.000000	1.215222   
512.500000	1.286287   
513.000000	1.381775   
513.500000	1.509176   
514.000000	1.684178   
514.500000	1.839109   
515.000000	1.977025   
515.500000	2.094974   
516.000000	2.210384   
516.500000	2.264693   
517.000000	2.313573   
517.500000	2.382910   
518.000000	2.448916   
518.500000	2.515584   
519.000000	2.607777   
519.500000	2.744645   
520.000000	2.840569   
520.500000	2.942866   
521.000000	3.003116   
521.500000	3.016311   
522.000000	3.000981   
522.500000	2.981649   
523.000000	2.984679   
523.500000	2.982346   
524.000000	3.036380   
524.500000	3.075252   
525.000000	3.122883   
525.500000	3.211447   
526.000000	3.366654   
526.500000	3.543410   
527.000000	3.746235   
527.500000	4.018784   
528.000000	4.278565   
528.500000	4.524790   
529.000000	4.751500   
529.500000	4.952827   
530.000000	5.088823   
530.500000	5.140480   
531.000000	5.174395   
531.500000	5.206109   
532.000000	5.256172   
532.500000	5.433011   
533.000000	5.683962   
533.500000	6.007335   
534.000000	6.341903   
534.500000	6.667487   
535.000000	6.946905   
535.500000	7.116656   
536.000000	7.360482   
536.500000	7.589890   
537.000000	7.940578   
537.500000	8.379987   
538.000000	8.905820   
538.500000	9.501404   
539.000000	10.042309  
539.500000	10.572461  
540.000000	10.970087  
540.500000	11.286372  
541.000000	11.520679  
541.500000	11.688922  
542.000000	11.800064  
542.500000	11.888816  
543.000000	11.943178  
543.500000	11.900187  
544.000000	11.750248  
544.500000	11.504294  
545.000000	11.268523  
545.500000	11.000063  
546.000000	10.769896  
546.500000	10.647593  
547.000000	10.580452  
547.500000	10.509435  
548.000000	10.395333  
548.500000	10.340564  
549.000000	10.223565  
549.500000	10.043951  
550.000000	10.023786  
550.500000	10.032671  
551.000000	10.003320  
551.500000	9.962333   
552.000000	9.970265   
552.500000	10.029257  
553.000000	9.972489   
553.500000	10.021651  
554.000000	10.119411  
554.500000	10.128656  
555.000000	10.146730  
555.500000	10.128217  
556.000000	10.241717  
556.500000	10.336341  
557.000000	10.495430  
557.500000	10.771228  
558.000000	11.015165  
558.500000	11.230415  
559.000000	11.309552  
559.500000	11.522192  
560.000000	11.810580  
560.500000	12.145805  
561.000000	12.648076  
561.500000	13.267990  
562.000000	13.890100  
562.500000	14.361326  
563.000000	14.781740  
563.500000	15.150235  
564.000000	15.412061  
564.500000	15.778265  
565.000000	16.418753  
565.500000	17.202751  
566.000000	18.007701  
566.500000	18.778768  
567.000000	19.523675  
567.500000	20.101760  
568.000000	20.604762  
568.500000	21.185666  
569.000000	21.822517  
569.500000	22.508788  
570.000000	23.143192  
570.500000	23.761391  
571.000000	24.294697  
571.500000	24.820560  
572.000000	25.354191  
572.500000	25.854250  
573.000000	26.467133  
573.500000	27.118226  
574.000000	27.861070  
574.500000	28.698176  
575.000000	29.646545  
575.500000	30.620690  
576.000000	31.545816  
576.500000	32.483187  
577.000000	33.273556  
577.500000	33.942261  
578.000000	34.550658  
578.500000	34.974602  
579.000000	35.199927  
579.500000	35.376254  
580.000000	35.784901  
580.500000	36.461178  
581.000000	37.447398  
581.500000	38.863814  
582.000000	40.448871  
582.500000	41.713849  
583.000000	42.620927  
583.500000	43.410936  
584.000000	44.224601  
584.500000	45.011011  
585.000000	46.119920  
585.500000	47.564408  
586.000000	49.061539  
586.500000	50.309990  
587.000000	51.384684  
587.500000	52.419551  
588.000000	53.282350  
588.500000	54.322074  
589.000000	55.489916  
589.500000	56.874834  
590.000000	58.111411  
590.500000	59.231799  
591.000000	60.444107  
591.500000	61.571497  
592.000000	63.089018  
592.500000	64.797319  
593.000000	66.826747  
593.500000	68.841686  
594.000000	70.732333  
594.500000	72.535315  
595.000000	73.810276  
595.500000	74.983365  
596.000000	76.142632  
596.500000	77.612790  
597.000000	79.310708  
597.500000	81.120313  
598.000000	83.301020  
598.500000	85.555083  
599.000000	87.825456  
599.500000	90.110818  
600.000000	92.572951  
600.500000	94.757569  
601.000000	96.620061  
601.500000	98.364428  
602.000000	100.132987 
602.500000	101.924076 
603.000000	103.852450 
603.500000	106.148977 
604.000000	108.567556 
604.500000	110.969463 
605.000000	113.399749 
605.500000	115.768539 
606.000000	118.194042 
606.500000	120.733983 
607.000000	123.298348 
607.500000	125.744853 
608.000000	128.276586 
608.500000	131.054205 
609.000000	133.739397 
609.500000	136.713103 
610.000000	139.923680 
610.500000	143.003465 
611.000000	145.963868 
611.500000	148.804764 
612.000000	151.743426 
612.500000	154.493641 
613.000000	157.522361 
613.500000	160.793558 
614.000000	164.301450 
614.500000	167.909333 
615.000000	171.392712 
615.500000	174.632037 
616.000000	177.684235 
616.500000	180.831513 
617.000000	183.915304 
617.500000	187.051541 
618.000000	190.573840 
618.500000	194.280458 
619.000000	197.916454 
619.500000	201.727890 
620.000000	205.863024 
620.500000	209.945623 
621.000000	213.952979 
621.500000	217.849235 
622.000000	221.627730 
622.500000	224.865027 
623.000000	228.070578 
623.500000	231.536050 
624.000000	235.103578 
624.500000	238.851578 
625.000000	242.651786 
625.500000	246.509031 
626.000000	250.176580 
626.500000	253.999504 
627.000000	257.566152 
627.500000	260.800647 
628.000000	264.180361 
628.500000	267.627949 
629.000000	270.866784 
629.500000	274.248254 
630.000000	278.017949 
630.500000	281.646638 
631.000000	284.741573 
631.500000	287.780883 
632.000000	290.802983 
632.500000	293.150851 
633.000000	295.545996 
633.500000	298.086037 
634.000000	300.826319 
634.500000	303.345274 
635.000000	305.858714 
635.500000	308.457161 
636.000000	310.756055 
636.500000	313.039588 
637.000000	314.788445 
637.500000	316.267938 
638.000000	317.612066 
638.500000	318.731688 
639.000000	319.841005 
639.500000	321.032372 
640.000000	322.473803 
640.500000	323.646621 
641.000000	324.689473 
641.500000	325.604569 
642.000000	326.259395 
642.500000	326.298775 
643.000000	326.481330 
643.500000	326.993769 
644.000000	327.451948 
644.500000	327.878962 
645.000000	328.496528 
645.500000	329.013211 
646.000000	328.767896 
646.500000	328.135089 
647.000000	327.173857 
647.500000	325.867992 
648.000000	324.329532 
648.500000	323.120820 
649.000000	322.197300 
649.500000	321.230701 
650.000000	320.182847 
650.500000	318.872424 
651.000000	317.449487 
651.500000	315.702708 
652.000000	313.635777 
652.500000	311.144122 
653.000000	308.549372 
653.500000	306.044790 
654.000000	303.594528 
654.500000	301.219862 
655.000000	299.435439 
655.500000	297.379834 
656.000000	295.045014 
656.500000	292.154803 
657.000000	288.853575 
657.500000	285.076191 
658.000000	280.879873 
658.500000	277.186725 
659.000000	273.385280 
659.500000	269.752064 
660.000000	265.976257 
660.500000	262.466328 
661.000000	258.885118 
661.500000	254.749858 
662.000000	250.347747 
662.500000	245.440927 
663.000000	240.405528 
663.500000	235.019042 
664.000000	230.011226 
664.500000	225.863714 
665.000000	221.908092 
665.500000	218.070690 
666.000000	214.035346 
666.500000	210.075554 
667.000000	205.807565 
667.500000	200.978929 
668.000000	196.530040 
668.500000	192.294153 
669.000000	188.168189 
669.500000	183.826146 
670.000000	179.457667 
670.500000	175.383087 
671.000000	170.693458 
671.500000	165.980395 
672.000000	161.495476 
672.500000	157.282957 
673.000000	153.541287 
673.500000	149.735552 
674.000000	146.165050 
674.500000	142.337716 
675.000000	137.983556 
675.500000	133.316267 
676.000000	128.441471 
676.500000	124.270886 
677.000000	120.702454 
677.500000	117.648027 
678.000000	115.017163 
678.500000	112.468604 
679.000000	109.949330 
679.500000	107.174834 
680.000000	104.461836 
680.500000	102.073144 
681.000000	99.670723  
681.500000	97.300072  
682.000000	94.779918  
682.500000	91.971423  
683.000000	89.083098  
683.500000	86.006025  
684.000000	83.037782  
684.500000	80.476875  
685.000000	78.117063  
685.500000	76.098656  
686.000000	73.953970  
686.500000	71.958599  
687.000000	69.931367  
687.500000	67.818953  
688.000000	66.016141  
688.500000	64.243556  
689.000000	62.748014  
689.500000	61.041055  
690.000000	59.172352  
690.500000	57.338333  
691.000000	55.246100  
691.500000	53.302424  
692.000000	51.503584  
692.500000	49.939608  
693.000000	48.497909  
693.500000	47.096070  
694.000000	45.955259  
694.500000	44.852621  
695.000000	43.794402  
695.500000	42.809129  
696.000000	41.723653  
696.500000	40.555092  
697.000000	39.165432  
697.500000	37.876176  
698.000000	36.670387  
698.500000	35.746450  
699.000000	35.023992  
699.500000	34.382461  
700.000000	33.818799  
700.500000	33.116656  
701.000000	32.363983  
701.500000	31.373105  
702.000000	30.379996  
702.500000	29.370161  
703.000000	28.360198  
703.500000	27.487684  
704.000000	26.590408  
704.500000	25.750684  
705.000000	24.886912  
705.500000	24.182582  
706.000000	23.615285  
706.500000	23.079352  
707.000000	22.699990  
707.500000	22.350981  
708.000000	21.980426  
708.500000	21.532983  
709.000000	21.122773  
709.500000	20.785580  
710.000000	20.447625  
710.500000	20.188467  
711.000000	19.924575  
711.500000	19.549977  
712.000000	19.056510  
712.500000	18.533589  
713.000000	17.943938  
713.500000	17.388866  
714.000000	16.936703  
714.500000	16.621888  
715.000000	16.337307  
715.500000	16.070365  
716.000000	15.806645  
716.500000	15.382649  
717.000000	15.002615  
717.500000	14.671205  
718.000000	14.520055  
718.500000	14.395053  
719.000000	14.312031  
719.500000	14.203317  
720.000000	13.902027  
720.500000	13.540443  
721.000000	13.048256  
721.500000	12.659363  
722.000000	12.354580  
722.500000	12.220018  
723.000000	12.177528  
723.500000	12.118083  
724.000000	12.068350  
724.500000	11.848664  
725.000000	11.524499  
725.500000	11.135929  
726.000000	10.824064  
726.500000	10.553397  
727.000000	10.397025  
727.500000	10.381692  
728.000000	10.353751  
728.500000	10.285801  
729.000000	10.161024  
729.500000	10.019569  
730.000000	9.794346   
730.500000	9.638901   
731.000000	9.519094   
731.500000	9.390419   
732.000000	9.263102   
732.500000	9.096241   
733.000000	8.924784   
733.500000	8.675588   
734.000000	8.490597   
734.500000	8.348820   
735.000000	8.192810   
735.500000	8.100764   
736.000000	7.953192   
736.500000	7.816192   
737.000000	7.563476   
737.500000	7.296495   
738.000000	7.088252   
738.500000	6.957510   
739.000000	6.992756   
739.500000	6.998795   
740.000000	7.019035   
740.500000	6.976693   
741.000000	6.847658   
741.500000	6.675378   
742.000000	6.500298   
742.500000	6.460139   
743.000000	6.447671   
743.500000	6.440673   
744.000000	6.417985   
744.500000	6.352328   
745.000000	6.211294   
745.500000	6.019191   
746.000000	5.892558   
746.500000	5.840513   
747.000000	5.810417   
747.500000	5.827328   
748.000000	5.836679   
748.500000	5.791606   
749.000000	5.700513   
749.500000	5.567096   
750.000000	5.470703   
750.500000	5.434888   
751.000000	5.432708   
751.500000	5.428551   
752.000000	5.387797   
752.500000	5.320695   
753.000000	5.180081   
753.500000	5.064948   
754.000000	5.028428   
754.500000	5.017363   
755.000000	5.069354   
755.500000	5.146836   
756.000000	5.234782   
756.500000	5.225011   
757.000000	5.191128   
757.500000	5.154970   
758.000000	5.029471   
758.500000	4.858927   
759.000000	4.662220   
759.500000	4.542844   
760.000000	4.433250   
760.500000	4.394834   
761.000000	4.422166   
761.500000	4.471137   
762.000000	4.482380   
762.500000	4.417018   
763.000000	4.399256   
763.500000	4.351931   
764.000000	4.246183   
764.500000	4.132439   
765.000000	4.087393   
765.500000	4.047352   
766.000000	4.015777   
766.500000	4.061784   
767.000000	4.170525   
767.500000	4.255569   
768.000000	4.257751   
768.500000	4.249031   
769.000000	4.161551   
769.500000	4.008027   
770.000000	3.811365   
770.500000	3.636198   
771.000000	3.524931   
771.500000	3.406699   
772.000000	3.354185   
772.500000	3.341740   
773.000000	3.399009   
773.500000	3.454816   
774.000000	3.496076   
774.500000	3.570957   
775.000000	3.573699   
775.500000	3.543920   
776.000000	3.457473   
776.500000	3.408187   
777.000000	3.391191   
777.500000	3.398239   
778.000000	3.437337   
778.500000	3.455565   
779.000000	3.474723   
779.500000	3.413248   
780.000000	3.323827   
780.500000	3.225775   
781.000000	3.171890   
781.500000	3.146831   
782.000000	3.096302   
782.500000	3.057679   
783.000000	3.043606   
783.500000	3.032833   
784.000000	3.010961   
784.500000	3.023269   
785.000000	3.061287   
785.500000	3.042962   
786.000000	2.970912   
786.500000	2.943562   
787.000000	2.955487   
787.500000	2.984096   
788.000000	3.047873   
788.500000	3.138671   
789.000000	3.173875   
789.500000	3.096795   
790.000000	2.980022   
790.500000	2.857970   
791.000000	2.764280   
791.500000	2.737818   
792.000000	2.786417   
792.500000	2.852280   
793.000000	2.888187   
793.500000	2.893090   
794.000000	2.840461   
794.500000	2.774050   
795.000000	2.742821   
795.500000	2.758406   
796.000000	2.806599   
796.500000	2.808328   
797.000000	2.793749   
797.500000	2.743849   
798.000000	2.680541   
798.500000	2.634576   
799.000000	2.650181   
799.500000	2.733382   
800.000000	2.801564   
800.500000	2.844660   
801.000000	2.863808   
801.500000	2.836925   
802.000000	2.764901   
802.500000	2.679105   
803.000000	2.588061   
803.500000	2.477358   
804.000000	2.334614   
804.500000	2.222768   
805.000000	2.102189   
805.500000	1.986888   
806.000000	1.937053   
806.500000	1.902621   
807.000000	1.928766   
807.500000	1.963050   
808.000000	2.046922   
808.500000	2.101456   
809.000000	2.083814   
809.500000	2.020320   
810.000000	1.944877   
810.500000	1.889478   
811.000000	1.842389   
811.500000	1.895647   
812.000000	2.015423   
812.500000	2.163640   
813.000000	2.222679   
813.500000	2.236486   
814.000000	2.255547   
814.500000	2.227102   
815.000000	2.200202   
815.500000	2.187172   
816.000000	2.225118   
816.500000	2.209404   
817.000000	2.111831   
817.500000	1.999608   
818.000000	1.869402   
818.500000	1.753833   
819.000000	1.675532   
819.500000	1.672905   
820.000000	1.763014   
820.500000	1.865801   
821.000000	2.012556   
821.500000	2.188558   
822.000000	2.368743   
822.500000	2.559554   
823.000000	2.675842   
823.500000	2.727690   
824.000000	2.717339   
824.500000	2.619489   
825.000000	2.497350   
825.500000	2.413725   
826.000000	2.432131   
826.500000	2.499706   
827.000000	2.544851   
827.500000	2.558738   
828.000000	2.469168   
828.500000	2.246341   
829.000000	1.983794   
829.500000	1.770988   
830.000000	1.619432   
830.500000	1.521448   
831.000000	1.476382   
831.500000	1.453469   
832.000000	1.366705   
832.500000	1.244333   
833.000000	1.157838   
833.500000	1.120777   
834.000000	1.133645   
834.500000	1.162717   
835.000000	1.206660   
835.500000	1.194543   
836.000000	1.114437   
836.500000	1.024448   
837.000000	0.950792   
837.500000	0.913001   
838.000000	0.929846   
838.500000	0.974432   
839.000000	1.005693   
839.500000	1.003027   
840.000000	0.971294   
840.500000	0.927576   
841.000000	0.840269   
841.500000	0.769480   
842.000000	0.693207   
842.500000	0.592946   
843.000000	0.503250   
843.500000	0.427161   
844.000000	0.378717   
844.500000	0.321417   
845.000000	0.329560   
845.500000	0.344968   
846.000000	0.356816   
846.500000	0.414528   
847.000000	0.449565   
847.500000	0.458532   
848.000000	0.393261   
848.500000	0.314643   
849.000000	0.186528   
849.500000	0.074241   
850.000000	0.050853   
850.500000	0.098315   
851.000000	0.179415   
851.500000	0.263094   
852.000000	0.329194   
852.500000	0.329925   
853.000000	0.293849   
853.500000	0.238504   
854.000000	0.178788   
854.500000	0.096384   
855.000000	0.014923   
855.500000	-0.058569  
856.000000	-0.099179  
856.500000	-0.085818  
857.000000	-0.033679  
857.500000	0.062046   
858.000000	0.182896   
858.500000	0.268189   
859.000000	0.306523   
859.500000	0.330938   
860.000000	0.299929   
860.500000	0.235282   
861.000000	0.163037   
861.500000	0.117602   
862.000000	0.084009   
862.500000	0.045677   
863.000000	0.044871   
863.500000	0.030226   
864.000000	-0.022851  
864.500000	-0.106187  
865.000000	-0.187660  
865.500000	-0.225413  
866.000000	-0.250743  
866.500000	-0.217194  
867.000000	-0.169135  
867.500000	-0.146940  
868.000000	-0.146311  
868.500000	-0.166272  
869.000000	-0.154564  
869.500000	-0.140231  
870.000000	-0.083179  
870.500000	-0.031259  
871.000000	0.022367   
871.500000	0.058194   
872.000000	0.070176   
872.500000	0.070886   
873.000000	0.035679   
873.500000	0.010267   
874.000000	-0.049606  
874.500000	-0.100573  
875.000000	-0.136126  
875.500000	-0.157842  
876.000000	-0.149680  
876.500000	-0.143545  
877.000000	-0.128666  
877.500000	-0.139473  
878.000000	-0.142940  
878.500000	-0.139291  
879.000000	-0.141389  
879.500000	-0.104515  
880.000000	-0.072265  
880.500000	-0.043391  
881.000000	-0.034877  
881.500000	-0.011515  
882.000000	0.001482   
882.500000	-0.006170  
883.000000	-0.015970  
883.500000	-0.056974  
884.000000	-0.120165  
884.500000	-0.196424  
885.000000	-0.239970  
885.500000	-0.250599  
886.000000	-0.205580  
886.500000	-0.106706  
887.000000	-0.021855  
887.500000	0.048048   
888.000000	0.082680   
888.500000	0.080790   
889.000000	0.040380   
889.500000	0.008315   
890.000000	0.019159   
890.500000	0.024487   
891.000000	0.043361   
891.500000	0.063931   
892.000000	0.068358   
892.500000	0.038602   
893.000000	0.001259   
893.500000	0.007706   
894.000000	0.004218   
894.500000	0.019849   
895.000000	0.023089   
895.500000	0.026155   
896.000000	-0.011547  
896.500000	-0.073476  

