PE FL                   SPECTRUM    ASCII       PEDS        1.60        
  -1
S003B7~1.SP
24/04/11
16:26:08.00
24/04/11
16:26:08.00
Jan

896.500000
1









LS55
405.00
5.00
5.00
SCAN
1
20
100
100
0
400
0
1
0
1
5
ON
736 405 
1 0 0
#HDR
-1
-1
#GR
NM

0.00002384185791015625
0.0
450.000000
0.500000
894
8
355.788677
-0.133821
#DATA
450.000000	-0.000000  
450.500000	-0.083116  
451.000000	-0.127437  
451.500000	-0.111005  
452.000000	-0.060573  
452.500000	0.015538   
453.000000	0.085922   
453.500000	0.137844   
454.000000	0.099762   
454.500000	0.066738   
455.000000	0.051033   
455.500000	0.012003   
456.000000	-0.011623  
456.500000	-0.005185  
457.000000	0.049979   
457.500000	0.051994   
458.000000	0.088341   
458.500000	0.161664   
459.000000	0.183625   
459.500000	0.194860   
460.000000	0.168714   
460.500000	0.148666   
461.000000	0.123289   
461.500000	0.124734   
462.000000	0.164994   
462.500000	0.147840   
463.000000	0.139829   
463.500000	0.091384   
464.000000	0.023150   
464.500000	-0.012883  
465.000000	0.011628   
465.500000	0.105128   
466.000000	0.147085   
466.500000	0.182055   
467.000000	0.164775   
467.500000	0.091575   
468.000000	0.030077   
468.500000	0.010090   
469.000000	0.062016   
469.500000	0.140307   
470.000000	0.224881   
470.500000	0.284231   
471.000000	0.333723   
471.500000	0.369808   
472.000000	0.368218   
472.500000	0.330339   
473.000000	0.318410   
473.500000	0.299326   
474.000000	0.247571   
474.500000	0.218296   
475.000000	0.217434   
475.500000	0.219467   
476.000000	0.193538   
476.500000	0.206365   
477.000000	0.197142   
477.500000	0.154163   
478.000000	0.165022   
478.500000	0.189955   
479.000000	0.229213   
479.500000	0.280367   
480.000000	0.350723   
480.500000	0.389510   
481.000000	0.351589   
481.500000	0.338063   
482.000000	0.304901   
482.500000	0.237150   
483.000000	0.189389   
483.500000	0.167849   
484.000000	0.152549   
484.500000	0.083781   
485.000000	0.078860   
485.500000	0.119000   
486.000000	0.176196   
486.500000	0.277493   
487.000000	0.365356   
487.500000	0.426387   
488.000000	0.413202   
488.500000	0.387810   
489.000000	0.337799   
489.500000	0.267974   
490.000000	0.246653   
490.500000	0.251907   
491.000000	0.242107   
491.500000	0.218851   
492.000000	0.231398   
492.500000	0.252474   
493.000000	0.235712   
493.500000	0.249714   
494.000000	0.270365   
494.500000	0.257454   
495.000000	0.211083   
495.500000	0.161077   
496.000000	0.125755   
496.500000	0.096133   
497.000000	0.120734   
497.500000	0.190280   
498.000000	0.293092   
498.500000	0.374558   
499.000000	0.404276   
499.500000	0.395267   
500.000000	0.363018   
500.500000	0.351536   
501.000000	0.373244   
501.500000	0.452591   
502.000000	0.554068   
502.500000	0.634434   
503.000000	0.692684   
503.500000	0.740443   
504.000000	0.768855   
504.500000	0.786886   
505.000000	0.819873   
505.500000	0.841946   
506.000000	0.825899   
506.500000	0.838749   
507.000000	0.860348   
507.500000	0.914423   
508.000000	0.971196   
508.500000	1.034979   
509.000000	1.102870   
509.500000	1.104992   
510.000000	1.090050   
510.500000	1.056743   
511.000000	1.069230   
511.500000	1.140016   
512.000000	1.261001   
512.500000	1.435936   
513.000000	1.619614   
513.500000	1.797764   
514.000000	1.953849   
514.500000	2.069307   
515.000000	2.190499   
515.500000	2.260753   
516.000000	2.322061   
516.500000	2.357534   
517.000000	2.348994   
517.500000	2.341959   
518.000000	2.296090   
518.500000	2.294398   
519.000000	2.352589   
519.500000	2.447320   
520.000000	2.548059   
520.500000	2.623294   
521.000000	2.678072   
521.500000	2.706237   
522.000000	2.736810   
522.500000	2.789178   
523.000000	2.851332   
523.500000	2.965202   
524.000000	3.113116   
524.500000	3.203137   
525.000000	3.268712   
525.500000	3.304083   
526.000000	3.349048   
526.500000	3.366384   
527.000000	3.457461   
527.500000	3.651790   
528.000000	3.860217   
528.500000	4.125983   
529.000000	4.383356   
529.500000	4.572834   
530.000000	4.626884   
530.500000	4.640105   
531.000000	4.744081   
531.500000	4.892543   
532.000000	5.173710   
532.500000	5.492998   
533.000000	5.795549   
533.500000	6.007782   
534.000000	6.105858   
534.500000	6.185703   
535.000000	6.267200   
535.500000	6.469554   
536.000000	6.749385   
536.500000	7.055437   
537.000000	7.347430   
537.500000	7.652576   
538.000000	8.005662   
538.500000	8.415565   
539.000000	8.909230   
539.500000	9.488335   
540.000000	10.004935  
540.500000	10.397881  
541.000000	10.701638  
541.500000	10.898218  
542.000000	11.034721  
542.500000	11.070679  
543.000000	11.225834  
543.500000	11.407233  
544.000000	11.519879  
544.500000	11.494157  
545.000000	11.337484  
545.500000	11.171274  
546.000000	10.899254  
546.500000	10.667012  
547.000000	10.506183  
547.500000	10.430254  
548.000000	10.376985  
548.500000	10.255421  
549.000000	10.179384  
549.500000	10.112038  
550.000000	10.023159  
550.500000	10.049970  
551.000000	10.046610  
551.500000	10.069341  
552.000000	10.043185  
552.500000	10.005319  
553.000000	9.975599   
553.500000	9.896313   
554.000000	9.962040   
554.500000	9.945905   
555.000000	9.934204   
555.500000	9.970194   
556.000000	10.085432  
556.500000	10.246074  
557.000000	10.509938  
557.500000	10.958968  
558.000000	11.377363  
558.500000	11.780671  
559.000000	12.131335  
559.500000	12.384061  
560.000000	12.463231  
560.500000	12.584515  
561.000000	12.814179  
561.500000	13.114942  
562.000000	13.612063  
562.500000	14.183461  
563.000000	14.725419  
563.500000	15.192916  
564.000000	15.612528  
564.500000	16.052519  
565.000000	16.476179  
565.500000	17.083912  
566.000000	17.798666  
566.500000	18.575551  
567.000000	19.455936  
567.500000	20.292962  
568.000000	21.040372  
568.500000	21.692133  
569.000000	22.392736  
569.500000	23.190128  
570.000000	23.975916  
570.500000	24.911636  
571.000000	25.830589  
571.500000	26.658133  
572.000000	27.333356  
572.500000	27.948743  
573.000000	28.575551  
573.500000	29.135504  
574.000000	29.834244  
574.500000	30.537256  
575.000000	31.296333  
575.500000	31.973461  
576.000000	32.677530  
576.500000	33.367966  
577.000000	34.097146  
577.500000	35.026831  
578.000000	35.867712  
578.500000	36.831914  
579.000000	37.689547  
579.500000	38.527851  
580.000000	39.251270  
580.500000	39.924807  
581.000000	40.740423  
581.500000	41.401235  
582.000000	42.061016  
582.500000	42.795871  
583.000000	43.547499  
583.500000	44.323801  
584.000000	44.961649  
584.500000	45.935816  
585.000000	47.089447  
585.500000	48.310706  
586.000000	49.691243  
586.500000	51.077838  
587.000000	52.577454  
587.500000	53.655482  
588.000000	54.727105  
588.500000	55.790617  
589.000000	56.869584  
589.500000	57.970282  
590.000000	59.192007  
590.500000	60.574966  
591.000000	62.086096  
591.500000	63.686975  
592.000000	65.295228  
592.500000	67.055962  
593.000000	68.778302  
593.500000	70.559946  
594.000000	72.143502  
594.500000	73.810343  
595.000000	75.510534  
595.500000	77.063862  
596.000000	78.584907  
596.500000	79.989038  
597.000000	81.564755  
597.500000	83.026359  
598.000000	84.631322  
598.500000	86.396575  
599.000000	88.207198  
599.500000	90.185996  
600.000000	92.184962  
600.500000	94.310660  
601.000000	96.674870  
601.500000	99.177614  
602.000000	101.718935 
602.500000	103.919131 
603.000000	106.102018 
603.500000	108.168812 
604.000000	110.177460 
604.500000	112.295894 
605.000000	114.729261 
605.500000	117.325272 
606.000000	119.721053 
606.500000	122.371317 
607.000000	124.949274 
607.500000	127.499706 
608.000000	130.125697 
608.500000	133.090836 
609.000000	135.992152 
609.500000	138.633029 
610.000000	141.413282 
610.500000	144.148660 
611.000000	146.847834 
611.500000	149.543497 
612.000000	152.801077 
612.500000	156.230187 
613.000000	159.677243 
613.500000	163.408289 
614.000000	167.362007 
614.500000	171.259858 
615.000000	174.767053 
615.500000	178.361484 
616.000000	181.905975 
616.500000	185.402376 
617.000000	188.866727 
617.500000	192.516196 
618.000000	196.361974 
618.500000	200.177740 
619.000000	203.856651 
619.500000	207.417408 
620.000000	210.902001 
620.500000	214.325771 
621.000000	217.922968 
621.500000	221.746200 
622.000000	225.865823 
622.500000	229.560478 
623.000000	233.160486 
623.500000	236.605595 
624.000000	240.007172 
624.500000	243.730322 
625.000000	248.062946 
625.500000	253.054831 
626.000000	257.755569 
626.500000	262.298834 
627.000000	266.504307 
627.500000	270.114851 
628.000000	273.539461 
628.500000	277.233732 
629.000000	281.160962 
629.500000	284.865810 
630.000000	288.576059 
630.500000	292.396820 
631.000000	295.891974 
631.500000	299.531877 
632.000000	303.492448 
632.500000	307.571638 
633.000000	311.438012 
633.500000	314.866365 
634.000000	318.209359 
634.500000	321.357638 
635.000000	324.592634 
635.500000	327.742081 
636.000000	330.801920 
636.500000	333.467289 
637.000000	335.097113 
637.500000	336.064137 
638.000000	336.857959 
638.500000	337.848584 
639.000000	338.961987 
639.500000	340.738471 
640.000000	343.260269 
640.500000	345.310228 
641.000000	346.595341 
641.500000	347.636133 
642.000000	348.416907 
642.500000	349.170267 
643.000000	350.255135 
643.500000	351.816929 
644.000000	353.572855 
644.500000	354.893788 
645.000000	355.639979 
645.500000	355.788677 
646.000000	355.271641 
646.500000	354.413740 
647.000000	353.096380 
647.500000	352.012461 
648.000000	350.842667 
648.500000	349.536948 
649.000000	348.526467 
649.500000	348.069855 
650.000000	348.123204 
650.500000	347.857846 
651.000000	347.578040 
651.500000	346.719469 
652.000000	344.630606 
652.500000	341.770974 
653.000000	338.764599 
653.500000	335.913293 
654.000000	333.077931 
654.500000	330.894905 
655.000000	329.363703 
655.500000	327.773098 
656.000000	325.341831 
656.500000	322.509072 
657.000000	319.100333 
657.500000	314.957508 
658.000000	310.771940 
658.500000	307.043179 
659.000000	303.691686 
659.500000	300.362723 
660.000000	297.387881 
660.500000	294.383677 
661.000000	290.793237 
661.500000	286.860693 
662.000000	282.766692 
662.500000	278.689846 
663.000000	274.074165 
663.500000	269.355827 
664.000000	264.375693 
664.500000	259.176109 
665.000000	254.053480 
665.500000	249.023359 
666.000000	244.595122 
666.500000	239.841705 
667.000000	235.426944 
667.500000	231.353786 
668.000000	227.486829 
668.500000	223.544128 
669.000000	219.281651 
669.500000	215.060628 
670.000000	210.038430 
670.500000	204.815564 
671.000000	199.567994 
671.500000	194.671682 
672.000000	189.964376 
672.500000	185.525786 
673.000000	181.142413 
673.500000	176.381148 
674.000000	171.386007 
674.500000	166.502959 
675.000000	162.065207 
675.500000	157.974591 
676.000000	154.280866 
676.500000	150.394571 
677.000000	146.415625 
677.500000	142.279365 
678.000000	137.925723 
678.500000	133.718567 
679.000000	129.803050 
679.500000	126.142074 
680.000000	122.602962 
680.500000	119.273688 
681.000000	116.132120 
681.500000	113.165178 
682.000000	110.349985 
682.500000	107.716868 
683.000000	104.989764 
683.500000	102.067610 
684.000000	99.158087  
684.500000	96.335454  
685.000000	93.625163  
685.500000	91.088910  
686.000000	88.788851  
686.500000	86.450656  
687.000000	83.886239  
687.500000	81.228821  
688.000000	78.448972  
688.500000	75.763233  
689.000000	73.141855  
689.500000	70.752447  
690.000000	68.640755  
690.500000	66.783137  
691.000000	64.849083  
691.500000	62.870085  
692.000000	61.062692  
692.500000	59.276985  
693.000000	57.578282  
693.500000	56.062018  
694.000000	54.859855  
694.500000	53.479538  
695.000000	51.969638  
695.500000	50.637313  
696.000000	49.174714  
696.500000	47.853276  
697.000000	46.595384  
697.500000	45.540773  
698.000000	44.220679  
698.500000	42.762467  
699.000000	41.328246  
699.500000	39.708448  
700.000000	38.384231  
700.500000	37.432137  
701.000000	36.745467  
701.500000	36.109855  
702.000000	35.518784  
702.500000	34.870111  
703.000000	33.942667  
703.500000	32.964627  
704.000000	31.928426  
704.500000	30.930567  
705.000000	30.018782  
705.500000	29.274506  
706.000000	28.564964  
706.500000	27.922742  
707.000000	27.406076  
707.500000	26.876003  
708.000000	26.378632  
708.500000	25.882337  
709.000000	25.380079  
709.500000	24.834769  
710.000000	24.178278  
710.500000	23.604179  
711.000000	22.995256  
711.500000	22.421139  
712.000000	21.935883  
712.500000	21.486189  
713.000000	21.137445  
713.500000	20.669732  
714.000000	20.260513  
714.500000	19.902261  
715.000000	19.445415  
715.500000	19.077619  
716.000000	18.672846  
716.500000	18.259461  
717.000000	17.740936  
717.500000	17.258057  
718.000000	16.872814  
718.500000	16.422983  
719.000000	16.023784  
719.500000	15.684964  
720.000000	15.358237  
720.500000	14.971461  
721.000000	14.661252  
721.500000	14.490792  
722.000000	14.339352  
722.500000	14.183413  
723.000000	14.038406  
723.500000	13.933703  
724.000000	13.723283  
724.500000	13.410285  
725.000000	13.138391  
725.500000	12.867287  
726.000000	12.546213  
726.500000	12.185079  
727.000000	11.999946  
727.500000	11.886970  
728.000000	11.717491  
728.500000	11.591907  
729.000000	11.449189  
729.500000	11.223658  
730.000000	10.865526  
730.500000	10.509434  
731.000000	10.314263  
731.500000	10.185526  
732.000000	10.132556  
732.500000	10.211571  
733.000000	10.234539  
733.500000	10.221923  
734.000000	10.059846  
734.500000	9.907315   
735.000000	9.769959   
735.500000	9.523335   
736.000000	9.354157   
736.500000	9.103777   
737.000000	8.888102   
737.500000	8.598756   
738.000000	8.364098   
738.500000	8.176263   
739.000000	7.924998   
739.500000	7.776218   
740.000000	7.654610   
740.500000	7.573530   
741.000000	7.522007   
741.500000	7.508816   
742.000000	7.504189   
742.500000	7.408443   
743.000000	7.249480   
743.500000	7.093996   
744.000000	6.922593   
744.500000	6.877558   
745.000000	6.917897   
745.500000	7.030293   
746.000000	7.104625   
746.500000	7.103246   
747.000000	7.041487   
747.500000	6.889781   
748.000000	6.742699   
748.500000	6.612285   
749.000000	6.448667   
749.500000	6.294693   
750.000000	6.156423   
750.500000	6.003011   
751.000000	5.846358   
751.500000	5.698415   
752.000000	5.594283   
752.500000	5.480755   
753.000000	5.313265   
753.500000	5.231009   
754.000000	5.205100   
754.500000	5.199085   
755.000000	5.219335   
755.500000	5.271447   
756.000000	5.349285   
756.500000	5.294421   
757.000000	5.236144   
757.500000	5.191517   
758.000000	5.130369   
758.500000	5.107699   
759.000000	4.978669   
759.500000	4.912345   
760.000000	4.787692   
760.500000	4.682808   
761.000000	4.633211   
761.500000	4.576703   
762.000000	4.648907   
762.500000	4.640478   
763.000000	4.579215   
763.500000	4.478768   
764.000000	4.351031   
764.500000	4.273858   
765.000000	4.171860   
765.500000	4.237743   
766.000000	4.348760   
766.500000	4.423135   
767.000000	4.487710   
767.500000	4.449482   
768.000000	4.380296   
768.500000	4.248669   
769.000000	4.150061   
769.500000	4.103847   
770.000000	4.068636   
770.500000	4.106677   
771.000000	4.171233   
771.500000	4.173782   
772.000000	4.099643   
772.500000	3.965910   
773.000000	3.781051   
773.500000	3.593051   
774.000000	3.444038   
774.500000	3.422027   
775.000000	3.387434   
775.500000	3.395695   
776.000000	3.436077   
776.500000	3.473153   
777.000000	3.506970   
777.500000	3.476426   
778.000000	3.475827   
778.500000	3.419228   
779.000000	3.332593   
779.500000	3.233495   
780.000000	3.167398   
780.500000	3.131962   
781.000000	3.146380   
781.500000	3.252573   
782.000000	3.347812   
782.500000	3.424886   
783.000000	3.439050   
783.500000	3.437365   
784.000000	3.394820   
784.500000	3.323525   
785.000000	3.219380   
785.500000	3.102940   
786.000000	3.029992   
786.500000	3.000163   
787.000000	2.991684   
787.500000	2.998951   
788.000000	3.040831   
788.500000	3.078424   
789.000000	3.097755   
789.500000	3.119187   
790.000000	3.140022   
790.500000	3.137933   
791.000000	3.139287   
791.500000	3.129864   
792.000000	3.106886   
792.500000	3.045493   
793.000000	2.972966   
793.500000	2.933000   
794.000000	2.891430   
794.500000	2.855910   
795.000000	2.787580   
795.500000	2.698226   
796.000000	2.594007   
796.500000	2.528538   
797.000000	2.538133   
797.500000	2.590758   
798.000000	2.689094   
798.500000	2.770098   
799.000000	2.814595   
799.500000	2.790276   
800.000000	2.700441   
800.500000	2.589404   
801.000000	2.475692   
801.500000	2.410274   
802.000000	2.387888   
802.500000	2.356000   
803.000000	2.330697   
803.500000	2.300272   
804.000000	2.261940   
804.500000	2.238421   
805.000000	2.236604   
805.500000	2.250398   
806.000000	2.236656   
806.500000	2.231743   
807.000000	2.213415   
807.500000	2.198283   
808.000000	2.203840   
808.500000	2.223545   
809.000000	2.283025   
809.500000	2.350445   
810.000000	2.402426   
810.500000	2.355061   
811.000000	2.293454   
811.500000	2.244324   
812.000000	2.208020   
812.500000	2.182602   
813.000000	2.216567   
813.500000	2.268235   
814.000000	2.210614   
814.500000	2.143643   
815.000000	2.048170   
815.500000	1.943916   
816.000000	1.786094   
816.500000	1.681940   
817.000000	1.671261   
817.500000	1.674784   
818.000000	1.741812   
818.500000	1.850875   
819.000000	2.023096   
819.500000	2.161591   
820.000000	2.305792   
820.500000	2.394706   
821.000000	2.414981   
821.500000	2.419886   
822.000000	2.405309   
822.500000	2.424888   
823.000000	2.435261   
823.500000	2.519014   
824.000000	2.624866   
824.500000	2.704901   
825.000000	2.726966   
825.500000	2.701061   
826.000000	2.680150   
826.500000	2.567129   
827.000000	2.432512   
827.500000	2.318575   
828.000000	2.218129   
828.500000	2.065717   
829.000000	1.887888   
829.500000	1.775276   
830.000000	1.686478   
830.500000	1.569697   
831.000000	1.493233   
831.500000	1.481254   
832.000000	1.440048   
832.500000	1.357868   
833.000000	1.260040   
833.500000	1.179671   
834.000000	1.067638   
834.500000	0.961350   
835.000000	0.900640   
835.500000	0.855972   
836.000000	0.833706   
836.500000	0.812320   
837.000000	0.804873   
837.500000	0.773901   
838.000000	0.734525   
838.500000	0.738367   
839.000000	0.756454   
839.500000	0.776435   
840.000000	0.821614   
840.500000	0.851317   
841.000000	0.843051   
841.500000	0.809280   
842.000000	0.797304   
842.500000	0.795397   
843.000000	0.749159   
843.500000	0.726664   
844.000000	0.687389   
844.500000	0.600521   
845.000000	0.520371   
845.500000	0.466100   
846.000000	0.459471   
846.500000	0.437428   
847.000000	0.422602   
847.500000	0.409773   
848.000000	0.327109   
848.500000	0.254595   
849.000000	0.198024   
849.500000	0.194263   
850.000000	0.229283   
850.500000	0.279205   
851.000000	0.344922   
851.500000	0.336608   
852.000000	0.310515   
852.500000	0.270847   
853.000000	0.220174   
853.500000	0.162155   
854.000000	0.091612   
854.500000	0.041189   
855.000000	-0.055417  
855.500000	-0.114855  
856.000000	-0.105686  
856.500000	-0.039302  
857.000000	0.040532   
857.500000	0.121393   
858.000000	0.208181   
858.500000	0.215723   
859.000000	0.183283   
859.500000	0.141320   
860.000000	0.106653   
860.500000	0.084929   
861.000000	0.066788   
861.500000	0.076508   
862.000000	0.081231   
862.500000	0.100936   
863.000000	0.116949   
863.500000	0.102951   
864.000000	0.083619   
864.500000	0.019881   
865.000000	-0.056530  
865.500000	-0.120486  
866.000000	-0.126699  
866.500000	-0.084788  
867.000000	-0.042910  
867.500000	0.017252   
868.000000	0.057213   
868.500000	0.069191   
869.000000	0.064597   
869.500000	0.068191   
870.000000	0.083037   
870.500000	0.081118   
871.000000	0.093077   
871.500000	0.101606   
872.000000	0.082406   
872.500000	0.078810   
873.000000	0.076163   
873.500000	0.071011   
874.000000	0.031599   
874.500000	-0.022506  
875.000000	-0.041627  
875.500000	-0.072838  
876.000000	-0.068703  
876.500000	-0.040350  
877.000000	0.004298   
877.500000	0.022200   
878.000000	-0.001115  
878.500000	-0.001487  
879.000000	-0.018372  
879.500000	-0.042491  
880.000000	-0.083391  
880.500000	-0.094528  
881.000000	-0.059224  
881.500000	-0.021729  
882.000000	0.072346   
882.500000	0.177632   
883.000000	0.244513   
883.500000	0.220732   
884.000000	0.132883   
884.500000	0.036647   
885.000000	-0.077263  
885.500000	-0.133821  
886.000000	-0.129834  
886.500000	-0.103035  
887.000000	-0.077055  
887.500000	-0.052758  
888.000000	-0.024387  
888.500000	0.002669   
889.000000	0.012072   
889.500000	0.025166   
890.000000	0.007244   
890.500000	-0.032623  
891.000000	-0.046899  
891.500000	-0.041337  
892.000000	0.008851   
892.500000	0.062614   
893.000000	0.113113   
893.500000	0.134506   
894.000000	0.102825   
894.500000	0.054474   
895.000000	-0.018855  
895.500000	-0.071970  
896.000000	-0.102250  
896.500000	-0.099274  

