PE FL                   SPECTRUM    ASCII       PEDS        1.60        
  -1
S01_IN~3.SP
24/04/11
16:07:36.00
24/04/11
16:07:36.00
Jan

896.500000
1









LS55
405.00
5.00
5.00
SCAN
1
20
100
100
0
400
0
1
0
1
5
ON
736 405 
1 0 0
#HDR
-1
-1
#GR
NM

0.00002384185791015625
0.0
450.000000
0.500000
894
8
407.923790
-0.336000
#DATA
450.000000	-0.336000  
450.500000	-0.166871  
451.000000	-0.034842  
451.500000	0.068586   
452.000000	0.108632   
452.500000	0.105977   
453.000000	0.102452   
453.500000	0.116899   
454.000000	0.125246   
454.500000	0.162625   
455.000000	0.223717   
455.500000	0.274278   
456.000000	0.276961   
456.500000	0.285706   
457.000000	0.274471   
457.500000	0.199155   
458.000000	0.113172   
458.500000	0.035769   
459.000000	-0.047808  
459.500000	-0.140473  
460.000000	-0.164246  
460.500000	-0.124038  
461.000000	-0.064480  
461.500000	0.011595   
462.000000	0.105276   
462.500000	0.156428   
463.000000	0.195460   
463.500000	0.226448   
464.000000	0.248337   
464.500000	0.253469   
465.000000	0.244248   
465.500000	0.243120   
466.000000	0.179905   
466.500000	0.129890   
467.000000	0.127905   
467.500000	0.120690   
468.000000	0.124317   
468.500000	0.146617   
469.000000	0.197296   
469.500000	0.195664   
470.000000	0.181888   
470.500000	0.231679   
471.000000	0.261992   
471.500000	0.270417   
472.000000	0.275196   
472.500000	0.269884   
473.000000	0.222016   
473.500000	0.147539   
474.000000	0.095500   
474.500000	0.061853   
475.000000	0.065795   
475.500000	0.118341   
476.000000	0.182352   
476.500000	0.230807   
477.000000	0.272935   
477.500000	0.319795   
478.000000	0.376651   
478.500000	0.428654   
479.000000	0.472808   
479.500000	0.504302   
480.000000	0.491220   
480.500000	0.434252   
481.000000	0.366320   
481.500000	0.299395   
482.000000	0.228905   
482.500000	0.139411   
483.000000	0.104558   
483.500000	0.122812   
484.000000	0.153126   
484.500000	0.206738   
485.000000	0.283764   
485.500000	0.350486   
486.000000	0.352990   
486.500000	0.313820   
487.000000	0.268176   
487.500000	0.202517   
488.000000	0.149393   
488.500000	0.093213   
489.000000	0.057465   
489.500000	0.072079   
490.000000	0.067866   
490.500000	0.080057   
491.000000	0.100285   
491.500000	0.147957   
492.000000	0.159658   
492.500000	0.140936   
493.000000	0.185270   
493.500000	0.222981   
494.000000	0.254855   
494.500000	0.289560   
495.000000	0.352586   
495.500000	0.383063   
496.000000	0.350567   
496.500000	0.333556   
497.000000	0.327421   
497.500000	0.294532   
498.000000	0.298742   
498.500000	0.341172   
499.000000	0.405033   
499.500000	0.452920   
500.000000	0.479157   
500.500000	0.509827   
501.000000	0.535842   
501.500000	0.586174   
502.000000	0.647139   
502.500000	0.726185   
503.000000	0.796523   
503.500000	0.845784   
504.000000	0.854423   
504.500000	0.858979   
505.000000	0.866335   
505.500000	0.847319   
506.000000	0.838454   
506.500000	0.870410   
507.000000	0.946332   
507.500000	0.981217   
508.000000	1.011656   
508.500000	1.045332   
509.000000	1.077842   
509.500000	1.105419   
510.000000	1.158170   
510.500000	1.250378   
511.000000	1.369218   
511.500000	1.513025   
512.000000	1.661287   
512.500000	1.874131   
513.000000	2.064250   
513.500000	2.236717   
514.000000	2.357205   
514.500000	2.387012   
515.000000	2.310949   
515.500000	2.129150   
516.000000	2.011608   
516.500000	1.964662   
517.000000	2.021146   
517.500000	2.149640   
518.000000	2.320343   
518.500000	2.439680   
519.000000	2.480205   
519.500000	2.511586   
520.000000	2.512736   
520.500000	2.524805   
521.000000	2.585090   
521.500000	2.696827   
522.000000	2.769137   
522.500000	2.814586   
523.000000	2.858884   
523.500000	2.874834   
524.000000	2.884749   
524.500000	2.910760   
525.000000	2.990289   
525.500000	3.097027   
526.000000	3.198359   
526.500000	3.398473   
527.000000	3.600758   
527.500000	3.768257   
528.000000	3.877068   
528.500000	3.977925   
529.000000	4.094359   
529.500000	4.167007   
530.000000	4.323324   
530.500000	4.538398   
531.000000	4.856705   
531.500000	5.138617   
532.000000	5.409200   
532.500000	5.651942   
533.000000	5.862886   
533.500000	6.133565   
534.000000	6.380211   
534.500000	6.703139   
535.000000	6.918734   
535.500000	7.073636   
536.000000	7.159068   
536.500000	7.198404   
537.000000	7.323478   
537.500000	7.553391   
538.000000	8.016282   
538.500000	8.640964   
539.000000	9.289677   
539.500000	10.001812  
540.000000	10.622077  
540.500000	11.067549  
541.000000	11.378827  
541.500000	11.558469  
542.000000	11.682743  
542.500000	11.581463  
543.000000	11.418313  
543.500000	11.252519  
544.000000	11.014797  
544.500000	10.843378  
545.000000	10.687740  
545.500000	10.680378  
546.000000	10.649161  
546.500000	10.640576  
547.000000	10.567233  
547.500000	10.385688  
548.000000	10.215161  
548.500000	9.996064   
549.000000	9.864289   
549.500000	9.804363   
550.000000	9.875864   
550.500000	9.956927   
551.000000	10.034808  
551.500000	10.158688  
552.000000	10.213922  
552.500000	10.266183  
553.000000	10.230053  
553.500000	10.214723  
554.000000	10.242712  
554.500000	10.366987  
555.000000	10.635673  
555.500000	10.940621  
556.000000	11.295940  
556.500000	11.558899  
557.000000	11.664309  
557.500000	11.694165  
558.000000	11.713309  
558.500000	11.637202  
559.000000	11.746159  
559.500000	12.101669  
560.000000	12.544443  
560.500000	13.022888  
561.000000	13.493474  
561.500000	13.980174  
562.000000	14.275231  
562.500000	14.542693  
563.000000	14.855810  
563.500000	15.181977  
564.000000	15.611957  
564.500000	16.066831  
565.000000	16.786914  
565.500000	17.615428  
566.000000	18.569768  
566.500000	19.490612  
567.000000	20.400079  
567.500000	21.336792  
568.000000	22.103899  
568.500000	22.810471  
569.000000	23.568016  
569.500000	24.430677  
570.000000	25.271404  
570.500000	26.056675  
571.000000	26.892638  
571.500000	27.654543  
572.000000	28.479695  
572.500000	29.249962  
573.000000	30.058786  
573.500000	30.872591  
574.000000	31.673679  
574.500000	32.442647  
575.000000	33.180103  
575.500000	34.063890  
576.000000	34.925664  
576.500000	35.947155  
577.000000	37.013491  
577.500000	38.074532  
578.000000	39.063166  
578.500000	39.922304  
579.000000	40.661068  
579.500000	41.202909  
580.000000	41.981972  
580.500000	42.861862  
581.000000	43.828330  
581.500000	44.955224  
582.000000	46.270556  
582.500000	47.509799  
583.000000	48.556541  
583.500000	49.667259  
584.000000	50.907270  
584.500000	51.838146  
585.000000	52.849766  
585.500000	54.034612  
586.000000	55.066495  
586.500000	56.063879  
587.000000	57.113567  
587.500000	58.301228  
588.000000	59.101719  
588.500000	60.076196  
589.000000	61.472666  
589.500000	63.069905  
590.000000	64.857471  
590.500000	66.817361  
591.000000	68.893922  
591.500000	70.442465  
592.000000	71.685996  
592.500000	72.830174  
593.000000	73.899805  
593.500000	74.982035  
594.000000	76.298679  
594.500000	77.912907  
595.000000	79.830144  
595.500000	81.927716  
596.000000	84.116207  
596.500000	86.374903  
597.000000	88.621269  
597.500000	90.836432  
598.000000	92.994510  
598.500000	95.402710  
599.000000	97.893408  
599.500000	100.322224 
600.000000	102.562179 
600.500000	104.645163 
601.000000	106.512335 
601.500000	108.084148 
602.000000	109.902751 
602.500000	112.153183 
603.000000	114.719304 
603.500000	117.510235 
604.000000	120.605270 
604.500000	123.846007 
605.000000	126.955387 
605.500000	130.018847 
606.000000	133.079081 
606.500000	135.951085 
607.000000	138.585795 
607.500000	141.074961 
608.000000	143.430100 
608.500000	145.596304 
609.000000	147.978938 
609.500000	150.468964 
610.000000	153.072024 
610.500000	156.164842 
611.000000	159.588448 
611.500000	163.253847 
612.000000	166.834521 
612.500000	170.700808 
613.000000	174.592528 
613.500000	178.122025 
614.000000	181.670636 
614.500000	185.335215 
615.000000	189.170517 
615.500000	193.145847 
616.000000	197.355183 
616.500000	201.910855 
617.000000	206.298484 
617.500000	210.792998 
618.000000	215.330458 
618.500000	219.623055 
619.000000	223.796424 
619.500000	227.567322 
620.000000	231.415502 
620.500000	234.844871 
621.000000	238.190311 
621.500000	242.020667 
622.000000	246.059189 
622.500000	250.386851 
623.000000	254.710860 
623.500000	259.436345 
624.000000	263.902356 
624.500000	268.113985 
625.000000	272.449352 
625.500000	277.066643 
626.000000	281.910782 
626.500000	286.773152 
627.000000	291.753897 
627.500000	296.745408 
628.000000	301.436085 
628.500000	305.766011 
629.000000	309.857742 
629.500000	313.930009 
630.000000	318.218660 
630.500000	322.680163 
631.000000	327.187705 
631.500000	332.151079 
632.000000	337.227261 
632.500000	341.801124 
633.000000	346.027063 
633.500000	350.404487 
634.000000	354.510294 
634.500000	358.366706 
635.000000	362.123996 
635.500000	365.527448 
636.000000	368.326519 
636.500000	370.779122 
637.000000	373.906513 
637.500000	377.347445 
638.000000	381.136261 
638.500000	385.384851 
639.000000	389.031194 
639.500000	391.718738 
640.000000	393.161840 
640.500000	394.083705 
641.000000	394.669935 
641.500000	395.474944 
642.000000	397.129092 
642.500000	399.071526 
643.000000	401.297460 
643.500000	403.562630 
644.000000	405.275929 
644.500000	406.732564 
645.000000	407.589807 
645.500000	407.923790 
646.000000	407.868176 
646.500000	407.417564 
647.000000	407.100380 
647.500000	406.709931 
648.000000	406.671426 
648.500000	406.595224 
649.000000	406.529077 
649.500000	406.551758 
650.000000	405.903194 
650.500000	404.774933 
651.000000	403.195469 
651.500000	401.411205 
652.000000	398.966406 
652.500000	396.738812 
653.000000	394.971528 
653.500000	393.137270 
654.000000	391.212873 
654.500000	389.436252 
655.000000	387.470411 
655.500000	384.756285 
656.000000	381.754103 
656.500000	378.361615 
657.000000	375.003113 
657.500000	371.663222 
658.000000	368.509426 
658.500000	365.159983 
659.000000	361.885092 
659.500000	358.659508 
660.000000	354.860922 
660.500000	351.203463 
661.000000	347.581178 
661.500000	343.537213 
662.000000	339.197599 
662.500000	334.868079 
663.000000	330.192105 
663.500000	324.961018 
664.000000	319.589198 
664.500000	314.727805 
665.000000	309.523743 
665.500000	304.433914 
666.000000	299.256836 
666.500000	293.482352 
667.000000	287.640821 
667.500000	281.667365 
668.000000	276.266797 
668.500000	270.803627 
669.000000	265.871254 
669.500000	261.447621 
670.000000	256.948519 
670.500000	252.504343 
671.000000	247.315961 
671.500000	241.762330 
672.000000	236.043703 
672.500000	230.092562 
673.000000	224.189602 
673.500000	218.434764 
674.000000	213.145820 
674.500000	207.922777 
675.000000	202.593185 
675.500000	197.354617 
676.000000	191.884233 
676.500000	186.302526 
677.000000	181.029267 
677.500000	176.323426 
678.000000	172.062899 
678.500000	167.923714 
679.000000	164.074204 
679.500000	160.021727 
680.000000	155.819218 
680.500000	151.783146 
681.000000	147.767606 
681.500000	143.811677 
682.000000	140.043790 
682.500000	136.426259 
683.000000	132.564560 
683.500000	128.588538 
684.000000	124.655749 
684.500000	120.817595 
685.000000	116.988838 
685.500000	113.476530 
686.000000	110.297261 
686.500000	107.058270 
687.000000	103.996209 
687.500000	101.245671 
688.000000	98.664404  
688.500000	96.046966  
689.000000	93.769261  
689.500000	91.537235  
690.000000	88.947658  
690.500000	86.244092  
691.000000	83.587888  
691.500000	80.967985  
692.000000	78.357575  
692.500000	76.135541  
693.000000	74.237660  
693.500000	72.296604  
694.000000	70.341909  
694.500000	68.316272  
695.000000	66.220821  
695.500000	64.027894  
696.000000	62.011632  
696.500000	60.326625  
697.000000	58.628211  
697.500000	57.062808  
698.000000	55.560051  
698.500000	54.094178  
699.000000	52.580003  
699.500000	50.926871  
700.000000	49.431818  
700.500000	47.892009  
701.000000	46.428690  
701.500000	45.053217  
702.000000	43.929265  
702.500000	42.893846  
703.000000	41.788471  
703.500000	40.773233  
704.000000	39.650764  
704.500000	38.536322  
705.000000	37.510322  
705.500000	36.627723  
706.000000	35.853714  
706.500000	35.069274  
707.000000	34.271549  
707.500000	33.356493  
708.000000	32.442873  
708.500000	31.624191  
709.000000	30.754788  
709.500000	29.963560  
710.000000	29.232935  
710.500000	28.604975  
711.000000	28.020480  
711.500000	27.542671  
712.000000	27.241768  
712.500000	26.784044  
713.000000	26.281228  
713.500000	25.617159  
714.000000	24.918124  
714.500000	24.213282  
715.000000	23.650526  
715.500000	23.269100  
716.000000	22.871306  
716.500000	22.440864  
717.000000	21.927998  
717.500000	21.409326  
718.000000	20.868686  
718.500000	20.450259  
719.000000	20.173697  
719.500000	19.935866  
720.000000	19.581178  
720.500000	19.041606  
721.000000	18.453350  
721.500000	17.786595  
722.000000	17.176682  
722.500000	16.789183  
723.000000	16.602159  
723.500000	16.475951  
724.000000	16.259703  
724.500000	16.049714  
725.000000	15.717730  
725.500000	15.199471  
726.000000	14.704283  
726.500000	14.294530  
727.000000	13.930046  
727.500000	13.568309  
728.000000	13.324192  
728.500000	13.148296  
729.000000	12.862569  
729.500000	12.594031  
730.000000	12.415966  
730.500000	12.225439  
731.000000	12.026525  
731.500000	11.855077  
732.000000	11.756204  
732.500000	11.591319  
733.000000	11.346079  
733.500000	11.112447  
734.000000	10.871384  
734.500000	10.673641  
735.000000	10.520575  
735.500000	10.442881  
736.000000	10.393289  
736.500000	10.359198  
737.000000	10.280640  
737.500000	10.130567  
738.000000	9.978022   
738.500000	9.721474   
739.000000	9.430250   
739.500000	9.125988   
740.000000	8.919512   
740.500000	8.780827   
741.000000	8.664938   
741.500000	8.675103   
742.000000	8.630673   
742.500000	8.577120   
743.000000	8.431846   
743.500000	8.240469   
744.000000	8.070981   
744.500000	7.925525   
745.000000	7.929680   
745.500000	7.948059   
746.000000	7.966435   
746.500000	7.954107   
747.000000	7.876196   
747.500000	7.770979   
748.000000	7.645213   
748.500000	7.546959   
749.000000	7.381066   
749.500000	7.172035   
750.000000	6.897573   
750.500000	6.567066   
751.000000	6.231235   
751.500000	5.967137   
752.000000	5.915165   
752.500000	5.953239   
753.000000	6.123927   
753.500000	6.262617   
754.000000	6.310200   
754.500000	6.179011   
755.000000	5.938643   
755.500000	5.753576   
756.000000	5.593849   
756.500000	5.618938   
757.000000	5.672680   
757.500000	5.742575   
758.000000	5.726784   
758.500000	5.632406   
759.000000	5.494823   
759.500000	5.343766   
760.000000	5.334990   
760.500000	5.382333   
761.000000	5.468461   
761.500000	5.537677   
762.000000	5.539816   
762.500000	5.465157   
763.000000	5.350319   
763.500000	5.263105   
764.000000	5.193448   
764.500000	5.181109   
765.000000	5.219478   
765.500000	5.221812   
766.000000	5.144107   
766.500000	5.030406   
767.000000	4.810543   
767.500000	4.560562   
768.000000	4.415461   
768.500000	4.440645   
769.000000	4.557532   
769.500000	4.673762   
770.000000	4.776790   
770.500000	4.715484   
771.000000	4.511493   
771.500000	4.280228   
772.000000	4.089654   
772.500000	3.988423   
773.000000	3.944378   
773.500000	3.997218   
774.000000	4.008031   
774.500000	3.990074   
775.000000	3.924938   
775.500000	3.827775   
776.000000	3.753259   
776.500000	3.660660   
777.000000	3.650799   
777.500000	3.661725   
778.000000	3.731966   
778.500000	3.837526   
779.000000	3.918224   
779.500000	3.961081   
780.000000	3.897307   
780.500000	3.819393   
781.000000	3.689769   
781.500000	3.613007   
782.000000	3.602699   
782.500000	3.636504   
783.000000	3.676857   
783.500000	3.682029   
784.000000	3.687072   
784.500000	3.635582   
785.000000	3.516254   
785.500000	3.400398   
786.000000	3.320619   
786.500000	3.237536   
787.000000	3.184435   
787.500000	3.196096   
788.000000	3.258306   
788.500000	3.298027   
789.000000	3.308406   
789.500000	3.291818   
790.000000	3.220564   
790.500000	3.109196   
791.000000	3.019129   
791.500000	2.992578   
792.000000	3.001341   
792.500000	2.993001   
793.000000	2.974922   
793.500000	2.947792   
794.000000	2.889857   
794.500000	2.831836   
795.000000	2.779578   
795.500000	2.794348   
796.000000	2.837077   
796.500000	2.849361   
797.000000	2.867068   
797.500000	2.866738   
798.000000	2.837714   
798.500000	2.769118   
799.000000	2.720807   
799.500000	2.725421   
800.000000	2.697259   
800.500000	2.710282   
801.000000	2.761480   
801.500000	2.776853   
802.000000	2.742534   
802.500000	2.647012   
803.000000	2.564968   
803.500000	2.456799   
804.000000	2.366790   
804.500000	2.358283   
805.000000	2.382792   
805.500000	2.434974   
806.000000	2.472942   
806.500000	2.514888   
807.000000	2.550252   
807.500000	2.541825   
808.000000	2.569324   
808.500000	2.595814   
809.000000	2.603274   
809.500000	2.536836   
810.000000	2.407077   
810.500000	2.268630   
811.000000	2.090588   
811.500000	1.946358   
812.000000	1.851669   
812.500000	1.799456   
813.000000	1.769343   
813.500000	1.744205   
814.000000	1.724317   
814.500000	1.717630   
815.000000	1.691875   
815.500000	1.676580   
816.000000	1.675291   
816.500000	1.707569   
817.000000	1.785367   
817.500000	1.834005   
818.000000	1.910677   
818.500000	1.978309   
819.000000	2.026801   
819.500000	2.041682   
820.000000	2.056504   
820.500000	2.139217   
821.000000	2.247354   
821.500000	2.368356   
822.000000	2.496307   
822.500000	2.605274   
823.000000	2.676116   
823.500000	2.693988   
824.000000	2.699489   
824.500000	2.721532   
825.000000	2.686053   
825.500000	2.644179   
826.000000	2.592847   
826.500000	2.554569   
827.000000	2.529020   
827.500000	2.463179   
828.000000	2.413543   
828.500000	2.305473   
829.000000	2.142315   
829.500000	1.949389   
830.000000	1.753497   
830.500000	1.617851   
831.000000	1.470359   
831.500000	1.364326   
832.000000	1.290868   
832.500000	1.218742   
833.000000	1.160224   
833.500000	1.114771   
834.000000	1.130920   
834.500000	1.136593   
835.000000	1.123428   
835.500000	1.112163   
836.000000	1.073287   
836.500000	1.007588   
837.000000	0.922202   
837.500000	0.860256   
838.000000	0.802302   
838.500000	0.742602   
839.000000	0.719933   
839.500000	0.736048   
840.000000	0.762959   
840.500000	0.820332   
841.000000	0.891628   
841.500000	0.940883   
842.000000	0.946007   
842.500000	0.907489   
843.000000	0.871252   
843.500000	0.802755   
844.000000	0.714521   
844.500000	0.633833   
845.000000	0.550011   
845.500000	0.485003   
846.000000	0.418465   
846.500000	0.389450   
847.000000	0.396586   
847.500000	0.424359   
848.000000	0.456211   
848.500000	0.445447   
849.000000	0.422497   
849.500000	0.366606   
850.000000	0.296487   
850.500000	0.238094   
851.000000	0.233404   
851.500000	0.276434   
852.000000	0.314688   
852.500000	0.352612   
853.000000	0.380367   
853.500000	0.369371   
854.000000	0.314393   
854.500000	0.252313   
855.000000	0.205801   
855.500000	0.173589   
856.000000	0.159406   
856.500000	0.168599   
857.000000	0.141335   
857.500000	0.079027   
858.000000	0.023656   
858.500000	-0.026244  
859.000000	-0.044706  
859.500000	-0.033868  
860.000000	0.032955   
860.500000	0.109745   
861.000000	0.152122   
861.500000	0.180909   
862.000000	0.174907   
862.500000	0.151037   
863.000000	0.109699   
863.500000	0.090244   
864.000000	0.078016   
864.500000	0.065332   
865.000000	0.057816   
865.500000	0.045467   
866.000000	0.037703   
866.500000	0.028692   
867.000000	0.010571   
867.500000	-0.014593  
868.000000	-0.006333  
868.500000	0.009717   
869.000000	0.032794   
869.500000	0.062946   
870.000000	0.070909   
870.500000	0.093233   
871.000000	0.069424   
871.500000	0.057521   
872.000000	0.025647   
872.500000	-0.039853  
873.000000	-0.079282  
873.500000	-0.090953  
874.000000	-0.045862  
874.500000	0.022766   
875.000000	0.119756   
875.500000	0.207107   
876.000000	0.230063   
876.500000	0.208204   
877.000000	0.115289   
877.500000	0.043966   
878.000000	-0.004243  
878.500000	-0.011864  
879.000000	0.030591   
879.500000	0.082400   
880.000000	0.139218   
880.500000	0.138883   
881.000000	0.113849   
881.500000	0.073625   
882.000000	0.034471   
882.500000	0.000489   
883.000000	-0.006304  
883.500000	0.012124   
884.000000	-0.002109  
884.500000	-0.018816  
885.000000	-0.065549  
885.500000	-0.100768  
886.000000	-0.130378  
886.500000	-0.115202  
887.000000	-0.080016  
887.500000	-0.037541  
888.000000	0.022573   
888.500000	0.035174   
889.000000	0.026775   
889.500000	-0.012235  
890.000000	-0.046820  
890.500000	-0.087231  
891.000000	-0.127551  
891.500000	-0.125115  
892.000000	-0.116951  
892.500000	-0.077003  
893.000000	-0.026068  
893.500000	0.047560   
894.000000	0.112532   
894.500000	0.158955   
895.000000	0.196692   
895.500000	0.188565   
896.000000	0.147692   
896.500000	0.078211   

