PE FL                   SPECTRUM    ASCII       PEDS        1.60        
  -1
S003CB~1.SP
24/04/11
16:14:44.00
24/04/11
16:14:44.00
Jan

896.500000
1









LS55
405.00
5.00
5.00
SCAN
1
20
100
100
0
400
0
1
0
1
5
ON
736 405 
1 0 0
#HDR
-1
-1
#GR
NM

0.00002384185791015625
0.0
450.000000
0.500000
894
8
386.543100
-0.223170
#DATA
450.000000	0.334000   
450.500000	0.238391   
451.000000	0.148330   
451.500000	0.125437   
452.000000	0.140710   
452.500000	0.180003   
453.000000	0.187120   
453.500000	0.212840   
454.000000	0.140996   
454.500000	0.040929   
455.000000	-0.002350  
455.500000	-0.040105  
456.000000	-0.038940  
456.500000	-0.048931  
457.000000	0.012205   
457.500000	0.022495   
458.000000	0.019957   
458.500000	0.028152   
459.000000	-0.025564  
459.500000	-0.061207  
460.000000	-0.119326  
460.500000	-0.132450  
461.000000	-0.100599  
461.500000	-0.020892  
462.000000	0.089142   
462.500000	0.181910   
463.000000	0.268860   
463.500000	0.296688   
464.000000	0.281053   
464.500000	0.244300   
465.000000	0.196296   
465.500000	0.136788   
466.000000	0.063055   
466.500000	0.005935   
467.000000	-0.031567  
467.500000	-0.012803  
468.000000	0.058489   
468.500000	0.132688   
469.000000	0.191137   
469.500000	0.216356   
470.000000	0.212820   
470.500000	0.165536   
471.000000	0.142743   
471.500000	0.136241   
472.000000	0.140146   
472.500000	0.183558   
473.000000	0.191248   
473.500000	0.182504   
474.000000	0.149801   
474.500000	0.129708   
475.000000	0.104641   
475.500000	0.080654   
476.000000	0.090141   
476.500000	0.129920   
477.000000	0.142074   
477.500000	0.151445   
478.000000	0.187014   
478.500000	0.240159   
479.000000	0.286313   
479.500000	0.312474   
480.000000	0.354525   
480.500000	0.334166   
481.000000	0.263025   
481.500000	0.173558   
482.000000	0.143022   
482.500000	0.174849   
483.000000	0.211775   
483.500000	0.275580   
484.000000	0.328063   
484.500000	0.321371   
485.000000	0.266320   
485.500000	0.203354   
486.000000	0.168777   
486.500000	0.157677   
487.000000	0.122332   
487.500000	0.117131   
488.000000	0.088189   
488.500000	0.076282   
489.000000	0.081423   
489.500000	0.141072   
490.000000	0.250927   
490.500000	0.369137   
491.000000	0.468055   
491.500000	0.486703   
492.000000	0.465510   
492.500000	0.405729   
493.000000	0.357985   
493.500000	0.361003   
494.000000	0.385864   
494.500000	0.423858   
495.000000	0.450562   
495.500000	0.439528   
496.000000	0.412842   
496.500000	0.371465   
497.000000	0.353773   
497.500000	0.343833   
498.000000	0.359515   
498.500000	0.403951   
499.000000	0.423634   
499.500000	0.449356   
500.000000	0.479165   
500.500000	0.549957   
501.000000	0.612884   
501.500000	0.676727   
502.000000	0.737441   
502.500000	0.759667   
503.000000	0.763953   
503.500000	0.765825   
504.000000	0.792931   
504.500000	0.848866   
505.000000	0.908124   
505.500000	0.963636   
506.000000	0.997714   
506.500000	1.026851   
507.000000	1.045432   
507.500000	1.046372   
508.000000	1.061243   
508.500000	1.125515   
509.000000	1.198178   
509.500000	1.231133   
510.000000	1.237155   
510.500000	1.253673   
511.000000	1.247371   
511.500000	1.231959   
512.000000	1.315315   
512.500000	1.473309   
513.000000	1.647658   
513.500000	1.777762   
514.000000	1.890317   
514.500000	1.967979   
515.000000	1.928289   
515.500000	1.880133   
516.000000	1.839684   
516.500000	1.884415   
517.000000	1.960584   
517.500000	2.062306   
518.000000	2.222217   
518.500000	2.369556   
519.000000	2.511231   
519.500000	2.592363   
520.000000	2.672812   
520.500000	2.741643   
521.000000	2.763682   
521.500000	2.773521   
522.000000	2.775486   
522.500000	2.810426   
523.000000	2.859877   
523.500000	2.916914   
524.000000	3.021604   
524.500000	3.196673   
525.000000	3.308380   
525.500000	3.394998   
526.000000	3.471471   
526.500000	3.604153   
527.000000	3.716914   
527.500000	3.813567   
528.000000	3.948515   
528.500000	4.003538   
529.000000	4.064048   
529.500000	4.107974   
530.000000	4.245591   
530.500000	4.433064   
531.000000	4.657320   
531.500000	4.968868   
532.000000	5.220762   
532.500000	5.422795   
533.000000	5.597328   
533.500000	5.746742   
534.000000	5.909708   
534.500000	6.041064   
535.000000	6.316612   
535.500000	6.668576   
536.000000	7.062803   
536.500000	7.556779   
537.000000	8.038050   
537.500000	8.529692   
538.000000	8.845179   
538.500000	9.176235   
539.000000	9.449528   
539.500000	9.697664   
540.000000	10.059962  
540.500000	10.372790  
541.000000	10.729428  
541.500000	10.995250  
542.000000	11.290838  
542.500000	11.416354  
543.000000	11.420142  
543.500000	11.443076  
544.000000	11.418248  
544.500000	11.387261  
545.000000	11.278638  
545.500000	11.203833  
546.000000	11.015467  
546.500000	10.763178  
547.000000	10.482278  
547.500000	10.249708  
548.000000	10.172604  
548.500000	10.146636  
549.000000	10.188291  
549.500000	10.211853  
550.000000	10.249734  
550.500000	10.262326  
551.000000	10.199630  
551.500000	10.249894  
552.000000	10.390116  
552.500000	10.513627  
553.000000	10.634319  
553.500000	10.755040  
554.000000	10.808402  
554.500000	10.724417  
555.000000	10.629593  
555.500000	10.619309  
556.000000	10.575226  
556.500000	10.650499  
557.000000	10.937597  
557.500000	11.379693  
558.000000	11.813907  
558.500000	12.217779  
559.000000	12.628871  
559.500000	12.814673  
560.000000	12.856959  
560.500000	12.997851  
561.000000	13.228833  
561.500000	13.494899  
562.000000	13.808641  
562.500000	14.247536  
563.000000	14.798844  
563.500000	15.375512  
564.000000	16.051729  
564.500000	16.916378  
565.000000	17.727699  
565.500000	18.461905  
566.000000	19.088178  
566.500000	19.774957  
567.000000	20.357807  
567.500000	20.950593  
568.000000	21.626072  
568.500000	22.306734  
569.000000	22.939866  
569.500000	23.462115  
570.000000	24.181792  
570.500000	25.006417  
571.000000	25.975903  
571.500000	26.999361  
572.000000	28.093077  
572.500000	29.140452  
573.000000	30.077666  
573.500000	30.976408  
574.000000	31.900758  
574.500000	32.909675  
575.000000	33.812740  
575.500000	34.745131  
576.000000	35.621033  
576.500000	36.373294  
577.000000	36.993749  
577.500000	37.567918  
578.000000	38.243487  
578.500000	38.835228  
579.000000	39.485888  
579.500000	40.274753  
580.000000	41.156454  
580.500000	42.196710  
581.000000	43.158884  
581.500000	44.176695  
582.000000	45.075985  
582.500000	45.790653  
583.000000	46.549684  
583.500000	47.323647  
584.000000	48.330294  
584.500000	49.325879  
585.000000	50.704163  
585.500000	52.202231  
586.000000	53.565675  
586.500000	54.702580  
587.000000	55.774222  
587.500000	56.821751  
588.000000	57.752517  
588.500000	58.800864  
589.000000	60.061423  
589.500000	61.468534  
590.000000	62.832317  
590.500000	64.226703  
591.000000	65.683484  
591.500000	67.156729  
592.000000	68.560983  
592.500000	70.034742  
593.000000	71.626756  
593.500000	73.220764  
594.000000	74.756916  
594.500000	76.442270  
595.000000	78.362500  
595.500000	80.148873  
596.000000	82.058734  
596.500000	84.278447  
597.000000	86.370033  
597.500000	88.288641  
598.000000	90.393018  
598.500000	92.462085  
599.000000	94.145124  
599.500000	95.660126  
600.000000	97.487384  
600.500000	99.132675  
601.000000	100.728888 
601.500000	102.715918 
602.000000	104.908371 
602.500000	107.086345 
603.000000	109.124471 
603.500000	111.580599 
604.000000	114.137693 
604.500000	116.820899 
605.000000	119.846502 
605.500000	122.896575 
606.000000	125.864467 
606.500000	128.543003 
607.000000	131.350890 
607.500000	134.202391 
608.000000	136.967272 
608.500000	139.986454 
609.000000	143.241669 
609.500000	146.730510 
610.000000	150.262686 
610.500000	153.798755 
611.000000	157.258840 
611.500000	160.143556 
612.000000	162.714090 
612.500000	165.181881 
613.000000	167.744645 
613.500000	170.811248 
614.000000	174.455805 
614.500000	178.378174 
615.000000	182.377610 
615.500000	186.222612 
616.000000	189.690692 
616.500000	193.110276 
617.000000	196.902027 
617.500000	201.327228 
618.000000	205.717024 
618.500000	209.930610 
619.000000	213.797502 
619.500000	217.033645 
620.000000	220.144387 
620.500000	223.104521 
621.000000	226.645309 
621.500000	230.576645 
622.000000	235.037348 
622.500000	239.940985 
623.000000	244.831415 
623.500000	249.884486 
624.000000	254.799693 
624.500000	260.002419 
625.000000	265.025684 
625.500000	269.872439 
626.000000	274.536551 
626.500000	278.568901 
627.000000	282.462508 
627.500000	286.002504 
628.000000	289.960717 
628.500000	293.958000 
629.000000	298.127328 
629.500000	302.538927 
630.000000	306.695269 
630.500000	310.785356 
631.000000	314.215497 
631.500000	317.739667 
632.000000	321.039157 
632.500000	324.462565 
633.000000	328.043508 
633.500000	331.772604 
634.000000	335.720341 
634.500000	339.469384 
635.000000	343.545256 
635.500000	347.464725 
636.000000	351.095734 
636.500000	354.198168 
637.000000	356.821050 
637.500000	359.312250 
638.000000	361.377743 
638.500000	363.609309 
639.000000	365.890289 
639.500000	368.124833 
640.000000	370.591122 
640.500000	372.564300 
641.000000	374.302261 
641.500000	375.855155 
642.000000	377.231628 
642.500000	378.531319 
643.000000	379.824690 
643.500000	381.690118 
644.000000	383.261115 
644.500000	384.575346 
645.000000	385.653742 
645.500000	386.440473 
646.000000	386.543100 
646.500000	386.226087 
647.000000	385.568022 
647.500000	384.824717 
648.000000	384.073825 
648.500000	383.080361 
649.000000	382.202682 
649.500000	380.938024 
650.000000	379.890064 
650.500000	378.633608 
651.000000	377.529050 
651.500000	376.891022 
652.000000	376.073493 
652.500000	375.243847 
653.000000	373.631120 
653.500000	371.483599 
654.000000	368.399697 
654.500000	364.632604 
655.000000	360.920654 
655.500000	357.483721 
656.000000	354.737703 
656.500000	352.420018 
657.000000	350.425456 
657.500000	348.370827 
658.000000	345.678582 
658.500000	342.608463 
659.000000	339.184239 
659.500000	335.513740 
660.000000	331.405430 
660.500000	327.180953 
661.000000	322.897543 
661.500000	318.178341 
662.000000	313.364970 
662.500000	308.733250 
663.000000	304.489155 
663.500000	300.302499 
664.000000	296.263460 
664.500000	292.221285 
665.000000	288.078558 
665.500000	283.531081 
666.000000	278.393211 
666.500000	273.182855 
667.000000	267.527751 
667.500000	261.856814 
668.000000	256.255786 
668.500000	251.287666 
669.000000	246.652207 
669.500000	241.973231 
670.000000	237.456304 
670.500000	232.454100 
671.000000	227.286374 
671.500000	221.681398 
672.000000	216.213311 
672.500000	210.580604 
673.000000	205.039233 
673.500000	199.986551 
674.000000	194.767994 
674.500000	189.940962 
675.000000	185.167007 
675.500000	180.864035 
676.000000	176.393050 
676.500000	171.952237 
677.000000	167.532217 
677.500000	162.833096 
678.000000	158.440985 
678.500000	153.927009 
679.000000	149.768254 
679.500000	145.582007 
680.000000	141.657218 
680.500000	137.833397 
681.000000	133.895823 
681.500000	130.206111 
682.000000	126.562948 
682.500000	123.003324 
683.000000	119.573604 
683.500000	116.427782 
684.000000	113.410504 
684.500000	110.439578 
685.000000	107.431931 
685.500000	104.393656 
686.000000	101.304612 
686.500000	98.147964  
687.000000	95.199300  
687.500000	92.453664  
688.000000	89.792673  
688.500000	87.289487  
689.000000	84.874988  
689.500000	82.514829  
690.000000	80.187102  
690.500000	77.868547  
691.000000	75.762775  
691.500000	73.646647  
692.000000	71.740367  
692.500000	69.911282  
693.000000	68.152875  
693.500000	66.480285  
694.000000	64.643682  
694.500000	62.969894  
695.000000	61.112955  
695.500000	59.086090  
696.000000	56.988745  
696.500000	54.940979  
697.000000	53.187079  
697.500000	51.599502  
698.000000	50.401269  
698.500000	49.396647  
699.000000	48.283408  
699.500000	46.977890  
700.000000	45.569192  
700.500000	44.094580  
701.000000	42.527443  
701.500000	41.104873  
702.000000	40.014918  
702.500000	39.030552  
703.000000	38.033847  
703.500000	37.112278  
704.000000	36.236044  
704.500000	35.303541  
705.000000	34.356215  
705.500000	33.424476  
706.000000	32.466230  
706.500000	31.722933  
707.000000	31.007799  
707.500000	30.353202  
708.000000	29.718974  
708.500000	29.190951  
709.000000	28.586502  
709.500000	27.762237  
710.000000	27.061304  
710.500000	26.437098  
711.000000	25.653755  
711.500000	24.807276  
712.000000	24.158743  
712.500000	23.584599  
713.000000	22.943870  
713.500000	22.540703  
714.000000	22.319892  
714.500000	22.090697  
715.000000	21.718387  
715.500000	21.298077  
716.000000	20.873178  
716.500000	20.387808  
717.000000	19.881486  
717.500000	19.415092  
718.000000	19.041150  
718.500000	18.654565  
719.000000	18.214660  
719.500000	17.837990  
720.000000	17.491653  
720.500000	17.212625  
721.000000	16.772951  
721.500000	16.354727  
722.000000	15.997886  
722.500000	15.549732  
723.000000	15.144341  
723.500000	14.859079  
724.000000	14.729805  
724.500000	14.602649  
725.000000	14.483313  
725.500000	14.385575  
726.000000	14.193864  
726.500000	13.956105  
727.000000	13.672526  
727.500000	13.435016  
728.000000	13.083202  
728.500000	12.704619  
729.000000	12.290988  
729.500000	11.799218  
730.000000	11.291131  
730.500000	10.895083  
731.000000	10.677545  
731.500000	10.525280  
732.000000	10.479435  
732.500000	10.476233  
733.000000	10.434478  
733.500000	10.384009  
734.000000	10.306647  
734.500000	10.218141  
735.000000	10.100851  
735.500000	9.950565   
736.000000	9.785988   
736.500000	9.582332   
737.000000	9.488805   
737.500000	9.471465   
738.000000	9.402012   
738.500000	9.339578   
739.000000	9.245384   
739.500000	9.023510   
740.000000	8.611250   
740.500000	8.278328   
741.000000	8.049384   
741.500000	7.813925   
742.000000	7.637406   
742.500000	7.577495   
743.000000	7.576634   
743.500000	7.493940   
744.000000	7.449068   
744.500000	7.448595   
745.000000	7.379857   
745.500000	7.265469   
746.000000	7.197315   
746.500000	7.190740   
747.000000	7.155128   
747.500000	7.156729   
748.000000	7.186526   
748.500000	7.177829   
749.000000	7.040296   
749.500000	6.850508   
750.000000	6.587781   
750.500000	6.354990   
751.000000	6.205280   
751.500000	6.134860   
752.000000	6.139964   
752.500000	6.151792   
753.000000	6.167066   
753.500000	6.070306   
754.000000	5.942421   
754.500000	5.848285   
755.000000	5.683087   
755.500000	5.520768   
756.000000	5.399378   
756.500000	5.295547   
757.000000	5.172543   
757.500000	5.088256   
758.000000	5.165790   
758.500000	5.257124   
759.000000	5.308794   
759.500000	5.374769   
760.000000	5.381461   
760.500000	5.307359   
761.000000	5.188079   
761.500000	5.175402   
762.000000	5.181953   
762.500000	5.163760   
763.000000	5.181411   
763.500000	5.163328   
764.000000	5.086860   
764.500000	4.973530   
765.000000	4.935979   
765.500000	4.916378   
766.000000	4.870551   
766.500000	4.852730   
767.000000	4.809693   
767.500000	4.697998   
768.000000	4.503135   
768.500000	4.374315   
769.000000	4.220812   
769.500000	4.061070   
770.000000	3.959191   
770.500000	3.948185   
771.000000	3.963849   
771.500000	3.925411   
772.000000	3.967235   
772.500000	3.947256   
773.000000	3.844298   
773.500000	3.703113   
774.000000	3.624161   
774.500000	3.561491   
775.000000	3.543126   
775.500000	3.636259   
776.000000	3.760538   
776.500000	3.829936   
777.000000	3.805632   
777.500000	3.747261   
778.000000	3.607053   
778.500000	3.452847   
779.000000	3.320562   
779.500000	3.284703   
780.000000	3.330660   
780.500000	3.429448   
781.000000	3.581825   
781.500000	3.697131   
782.000000	3.766374   
782.500000	3.721461   
783.000000	3.621448   
783.500000	3.514397   
784.000000	3.390875   
784.500000	3.320504   
785.000000	3.268209   
785.500000	3.214705   
786.000000	3.139836   
786.500000	3.055903   
787.000000	2.948536   
787.500000	2.849857   
788.000000	2.831222   
788.500000	2.848356   
789.000000	2.883270   
789.500000	2.912460   
790.000000	2.943545   
790.500000	2.955884   
791.000000	2.934352   
791.500000	2.923782   
792.000000	2.916786   
792.500000	2.924987   
793.000000	2.894712   
793.500000	2.865602   
794.000000	2.867970   
794.500000	2.857213   
795.000000	2.874363   
795.500000	2.901701   
796.000000	2.973031   
796.500000	3.013148   
797.000000	2.996289   
797.500000	2.970922   
798.000000	2.926905   
798.500000	2.869968   
799.000000	2.756345   
799.500000	2.657799   
800.000000	2.586346   
800.500000	2.515309   
801.000000	2.465070   
801.500000	2.478087   
802.000000	2.510760   
802.500000	2.516658   
803.000000	2.447450   
803.500000	2.377706   
804.000000	2.272166   
804.500000	2.154016   
805.000000	2.081994   
805.500000	2.035372   
806.000000	2.056076   
806.500000	2.040853   
807.000000	2.077601   
807.500000	2.116296   
808.000000	2.158090   
808.500000	2.184218   
809.000000	2.171230   
809.500000	2.198346   
810.000000	2.162868   
810.500000	2.141842   
811.000000	2.152862   
811.500000	2.161387   
812.000000	2.180174   
812.500000	2.181000   
813.000000	2.184714   
813.500000	2.121289   
814.000000	2.066250   
814.500000	2.030517   
815.000000	1.956692   
815.500000	1.899141   
816.000000	1.865215   
816.500000	1.858588   
817.000000	1.844504   
817.500000	1.860003   
818.000000	1.914812   
818.500000	1.967779   
819.000000	2.052480   
819.500000	2.154471   
820.000000	2.252059   
820.500000	2.296215   
821.000000	2.325569   
821.500000	2.354504   
822.000000	2.365276   
822.500000	2.392708   
823.000000	2.409825   
823.500000	2.439181   
824.000000	2.477881   
824.500000	2.495660   
825.000000	2.539209   
825.500000	2.575586   
826.000000	2.618686   
826.500000	2.640742   
827.000000	2.625834   
827.500000	2.594179   
828.000000	2.508250   
828.500000	2.383959   
829.000000	2.244339   
829.500000	2.083168   
830.000000	1.921064   
830.500000	1.727881   
831.000000	1.581482   
831.500000	1.468758   
832.000000	1.343256   
832.500000	1.272220   
833.000000	1.202033   
833.500000	1.169365   
834.000000	1.128079   
834.500000	1.108365   
835.000000	1.095064   
835.500000	1.050543   
836.000000	1.017949   
836.500000	0.973322   
837.000000	0.949460   
837.500000	0.927721   
838.000000	0.935864   
838.500000	0.948473   
839.000000	0.967955   
839.500000	1.002927   
840.000000	1.018515   
840.500000	1.031432   
841.000000	1.028241   
841.500000	1.005508   
842.000000	0.962031   
842.500000	0.916929   
843.000000	0.894326   
843.500000	0.859942   
844.000000	0.822413   
844.500000	0.775391   
845.000000	0.725402   
845.500000	0.683502   
846.000000	0.647142   
846.500000	0.651209   
847.000000	0.646703   
847.500000	0.620484   
848.000000	0.568205   
848.500000	0.477033   
849.000000	0.358743   
849.500000	0.254627   
850.000000	0.212172   
850.500000	0.183526   
851.000000	0.177842   
851.500000	0.176833   
852.000000	0.166335   
852.500000	0.111296   
853.000000	0.065964   
853.500000	0.067610   
854.000000	0.068914   
854.500000	0.097883   
855.000000	0.167703   
855.500000	0.238847   
856.000000	0.243716   
856.500000	0.216408   
857.000000	0.209699   
857.500000	0.182309   
858.000000	0.171738   
858.500000	0.179897   
859.000000	0.196742   
859.500000	0.181558   
860.000000	0.145330   
860.500000	0.133285   
861.000000	0.108636   
861.500000	0.083938   
862.000000	0.088881   
862.500000	0.093625   
863.000000	0.075584   
863.500000	0.041009   
864.000000	0.018803   
864.500000	-0.015217  
865.000000	-0.011521  
865.500000	0.039133   
866.000000	0.095502   
866.500000	0.116415   
867.000000	0.104519   
867.500000	0.083897   
868.000000	0.016564   
868.500000	-0.056061  
869.000000	-0.072653  
869.500000	-0.041198  
870.000000	0.005734   
870.500000	0.037487   
871.000000	0.068385   
871.500000	0.044651   
872.000000	-0.020137  
872.500000	-0.077721  
873.000000	-0.123022  
873.500000	-0.150085  
874.000000	-0.186191  
874.500000	-0.185747  
875.000000	-0.169632  
875.500000	-0.155614  
876.000000	-0.121139  
876.500000	-0.099395  
877.000000	-0.066200  
877.500000	-0.053126  
878.000000	-0.025562  
878.500000	-0.004538  
879.000000	0.004823   
879.500000	0.026246   
880.000000	0.019953   
880.500000	0.013461   
881.000000	-0.025749  
881.500000	-0.061027  
882.000000	-0.092282  
882.500000	-0.130983  
883.000000	-0.139894  
883.500000	-0.149831  
884.000000	-0.141248  
884.500000	-0.115361  
885.000000	-0.052573  
885.500000	0.026868   
886.000000	0.097335   
886.500000	0.126460   
887.000000	0.101606   
887.500000	0.039717   
888.000000	-0.072849  
888.500000	-0.162760  
889.000000	-0.223170  
889.500000	-0.207469  
890.000000	-0.158007  
890.500000	-0.096575  
891.000000	-0.039474  
891.500000	-0.004669  
892.000000	0.015981   
892.500000	-0.006109  
893.000000	-0.003447  
893.500000	-0.015710  
894.000000	-0.051454  
894.500000	-0.085951  
895.000000	-0.102502  
895.500000	-0.100350  
896.000000	-0.112168  
896.500000	-0.094948  

