PE FL                   SPECTRUM    ASCII       PEDS        1.60        
  -1
S00B93~1.SP
24/04/11
16:36:07.00
24/04/11
16:36:07.00
Jan

896.500000
1









LS55
405.00
5.00
5.00
SCAN
1
20
100
100
0
400
0
1
0
1
5
ON
736 405 
1 0 0
#HDR
-1
-1
#GR
NM

0.00002384185791015625
0.0
450.000000
0.500000
894
8
338.431641
-0.288111
#DATA
450.000000	0.033000   
450.500000	0.151653   
451.000000	0.280202   
451.500000	0.346884   
452.000000	0.372194   
452.500000	0.348597   
453.000000	0.330174   
453.500000	0.295415   
454.000000	0.236790   
454.500000	0.243666   
455.000000	0.268137   
455.500000	0.269085   
456.000000	0.231771   
456.500000	0.148385   
457.000000	0.025999   
457.500000	-0.140378  
458.000000	-0.270063  
458.500000	-0.288111  
459.000000	-0.220658  
459.500000	-0.070411  
460.000000	0.123339   
460.500000	0.300836   
461.000000	0.388799   
461.500000	0.364172   
462.000000	0.280393   
462.500000	0.164141   
463.000000	0.053619   
463.500000	-0.021938  
464.000000	-0.042155  
464.500000	-0.008320  
465.000000	0.004972   
465.500000	0.000697   
466.000000	0.002929   
466.500000	-0.028820  
467.000000	-0.032664  
467.500000	-0.011395  
468.000000	0.066178   
468.500000	0.112135   
469.000000	0.139040   
469.500000	0.158936   
470.000000	0.139508   
470.500000	0.097410   
471.000000	0.026051   
471.500000	-0.007510  
472.000000	-0.058888  
472.500000	-0.110063  
473.000000	-0.100408  
473.500000	-0.038723  
474.000000	0.050625   
474.500000	0.172320   
475.000000	0.270979   
475.500000	0.329623   
476.000000	0.312035   
476.500000	0.282671   
477.000000	0.242226   
477.500000	0.174111   
478.000000	0.143059   
478.500000	0.071944   
479.000000	0.000354   
479.500000	-0.105710  
480.000000	-0.171020  
480.500000	-0.211825  
481.000000	-0.219970  
481.500000	-0.144580  
482.000000	-0.054211  
482.500000	0.044341   
483.000000	0.122061   
483.500000	0.190051   
484.000000	0.219538   
484.500000	0.242224   
485.000000	0.263428   
485.500000	0.284209   
486.000000	0.258526   
486.500000	0.211402   
487.000000	0.133705   
487.500000	0.054419   
488.000000	0.014469   
488.500000	-0.013118  
489.000000	0.062766   
489.500000	0.153775   
490.000000	0.260706   
490.500000	0.341178   
491.000000	0.389812   
491.500000	0.420257   
492.000000	0.371059   
492.500000	0.357853   
493.000000	0.334625   
493.500000	0.291473   
494.000000	0.230573   
494.500000	0.202200   
495.000000	0.201901   
495.500000	0.199027   
496.000000	0.266343   
496.500000	0.372157   
497.000000	0.443202   
497.500000	0.458122   
498.000000	0.442884   
498.500000	0.372538   
499.000000	0.289597   
499.500000	0.253332   
500.000000	0.312014   
500.500000	0.420558   
501.000000	0.539259   
501.500000	0.659441   
502.000000	0.743977   
502.500000	0.795582   
503.000000	0.804653   
503.500000	0.805191   
504.000000	0.784265   
504.500000	0.774541   
505.000000	0.766597   
505.500000	0.797654   
506.000000	0.883237   
506.500000	0.958237   
507.000000	1.046530   
507.500000	1.103092   
508.000000	1.121519   
508.500000	1.081081   
509.000000	1.058487   
509.500000	1.067155   
510.000000	1.106168   
510.500000	1.136747   
511.000000	1.203497   
511.500000	1.278988   
512.000000	1.331157   
512.500000	1.411860   
513.000000	1.553374   
513.500000	1.783270   
514.000000	1.932480   
514.500000	2.061790   
515.000000	2.109513   
515.500000	2.073105   
516.000000	2.028187   
516.500000	1.998250   
517.000000	2.097833   
517.500000	2.197730   
518.000000	2.358231   
518.500000	2.482523   
519.000000	2.536562   
519.500000	2.562144   
520.000000	2.550712   
520.500000	2.567918   
521.000000	2.555343   
521.500000	2.644593   
522.000000	2.736576   
522.500000	2.829736   
523.000000	2.947933   
523.500000	3.067174   
524.000000	3.177905   
524.500000	3.233602   
525.000000	3.284458   
525.500000	3.338658   
526.000000	3.478074   
526.500000	3.613907   
527.000000	3.765734   
527.500000	3.958231   
528.000000	4.221187   
528.500000	4.399215   
529.000000	4.547278   
529.500000	4.782970   
530.000000	4.982686   
530.500000	5.129068   
531.000000	5.209831   
531.500000	5.418781   
532.000000	5.569777   
532.500000	5.693302   
533.000000	5.882860   
533.500000	6.126907   
534.000000	6.372087   
534.500000	6.547163   
535.000000	6.824382   
535.500000	7.104584   
536.000000	7.367111   
536.500000	7.585987   
537.000000	7.885163   
537.500000	8.217298   
538.000000	8.477801   
538.500000	8.833539   
539.000000	9.288378   
539.500000	9.784029   
540.000000	10.208196  
540.500000	10.712382  
541.000000	11.132413  
541.500000	11.375990  
542.000000	11.500139  
542.500000	11.549141  
543.000000	11.549220  
543.500000	11.409764  
544.000000	11.312371  
544.500000	11.174014  
545.000000	11.044211  
545.500000	10.924564  
546.000000	10.824250  
546.500000	10.770758  
547.000000	10.716076  
547.500000	10.697128  
548.000000	10.557640  
548.500000	10.371371  
549.000000	10.182782  
549.500000	9.975068   
550.000000	9.808567   
550.500000	9.792012   
551.000000	9.861758   
551.500000	9.908974   
552.000000	9.936923   
552.500000	9.977923   
553.000000	9.998538   
553.500000	10.025569  
554.000000	10.189523  
554.500000	10.352122  
555.000000	10.442508  
555.500000	10.518962  
556.000000	10.594769  
556.500000	10.601333  
557.000000	10.661576  
557.500000	10.965979  
558.000000	11.427653  
558.500000	11.843120  
559.000000	12.256027  
559.500000	12.648315  
560.000000	12.843586  
560.500000	12.970205  
561.000000	13.176710  
561.500000	13.565818  
562.000000	13.942285  
562.500000	14.404565  
563.000000	14.976471  
563.500000	15.590224  
564.000000	16.146669  
564.500000	16.667929  
565.000000	17.172653  
565.500000	17.633747  
566.000000	18.141246  
566.500000	18.625582  
567.000000	19.200267  
567.500000	19.826417  
568.000000	20.620048  
568.500000	21.351974  
569.000000	22.133007  
569.500000	22.930116  
570.000000	23.575068  
570.500000	24.129378  
571.000000	24.601304  
571.500000	25.261367  
572.000000	25.848345  
572.500000	26.593818  
573.000000	27.429345  
573.500000	28.288669  
574.000000	29.056081  
574.500000	29.771578  
575.000000	30.473176  
575.500000	31.131068  
576.000000	31.967994  
576.500000	32.929389  
577.000000	33.958113  
577.500000	34.903493  
578.000000	35.852454  
578.500000	36.526914  
579.000000	37.046740  
579.500000	37.457972  
580.000000	37.915092  
580.500000	38.411821  
581.000000	38.922536  
581.500000	39.694656  
582.000000	40.453155  
582.500000	41.425371  
583.000000	42.415346  
583.500000	43.488890  
584.000000	44.556055  
584.500000	45.516936  
585.000000	46.517823  
585.500000	47.481283  
586.000000	48.484012  
586.500000	49.605693  
587.000000	50.752478  
587.500000	51.978717  
588.000000	53.279825  
588.500000	54.759400  
589.000000	56.459463  
589.500000	58.102172  
590.000000	59.739486  
590.500000	61.144272  
591.000000	62.267183  
591.500000	63.182662  
592.000000	64.099866  
592.500000	65.315315  
593.000000	66.600341  
593.500000	68.180139  
594.000000	69.814614  
594.500000	71.397424  
595.000000	73.055372  
595.500000	74.662981  
596.000000	76.335988  
596.500000	77.909957  
597.000000	79.539068  
597.500000	81.319597  
598.000000	83.151844  
598.500000	85.245450  
599.000000	87.463311  
599.500000	89.748456  
600.000000	91.692324  
600.500000	93.350428  
601.000000	95.006007  
601.500000	96.867074  
602.000000	98.952458  
602.500000	101.290324 
603.000000	103.903077 
603.500000	106.539721 
604.000000	108.887077 
604.500000	111.061033 
605.000000	113.286417 
605.500000	115.602402 
606.000000	117.923070 
606.500000	120.486096 
607.000000	123.165012 
607.500000	125.943196 
608.000000	128.861120 
608.500000	131.506697 
609.000000	134.482185 
609.500000	137.420823 
610.000000	140.320218 
610.500000	143.134595 
611.000000	146.023803 
611.500000	149.318979 
612.000000	152.501315 
612.500000	156.151480 
613.000000	159.947951 
613.500000	163.504307 
614.000000	166.867372 
614.500000	169.815506 
615.000000	172.513371 
615.500000	175.020827 
616.000000	177.864888 
616.500000	181.451372 
617.000000	185.062001 
617.500000	188.888432 
618.000000	192.658146 
618.500000	195.856120 
619.000000	198.924857 
619.500000	201.753523 
620.000000	205.109387 
620.500000	208.998732 
621.000000	212.991213 
621.500000	217.254699 
622.000000	221.226584 
622.500000	225.162016 
623.000000	228.505237 
623.500000	231.507070 
624.000000	234.770012 
624.500000	238.100484 
625.000000	241.624897 
625.500000	245.220411 
626.000000	249.167692 
626.500000	253.241582 
627.000000	257.000866 
627.500000	260.704667 
628.000000	264.698335 
628.500000	268.573435 
629.000000	272.291623 
629.500000	276.045209 
630.000000	279.637289 
630.500000	282.985805 
631.000000	286.013610 
631.500000	289.515282 
632.000000	292.856445 
632.500000	296.124068 
633.000000	299.745916 
633.500000	303.294920 
634.000000	306.566187 
634.500000	309.752909 
635.000000	313.091543 
635.500000	316.017161 
636.000000	318.507031 
636.500000	321.081183 
637.000000	322.970929 
637.500000	324.090632 
638.000000	324.953170 
638.500000	326.075619 
639.000000	326.974007 
639.500000	327.994608 
640.000000	329.764089 
640.500000	331.680829 
641.000000	333.475469 
641.500000	335.168447 
642.000000	336.713348 
642.500000	337.567506 
643.000000	337.563617 
643.500000	337.557560 
644.000000	337.383074 
644.500000	337.523768 
645.000000	338.016484 
645.500000	338.389576 
646.000000	338.431641 
646.500000	337.918168 
647.000000	337.026686 
647.500000	335.540998 
648.000000	334.174374 
648.500000	333.231679 
649.000000	332.695044 
649.500000	331.985393 
650.000000	330.942194 
650.500000	329.796905 
651.000000	327.775298 
651.500000	325.526048 
652.000000	323.275432 
652.500000	321.251673 
653.000000	319.149582 
653.500000	316.995730 
654.000000	314.904489 
654.500000	312.413810 
655.000000	309.661599 
655.500000	306.881274 
656.000000	304.286849 
656.500000	301.626226 
657.000000	299.185363 
657.500000	296.746910 
658.000000	293.651345 
658.500000	290.069786 
659.000000	286.448198 
659.500000	282.777211 
660.000000	278.824602 
660.500000	275.049500 
661.000000	270.978159 
661.500000	266.577224 
662.000000	262.163975 
662.500000	257.685235 
663.000000	253.574380 
663.500000	249.846608 
664.000000	246.388933 
664.500000	242.632517 
665.000000	238.636363 
665.500000	234.558647 
666.000000	230.114677 
666.500000	225.413632 
667.000000	221.137539 
667.500000	216.804918 
668.000000	212.043113 
668.500000	207.235478 
669.000000	202.326042 
669.500000	197.189155 
670.000000	191.837428 
670.500000	187.075333 
671.000000	182.512424 
671.500000	178.155510 
672.000000	174.237558 
672.500000	170.649606 
673.000000	167.167050 
673.500000	163.209105 
674.000000	159.261372 
674.500000	154.787606 
675.000000	149.928897 
675.500000	145.095799 
676.000000	140.587662 
676.500000	136.624085 
677.000000	132.950159 
677.500000	129.785038 
678.000000	126.682460 
678.500000	123.270087 
679.000000	119.675450 
679.500000	115.951933 
680.000000	112.321053 
680.500000	108.969257 
681.000000	106.009916 
681.500000	103.257319 
682.000000	100.463005 
682.500000	97.840144  
683.000000	94.915632  
683.500000	91.739090  
684.000000	88.752814  
684.500000	86.089942  
685.000000	83.650716  
685.500000	81.468300  
686.000000	79.778040  
686.500000	77.978012  
687.000000	75.730435  
687.500000	73.430699  
688.000000	71.209773  
688.500000	69.029834  
689.000000	67.034411  
689.500000	65.510907  
690.000000	64.245456  
690.500000	62.794499  
691.000000	61.254847  
691.500000	59.760339  
692.000000	58.091289  
692.500000	56.302632  
693.000000	54.470178  
693.500000	52.819421  
694.000000	51.108847  
694.500000	49.447107  
695.000000	47.947584  
695.500000	46.554803  
696.000000	45.246157  
696.500000	43.938734  
697.000000	42.650118  
697.500000	41.477205  
698.000000	40.343181  
698.500000	39.312651  
699.000000	38.235346  
699.500000	37.236732  
700.000000	36.219920  
700.500000	35.031962  
701.000000	33.922499  
701.500000	33.083213  
702.000000	32.377946  
702.500000	31.697285  
703.000000	31.016669  
703.500000	30.435506  
704.000000	29.781161  
704.500000	29.030883  
705.000000	28.333059  
705.500000	27.674755  
706.000000	27.012452  
706.500000	26.247005  
707.000000	25.475745  
707.500000	24.812228  
708.000000	24.079267  
708.500000	23.391035  
709.000000	22.716632  
709.500000	22.177252  
710.000000	21.703079  
710.500000	21.178478  
711.000000	20.705827  
711.500000	20.214350  
712.000000	19.772187  
712.500000	19.331215  
713.000000	18.944254  
713.500000	18.717738  
714.000000	18.576923  
714.500000	18.409298  
715.000000	18.117074  
715.500000	17.766586  
716.000000	17.299372  
716.500000	16.721330  
717.000000	16.230591  
717.500000	15.874280  
718.000000	15.552571  
718.500000	15.264768  
719.000000	14.915753  
719.500000	14.553560  
720.000000	14.130218  
720.500000	13.793395  
721.000000	13.536402  
721.500000	13.255736  
722.000000	13.088829  
722.500000	12.885790  
723.000000	12.720684  
723.500000	12.557025  
724.000000	12.405302  
724.500000	12.340460  
725.000000	12.166486  
725.500000	12.024968  
726.000000	11.804601  
726.500000	11.596899  
727.000000	11.453413  
727.500000	11.319179  
728.000000	11.275714  
728.500000	11.145113  
729.000000	10.948044  
729.500000	10.609532  
730.000000	10.272760  
730.500000	9.981786   
731.000000	9.707794   
731.500000	9.487625   
732.000000	9.280359   
732.500000	9.132423   
733.000000	8.970847   
733.500000	8.864933   
734.000000	8.823558   
734.500000	8.804645   
735.000000	8.721773   
735.500000	8.545981   
736.000000	8.358346   
736.500000	8.144710   
737.000000	7.908161   
737.500000	7.757447   
738.000000	7.714282   
738.500000	7.691378   
739.000000	7.574547   
739.500000	7.445953   
740.000000	7.361575   
740.500000	7.235100   
741.000000	7.139163   
741.500000	7.105365   
742.000000	7.117098   
742.500000	7.034215   
743.000000	6.943137   
743.500000	6.891166   
744.000000	6.836617   
744.500000	6.778721   
745.000000	6.652096   
745.500000	6.511764   
746.000000	6.289046   
746.500000	6.063248   
747.000000	5.865144   
747.500000	5.753159   
748.000000	5.745163   
748.500000	5.848358   
749.000000	5.941046   
749.500000	5.977760   
750.000000	5.995799   
750.500000	5.903736   
751.000000	5.795389   
751.500000	5.651489   
752.000000	5.564105   
752.500000	5.471146   
753.000000	5.434339   
753.500000	5.422673   
754.000000	5.388742   
754.500000	5.400975   
755.000000	5.342016   
755.500000	5.301714   
756.000000	5.234486   
756.500000	5.231892   
757.000000	5.180584   
757.500000	5.078022   
758.000000	5.057356   
758.500000	5.023949   
759.000000	5.034975   
759.500000	4.977211   
760.000000	4.970055   
760.500000	4.953196   
761.000000	4.912727   
761.500000	4.921365   
762.000000	4.838033   
762.500000	4.757317   
763.000000	4.622137   
763.500000	4.450643   
764.000000	4.299079   
764.500000	4.232424   
765.000000	4.277686   
765.500000	4.319706   
766.000000	4.409740   
766.500000	4.461821   
767.000000	4.420610   
767.500000	4.257530   
768.000000	4.097968   
768.500000	4.046354   
769.000000	4.023187   
769.500000	4.085589   
770.000000	4.192450   
770.500000	4.313827   
771.000000	4.317727   
771.500000	4.209369   
772.000000	4.097719   
772.500000	3.897152   
773.000000	3.721040   
773.500000	3.581346   
774.000000	3.514343   
774.500000	3.450374   
775.000000	3.380092   
775.500000	3.390150   
776.000000	3.372729   
776.500000	3.337419   
777.000000	3.373142   
777.500000	3.424812   
778.000000	3.446582   
778.500000	3.466326   
779.000000	3.508640   
779.500000	3.522820   
780.000000	3.460857   
780.500000	3.440226   
781.000000	3.434187   
781.500000	3.412888   
782.000000	3.384756   
782.500000	3.351176   
783.000000	3.300966   
783.500000	3.151615   
784.000000	3.007461   
784.500000	2.869985   
785.000000	2.794204   
785.500000	2.795528   
786.000000	2.855213   
786.500000	2.968534   
787.000000	3.042899   
787.500000	3.100473   
788.000000	3.089784   
788.500000	3.021803   
789.000000	2.933588   
789.500000	2.864697   
790.000000	2.862283   
790.500000	2.865237   
791.000000	2.917380   
791.500000	2.979254   
792.000000	3.016454   
792.500000	3.030803   
793.000000	3.022944   
793.500000	3.019005   
794.000000	2.980200   
794.500000	2.964621   
795.000000	2.881721   
795.500000	2.757992   
796.000000	2.599588   
796.500000	2.470450   
797.000000	2.370122   
797.500000	2.301883   
798.000000	2.348285   
798.500000	2.399469   
799.000000	2.475218   
799.500000	2.503009   
800.000000	2.536740   
800.500000	2.563640   
801.000000	2.544627   
801.500000	2.550671   
802.000000	2.550523   
802.500000	2.556322   
803.000000	2.458994   
803.500000	2.343000   
804.000000	2.235576   
804.500000	2.153938   
805.000000	2.093248   
805.500000	2.085823   
806.000000	2.169782   
806.500000	2.255038   
807.000000	2.304586   
807.500000	2.319294   
808.000000	2.304877   
808.500000	2.269322   
809.000000	2.227248   
809.500000	2.232625   
810.000000	2.227387   
810.500000	2.186586   
811.000000	2.121413   
811.500000	2.078721   
812.000000	2.081139   
812.500000	2.071918   
813.000000	2.088977   
813.500000	2.105376   
814.000000	2.055003   
814.500000	1.971680   
815.000000	1.899801   
815.500000	1.867927   
816.000000	1.832589   
816.500000	1.831191   
817.000000	1.817064   
817.500000	1.751914   
818.000000	1.639307   
818.500000	1.577992   
819.000000	1.594862   
819.500000	1.706974   
820.000000	1.896066   
820.500000	2.137352   
821.000000	2.379636   
821.500000	2.552480   
822.000000	2.693942   
822.500000	2.784335   
823.000000	2.866719   
823.500000	2.930155   
824.000000	2.957575   
824.500000	3.005261   
825.000000	2.926441   
825.500000	2.765168   
826.000000	2.577215   
826.500000	2.395975   
827.000000	2.236567   
827.500000	2.092391   
828.000000	2.086133   
828.500000	2.128682   
829.000000	2.101150   
829.500000	2.032760   
830.000000	1.920458   
830.500000	1.756092   
831.000000	1.505128   
831.500000	1.301877   
832.000000	1.205695   
832.500000	1.152046   
833.000000	1.138860   
833.500000	1.164196   
834.000000	1.201560   
834.500000	1.198050   
835.000000	1.130274   
835.500000	1.093634   
836.000000	1.094716   
836.500000	1.070278   
837.000000	1.052471   
837.500000	1.036246   
838.000000	1.008758   
838.500000	0.939376   
839.000000	0.912968   
839.500000	0.943204   
840.000000	0.942756   
840.500000	0.931779   
841.000000	0.944938   
841.500000	0.938300   
842.000000	0.842320   
842.500000	0.752460   
843.000000	0.722128   
843.500000	0.710424   
844.000000	0.688573   
844.500000	0.750322   
845.000000	0.820176   
845.500000	0.785654   
846.000000	0.681189   
846.500000	0.539547   
847.000000	0.411756   
847.500000	0.256988   
848.000000	0.218675   
848.500000	0.257656   
849.000000	0.338302   
849.500000	0.415638   
850.000000	0.447586   
850.500000	0.441391   
851.000000	0.349534   
851.500000	0.269076   
852.000000	0.199692   
852.500000	0.154803   
853.000000	0.141938   
853.500000	0.163619   
854.000000	0.192064   
854.500000	0.180257   
855.000000	0.177465   
855.500000	0.167959   
856.000000	0.160434   
856.500000	0.146487   
857.000000	0.142523   
857.500000	0.151246   
858.000000	0.124541   
858.500000	0.096914   
859.000000	0.095285   
859.500000	0.109992   
860.000000	0.124359   
860.500000	0.126755   
861.000000	0.132743   
861.500000	0.110398   
862.000000	0.075435   
862.500000	0.063461   
863.000000	0.053547   
863.500000	0.051912   
864.000000	0.050166   
864.500000	0.016235   
865.000000	-0.016372  
865.500000	-0.071643  
866.000000	-0.102491  
866.500000	-0.143831  
867.000000	-0.181942  
867.500000	-0.170001  
868.000000	-0.162042  
868.500000	-0.120512  
869.000000	-0.075710  
869.500000	-0.013346  
870.000000	0.033521   
870.500000	0.017881   
871.000000	0.015621   
871.500000	-0.006196  
872.000000	-0.026536  
872.500000	-0.038588  
873.000000	-0.035129  
873.500000	-0.006942  
874.000000	-0.003508  
874.500000	0.017745   
875.000000	0.052254   
875.500000	0.073161   
876.000000	0.095113   
876.500000	0.114385   
877.000000	0.124187   
877.500000	0.100799   
878.000000	0.063935   
878.500000	0.035803   
879.000000	-0.018139  
879.500000	-0.067519  
880.000000	-0.091361  
880.500000	-0.124536  
881.000000	-0.121877  
881.500000	-0.088126  
882.000000	-0.023602  
882.500000	0.043833   
883.000000	0.107892   
883.500000	0.171957   
884.000000	0.153157   
884.500000	0.112717   
885.000000	0.040051   
885.500000	-0.031081  
886.000000	-0.083521  
886.500000	-0.122782  
887.000000	-0.112523  
887.500000	-0.134341  
888.000000	-0.136849  
888.500000	-0.126170  
889.000000	-0.106220  
889.500000	-0.067107  
890.000000	-0.043289  
890.500000	-0.017103  
891.000000	-0.004990  
891.500000	0.039014   
892.000000	0.087382   
892.500000	0.126996   
893.000000	0.149489   
893.500000	0.143621   
894.000000	0.089220   
894.500000	-0.011578  
895.000000	-0.084463  
895.500000	-0.109879  
896.000000	-0.069146  
896.500000	-0.037534  

