PE FL                   SPECTRUM    ASCII       PEDS        1.60        
  -1
S00397~1.SP
24/04/11
16:20:26.00
24/04/11
16:20:26.00
Jan

896.500000
1









LS55
405.00
5.00
5.00
SCAN
1
20
100
100
0
400
0
1
0
1
5
ON
736 405 
1 0 0
#HDR
-1
-1
#GR
NM

0.00002384185791015625
0.0
450.000000
0.500000
894
8
366.866025
-0.570000
#DATA
450.000000	-0.570000  
450.500000	-0.278517  
451.000000	-0.000719  
451.500000	0.212428   
452.000000	0.349907   
452.500000	0.407827   
453.000000	0.398870   
453.500000	0.320116   
454.000000	0.226467   
454.500000	0.175782   
455.000000	0.178825   
455.500000	0.192981   
456.000000	0.237398   
456.500000	0.266204   
457.000000	0.276003   
457.500000	0.253916   
458.000000	0.250857   
458.500000	0.260823   
459.000000	0.249970   
459.500000	0.258653   
460.000000	0.195970   
460.500000	0.112224   
461.000000	0.025890   
461.500000	-0.030283  
462.000000	-0.042962  
462.500000	0.000113   
463.000000	0.119907   
463.500000	0.201419   
464.000000	0.222645   
464.500000	0.227139   
465.000000	0.206189   
465.500000	0.150235   
466.000000	0.100858   
466.500000	0.110079   
467.000000	0.144102   
467.500000	0.133870   
468.000000	0.100118   
468.500000	0.026666   
469.000000	-0.024257  
469.500000	-0.047196  
470.000000	-0.000252  
470.500000	0.128448   
471.000000	0.288612   
471.500000	0.419833   
472.000000	0.453990   
472.500000	0.426530   
473.000000	0.306487   
473.500000	0.154567   
474.000000	0.006888   
474.500000	-0.052820  
475.000000	-0.061953  
475.500000	-0.055788  
476.000000	-0.026280  
476.500000	-0.001625  
477.000000	-0.032532  
477.500000	-0.090384  
478.000000	-0.135962  
478.500000	-0.179263  
479.000000	-0.158758  
479.500000	-0.078994  
480.000000	0.070710   
480.500000	0.189063   
481.000000	0.279313   
481.500000	0.330270   
482.000000	0.297821   
482.500000	0.235617   
483.000000	0.143623   
483.500000	0.115090   
484.000000	0.088142   
484.500000	0.106153   
485.000000	0.137432   
485.500000	0.165597   
486.000000	0.225877   
486.500000	0.268597   
487.000000	0.311875   
487.500000	0.353775   
488.000000	0.383515   
488.500000	0.384621   
489.000000	0.371282   
489.500000	0.350153   
490.000000	0.273721   
490.500000	0.203591   
491.000000	0.133358   
491.500000	0.069378   
492.000000	0.029879   
492.500000	0.068155   
493.000000	0.161191   
493.500000	0.215163   
494.000000	0.255951   
494.500000	0.282102   
495.000000	0.267048   
495.500000	0.221372   
496.000000	0.204688   
496.500000	0.226107   
497.000000	0.212031   
497.500000	0.191571   
498.000000	0.159588   
498.500000	0.168163   
499.000000	0.170261   
499.500000	0.179649   
500.000000	0.225970   
500.500000	0.279178   
501.000000	0.346864   
501.500000	0.393267   
502.000000	0.494855   
502.500000	0.567378   
503.000000	0.623942   
503.500000	0.675638   
504.000000	0.688283   
504.500000	0.737189   
505.000000	0.776345   
505.500000	0.897730   
506.000000	1.015534   
506.500000	1.124814   
507.000000	1.209411   
507.500000	1.226191   
508.000000	1.202538   
508.500000	1.181491   
509.000000	1.177784   
509.500000	1.170534   
510.000000	1.202972   
510.500000	1.217319   
511.000000	1.210664   
511.500000	1.209098   
512.000000	1.283417   
512.500000	1.409803   
513.000000	1.515278   
513.500000	1.675818   
514.000000	1.804988   
514.500000	1.861740   
515.000000	1.867265   
515.500000	1.941933   
516.000000	2.129363   
516.500000	2.275445   
517.000000	2.440619   
517.500000	2.588701   
518.000000	2.623706   
518.500000	2.594846   
519.000000	2.517263   
519.500000	2.511970   
520.000000	2.481647   
520.500000	2.448755   
521.000000	2.431487   
521.500000	2.410265   
522.000000	2.444478   
522.500000	2.515851   
523.000000	2.631881   
523.500000	2.751623   
524.000000	2.847248   
524.500000	2.930150   
525.000000	3.005398   
525.500000	3.126120   
526.000000	3.361408   
526.500000	3.664233   
527.000000	3.915363   
527.500000	4.066549   
528.000000	4.144560   
528.500000	4.159927   
529.000000	4.145300   
529.500000	4.229489   
530.000000	4.435797   
530.500000	4.705840   
531.000000	4.996135   
531.500000	5.339000   
532.000000	5.647504   
532.500000	5.864109   
533.000000	6.055690   
533.500000	6.291183   
534.000000	6.505853   
534.500000	6.748139   
535.000000	7.065589   
535.500000	7.322296   
536.000000	7.526345   
536.500000	7.706231   
537.000000	7.933126   
537.500000	8.133664   
538.000000	8.395178   
538.500000	8.798287   
539.000000	9.298354   
539.500000	9.888729   
540.000000	10.465749  
540.500000	10.982860  
541.000000	11.305977  
541.500000	11.456113  
542.000000	11.468265  
542.500000	11.426729  
543.000000	11.385411  
543.500000	11.339536  
544.000000	11.262719  
544.500000	11.185534  
545.000000	11.105155  
545.500000	10.916369  
546.000000	10.800564  
546.500000	10.685935  
547.000000	10.575172  
547.500000	10.401328  
548.000000	10.211027  
548.500000	10.111332  
549.000000	9.992649   
549.500000	10.006161  
550.000000	10.108150  
550.500000	10.235313  
551.000000	10.323526  
551.500000	10.308276  
552.000000	10.340231  
552.500000	10.416486  
553.000000	10.534777  
553.500000	10.602361  
554.000000	10.626435  
554.500000	10.677879  
555.000000	10.588669  
555.500000	10.497350  
556.000000	10.524890  
556.500000	10.601461  
557.000000	10.764725  
557.500000	11.024944  
558.000000	11.391426  
558.500000	11.732667  
559.000000	11.989133  
559.500000	12.257291  
560.000000	12.445922  
560.500000	12.728565  
561.000000	13.206807  
561.500000	13.778254  
562.000000	14.407089  
562.500000	14.965048  
563.000000	15.412098  
563.500000	15.633230  
564.000000	15.750751  
564.500000	15.981506  
565.000000	16.276833  
565.500000	16.824933  
566.000000	17.543296  
566.500000	18.294942  
567.000000	19.087974  
567.500000	19.830432  
568.000000	20.587491  
568.500000	21.188189  
569.000000	21.869857  
569.500000	22.656382  
570.000000	23.515500  
570.500000	24.521269  
571.000000	25.621387  
571.500000	26.844371  
572.000000	27.906025  
572.500000	28.872998  
573.000000	29.701194  
573.500000	30.359051  
574.000000	30.939840  
574.500000	31.510035  
575.000000	32.094706  
575.500000	32.608961  
576.000000	33.208944  
576.500000	33.872920  
577.000000	34.696042  
577.500000	35.655896  
578.000000	36.830502  
578.500000	37.992452  
579.000000	38.904432  
579.500000	39.664152  
580.000000	40.175272  
580.500000	40.691808  
581.000000	41.219361  
581.500000	41.975328  
582.000000	42.998055  
582.500000	43.998476  
583.000000	45.037890  
583.500000	45.829756  
584.000000	46.595606  
584.500000	47.474857  
585.000000	48.265909  
585.500000	49.322588  
586.000000	50.563879  
586.500000	51.881215  
587.000000	53.161402  
587.500000	54.347480  
588.000000	55.691081  
588.500000	56.852974  
589.000000	57.950946  
589.500000	59.170990  
590.000000	60.408133  
590.500000	61.867970  
591.000000	63.246074  
591.500000	64.718345  
592.000000	66.261085  
592.500000	67.772248  
593.000000	69.238421  
593.500000	70.734755  
594.000000	72.483337  
594.500000	74.297122  
595.000000	76.192304  
595.500000	78.067153  
596.000000	80.041821  
596.500000	81.776289  
597.000000	83.475575  
597.500000	85.269300  
598.000000	87.026649  
598.500000	89.094844  
599.000000	90.941022  
599.500000	92.856346  
600.000000	94.557541  
600.500000	96.208059  
601.000000	97.953614  
601.500000	99.806974  
602.000000	102.331217 
602.500000	104.961233 
603.000000	107.735951 
603.500000	110.418289 
604.000000	112.814333 
604.500000	114.977931 
605.000000	117.124087 
605.500000	119.531354 
606.000000	122.202050 
606.500000	124.944421 
607.000000	127.839298 
607.500000	130.688267 
608.000000	133.383634 
608.500000	135.913677 
609.000000	138.491276 
609.500000	141.501410 
610.000000	144.465968 
610.500000	147.576460 
611.000000	150.945645 
611.500000	154.431380 
612.000000	157.672647 
612.500000	160.775647 
613.000000	164.113627 
613.500000	167.186797 
614.000000	170.193118 
614.500000	173.461849 
615.000000	177.014118 
615.500000	180.385743 
616.000000	183.815948 
616.500000	187.192319 
617.000000	190.566289 
617.500000	193.871786 
618.000000	197.577463 
618.500000	201.540491 
619.000000	205.747057 
619.500000	210.142163 
620.000000	214.296769 
620.500000	218.314274 
621.000000	222.190512 
621.500000	226.024959 
622.000000	229.704391 
622.500000	233.102452 
623.000000	236.711087 
623.500000	240.431289 
624.000000	244.246363 
624.500000	248.351178 
625.000000	252.387920 
625.500000	256.424432 
626.000000	260.160946 
626.500000	263.647115 
627.000000	267.175547 
627.500000	271.075504 
628.000000	275.699766 
628.500000	280.356070 
629.000000	285.464712 
629.500000	290.336768 
630.000000	294.451842 
630.500000	297.913371 
631.000000	301.095615 
631.500000	304.436218 
632.000000	307.527024 
632.500000	310.866860 
633.000000	314.862847 
633.500000	319.034063 
634.000000	322.898437 
634.500000	326.300395 
635.000000	329.500597 
635.500000	332.252651 
636.000000	334.654376 
636.500000	337.226211 
637.000000	340.262330 
637.500000	343.846016 
638.000000	347.323606 
638.500000	350.511591 
639.000000	353.356128 
639.500000	355.228814 
640.000000	356.312825 
640.500000	357.521749 
641.000000	359.096486 
641.500000	360.616933 
642.000000	362.229690 
642.500000	363.972833 
643.000000	365.479647 
643.500000	366.154747 
644.000000	366.552302 
644.500000	366.866025 
645.000000	366.474100 
645.500000	365.798233 
646.000000	365.182083 
646.500000	364.820087 
647.000000	364.081096 
647.500000	363.584923 
648.000000	363.712949 
648.500000	363.848643 
649.000000	363.467090 
649.500000	362.873905 
650.000000	362.197998 
650.500000	360.907897 
651.000000	359.112283 
651.500000	357.093656 
652.000000	355.371957 
652.500000	353.080996 
653.000000	351.180398 
653.500000	349.769189 
654.000000	348.187385 
654.500000	346.563610 
655.000000	344.398244 
655.500000	341.994031 
656.000000	338.453194 
656.500000	334.502395 
657.000000	330.757265 
657.500000	327.166448 
658.000000	323.847853 
658.500000	320.814779 
659.000000	318.104150 
659.500000	315.013820 
660.000000	311.192576 
660.500000	307.090792 
661.000000	303.000437 
661.500000	298.696408 
662.000000	294.344992 
662.500000	289.779756 
663.000000	285.523998 
663.500000	280.931272 
664.000000	276.296766 
664.500000	272.038673 
665.000000	267.853541 
665.500000	263.631966 
666.000000	258.903517 
666.500000	254.447961 
667.000000	249.637844 
667.500000	244.841272 
668.000000	240.084842 
668.500000	235.535614 
669.000000	230.930473 
669.500000	225.837126 
670.000000	220.684517 
670.500000	215.192734 
671.000000	209.581256 
671.500000	203.897083 
672.000000	198.729619 
672.500000	193.998352 
673.000000	189.515738 
673.500000	185.334948 
674.000000	181.174055 
674.500000	176.614174 
675.000000	171.505179 
675.500000	166.320794 
676.000000	161.375224 
676.500000	156.677931 
677.000000	152.543649 
677.500000	148.834120 
678.000000	145.164250 
678.500000	141.376384 
679.000000	137.595398 
679.500000	134.095389 
680.000000	130.651756 
680.500000	127.518588 
681.000000	124.590432 
681.500000	121.386263 
682.000000	118.099608 
682.500000	114.849758 
683.000000	111.716788 
683.500000	108.817191 
684.000000	106.020293 
684.500000	103.008601 
685.000000	99.575933  
685.500000	96.121142  
686.000000	92.713870  
686.500000	89.533096  
687.000000	86.765320  
687.500000	84.410831  
688.000000	82.373092  
688.500000	80.201270  
689.000000	77.999575  
689.500000	75.757343  
690.000000	73.607723  
690.500000	71.354810  
691.000000	68.995994  
691.500000	66.669517  
692.000000	64.407057  
692.500000	62.159430  
693.000000	60.082920  
693.500000	58.573610  
694.000000	57.367998  
694.500000	56.205595  
695.000000	55.142768  
695.500000	54.158324  
696.000000	52.910411  
696.500000	51.397493  
697.000000	49.749500  
697.500000	48.064139  
698.000000	46.413192  
698.500000	44.791768  
699.000000	43.361656  
699.500000	41.970474  
700.000000	40.696200  
700.500000	39.464319  
701.000000	38.318306  
701.500000	37.340157  
702.000000	36.522398  
702.500000	35.848042  
703.000000	35.070107  
703.500000	34.260987  
704.000000	33.393469  
704.500000	32.415834  
705.000000	31.454612  
705.500000	30.622196  
706.000000	30.060699  
706.500000	29.611148  
707.000000	29.179376  
707.500000	28.667252  
708.000000	28.005384  
708.500000	27.205777  
709.000000	26.329102  
709.500000	25.520393  
710.000000	24.829873  
710.500000	24.326454  
711.000000	23.967129  
711.500000	23.631769  
712.000000	23.224521  
712.500000	22.803046  
713.000000	22.281064  
713.500000	21.680040  
714.000000	21.046764  
714.500000	20.528944  
715.000000	20.069246  
715.500000	19.603651  
716.000000	19.320211  
716.500000	19.134465  
717.000000	18.995773  
717.500000	18.683402  
718.000000	18.313641  
718.500000	17.824987  
719.000000	17.206836  
719.500000	16.649456  
720.000000	16.188523  
720.500000	15.898346  
721.000000	15.636554  
721.500000	15.504608  
722.000000	15.344679  
722.500000	15.061189  
723.000000	14.699682  
723.500000	14.325623  
724.000000	13.983395  
724.500000	13.605038  
725.000000	13.327159  
725.500000	13.095664  
726.000000	12.839853  
726.500000	12.581014  
727.000000	12.346350  
727.500000	12.168692  
728.000000	11.966144  
728.500000	11.806886  
729.000000	11.694920  
729.500000	11.552120  
730.000000	11.359233  
730.500000	11.171094  
731.000000	10.982788  
731.500000	10.793847  
732.000000	10.643430  
732.500000	10.480771  
733.000000	10.338354  
733.500000	10.150274  
734.000000	10.062148  
734.500000	10.017768  
735.000000	9.989205   
735.500000	9.941682   
736.000000	9.763153   
736.500000	9.479328   
737.000000	9.030285   
737.500000	8.567309   
738.000000	8.216771   
738.500000	8.047705   
739.000000	8.060356   
739.500000	8.097448   
740.000000	8.155489   
740.500000	8.152226   
741.000000	8.048580   
741.500000	7.942677   
742.000000	7.853059   
742.500000	7.782307   
743.000000	7.704035   
743.500000	7.632335   
744.000000	7.526890   
744.500000	7.372773   
745.000000	7.329410   
745.500000	7.319421   
746.000000	7.319697   
746.500000	7.229435   
747.000000	7.146820   
747.500000	6.979816   
748.000000	6.703163   
748.500000	6.528773   
749.000000	6.482131   
749.500000	6.544280   
750.000000	6.508315   
750.500000	6.585821   
751.000000	6.676747   
751.500000	6.629871   
752.000000	6.464400   
752.500000	6.288556   
753.000000	6.139684   
753.500000	5.807150   
754.000000	5.508016   
754.500000	5.320840   
755.000000	5.223849   
755.500000	5.106768   
756.000000	5.060884   
756.500000	5.078753   
757.000000	5.074337   
757.500000	5.051122   
758.000000	5.077346   
758.500000	5.148259   
759.000000	5.227938   
759.500000	5.339311   
760.000000	5.404298   
760.500000	5.470441   
761.000000	5.461435   
761.500000	5.399159   
762.000000	5.269146   
762.500000	5.126766   
763.000000	5.060788   
763.500000	4.958413   
764.000000	4.887153   
764.500000	4.862604   
765.000000	4.875640   
765.500000	4.836738   
766.000000	4.752066   
766.500000	4.713322   
767.000000	4.628782   
767.500000	4.479992   
768.000000	4.335326   
768.500000	4.163879   
769.000000	3.969998   
769.500000	3.807025   
770.000000	3.806092   
770.500000	3.940209   
771.000000	4.051942   
771.500000	4.149526   
772.000000	4.146081   
772.500000	4.039423   
773.000000	3.841992   
773.500000	3.604549   
774.000000	3.445551   
774.500000	3.332025   
775.000000	3.284230   
775.500000	3.260148   
776.000000	3.266664   
776.500000	3.289272   
777.000000	3.278029   
777.500000	3.290278   
778.000000	3.288107   
778.500000	3.320528   
779.000000	3.330421   
779.500000	3.336990   
780.000000	3.371942   
780.500000	3.411695   
781.000000	3.426226   
781.500000	3.394133   
782.000000	3.361916   
782.500000	3.322033   
783.000000	3.273198   
783.500000	3.234705   
784.000000	3.210046   
784.500000	3.180606   
785.000000	3.136994   
785.500000	3.099972   
786.000000	3.087287   
786.500000	3.071241   
787.000000	3.064261   
787.500000	3.052766   
788.000000	3.021957   
788.500000	2.981907   
789.000000	2.920235   
789.500000	2.903387   
790.000000	2.882467   
790.500000	2.879174   
791.000000	2.885148   
791.500000	2.911910   
792.000000	2.949257   
792.500000	2.957419   
793.000000	2.995081   
793.500000	3.007168   
794.000000	3.019469   
794.500000	3.019944   
795.000000	3.002756   
795.500000	2.981734   
796.000000	2.941530   
796.500000	2.876992   
797.000000	2.803990   
797.500000	2.699582   
798.000000	2.585914   
798.500000	2.478647   
799.000000	2.412257   
799.500000	2.397000   
800.000000	2.390430   
800.500000	2.417274   
801.000000	2.438415   
801.500000	2.457981   
802.000000	2.470615   
802.500000	2.414189   
803.000000	2.316983   
803.500000	2.216012   
804.000000	2.101315   
804.500000	1.979302   
805.000000	1.881009   
805.500000	1.899764   
806.000000	1.952276   
806.500000	1.977474   
807.000000	2.090922   
807.500000	2.175946   
808.000000	2.174866   
808.500000	2.093435   
809.000000	2.026602   
809.500000	1.960482   
810.000000	1.831866   
810.500000	1.796896   
811.000000	1.805118   
811.500000	1.856651   
812.000000	1.947248   
812.500000	2.028014   
813.000000	2.088374   
813.500000	2.095139   
814.000000	2.098385   
814.500000	2.044170   
815.000000	1.958296   
815.500000	1.960306   
816.000000	1.979781   
816.500000	1.962794   
817.000000	1.903172   
817.500000	1.831988   
818.000000	1.750818   
818.500000	1.655614   
819.000000	1.677155   
819.500000	1.808636   
820.000000	1.959619   
820.500000	2.100007   
821.000000	2.194126   
821.500000	2.264157   
822.000000	2.303836   
822.500000	2.324102   
823.000000	2.402983   
823.500000	2.486337   
824.000000	2.560209   
824.500000	2.586122   
825.000000	2.556141   
825.500000	2.536506   
826.000000	2.479910   
826.500000	2.443990   
827.000000	2.410827   
827.500000	2.367871   
828.000000	2.318846   
828.500000	2.199435   
829.000000	2.109380   
829.500000	2.001395   
830.000000	1.869951   
830.500000	1.767764   
831.000000	1.665282   
831.500000	1.569521   
832.000000	1.408152   
832.500000	1.250552   
833.000000	1.139610   
833.500000	1.053473   
834.000000	1.060215   
834.500000	1.106231   
835.000000	1.174576   
835.500000	1.198493   
836.000000	1.172129   
836.500000	1.122491   
837.000000	1.055742   
837.500000	1.028129   
838.000000	0.993224   
838.500000	0.981794   
839.000000	0.982448   
839.500000	0.974855   
840.000000	0.958517   
840.500000	0.948083   
841.000000	0.979406   
841.500000	0.990588   
842.000000	0.958886   
842.500000	0.873797   
843.000000	0.765836   
843.500000	0.671816   
844.000000	0.585703   
844.500000	0.542183   
845.000000	0.541844   
845.500000	0.555833   
846.000000	0.551667   
846.500000	0.527473   
847.000000	0.510371   
847.500000	0.478499   
848.000000	0.454148   
848.500000	0.447855   
849.000000	0.475983   
849.500000	0.496836   
850.000000	0.490936   
850.500000	0.475662   
851.000000	0.443259   
851.500000	0.428545   
852.000000	0.426428   
852.500000	0.459753   
853.000000	0.478243   
853.500000	0.471330   
854.000000	0.434098   
854.500000	0.344202   
855.000000	0.227124   
855.500000	0.115968   
856.000000	0.069105   
856.500000	0.039038   
857.000000	0.011031   
857.500000	-0.006708  
858.000000	-0.029692  
858.500000	-0.103432  
859.000000	-0.156491  
859.500000	-0.162673  
860.000000	-0.143224  
860.500000	-0.084389  
861.000000	-0.020601  
861.500000	0.049888   
862.000000	0.059103   
862.500000	0.068038   
863.000000	0.042651   
863.500000	-0.013604  
864.000000	-0.036523  
864.500000	-0.068038  
865.000000	-0.094348  
865.500000	-0.141209  
866.000000	-0.131450  
866.500000	-0.111124  
867.000000	-0.085857  
867.500000	-0.014816  
868.000000	0.054938   
868.500000	0.081879   
869.000000	0.075061   
869.500000	0.070350   
870.000000	0.042452   
870.500000	-0.008276  
871.000000	-0.046141  
871.500000	-0.072756  
872.000000	-0.112430  
872.500000	-0.134263  
873.000000	-0.135951  
873.500000	-0.117319  
874.000000	-0.090842  
874.500000	-0.045601  
875.000000	-0.014363  
875.500000	-0.004120  
876.000000	-0.005710  
876.500000	-0.026419  
877.000000	-0.043686  
877.500000	-0.045753  
878.000000	-0.001228  
878.500000	0.035781   
879.000000	0.063081   
879.500000	0.090912   
880.000000	0.104569   
880.500000	0.069211   
881.000000	0.048858   
881.500000	0.090564   
882.000000	0.159838   
882.500000	0.191539   
883.000000	0.196435   
883.500000	0.179762   
884.000000	0.070998   
884.500000	-0.064825  
885.000000	-0.182094  
885.500000	-0.236020  
886.000000	-0.259983  
886.500000	-0.241851  
887.000000	-0.160799  
887.500000	-0.087894  
888.000000	-0.025289  
888.500000	0.041367   
889.000000	0.086558   
889.500000	0.115092   
890.000000	0.130521   
890.500000	0.135463   
891.000000	0.117766   
891.500000	0.070029   
892.000000	0.027306   
892.500000	-0.033378  
893.000000	-0.092042  
893.500000	-0.116992  
894.000000	-0.102803  
894.500000	-0.022955  
895.000000	0.050398   
895.500000	0.107079   
896.000000	0.125358   
896.500000	0.101790   

