PE FL                   SPECTRUM    ASCII       PEDS        1.60        
  -1
S003CF~1.SP
24/04/11
16:57:31.00
24/04/11
16:57:31.00
Jan

896.500000
1









LS55
405.00
5.00
5.00
SCAN
1
20
100
100
0
400
0
1
0
1
5
ON
736 405 
1 0 0
#HDR
-1
-1
#GR
NM

0.00002384185791015625
0.0
450.000000
0.500000
894
8
324.105931
-0.266402
#DATA
450.000000	-0.066000  
450.500000	-0.061337  
451.000000	-0.089784  
451.500000	-0.160374  
452.000000	-0.214512  
452.500000	-0.265706  
453.000000	-0.220474  
453.500000	-0.098196  
454.000000	0.093116   
454.500000	0.246758   
455.000000	0.303048   
455.500000	0.302907   
456.000000	0.216432   
456.500000	0.113818   
457.000000	0.009773   
457.500000	-0.020092  
458.000000	-0.016085  
458.500000	-0.011085  
459.000000	0.027528   
459.500000	0.037077   
460.000000	0.048122   
460.500000	0.029024   
461.000000	-0.009884  
461.500000	-0.030907  
462.000000	-0.053163  
462.500000	-0.070912  
463.000000	-0.069037  
463.500000	0.010899   
464.000000	0.103333   
464.500000	0.182061   
465.000000	0.298690   
465.500000	0.402050   
466.000000	0.442534   
466.500000	0.401630   
467.000000	0.319387   
467.500000	0.177838   
468.000000	-0.031528  
468.500000	-0.191320  
469.000000	-0.258204  
469.500000	-0.266402  
470.000000	-0.232222  
470.500000	-0.134567  
471.000000	-0.035727  
471.500000	0.030528   
472.000000	0.079833   
472.500000	0.099940   
473.000000	0.125521   
473.500000	0.153556   
474.000000	0.185423   
474.500000	0.215322   
475.000000	0.248293   
475.500000	0.275320   
476.000000	0.243608   
476.500000	0.220090   
477.000000	0.202358   
477.500000	0.179710   
478.000000	0.176111   
478.500000	0.191591   
479.000000	0.207649   
479.500000	0.196408   
480.000000	0.187669   
480.500000	0.189517   
481.000000	0.186786   
481.500000	0.175265   
482.000000	0.172126   
482.500000	0.141287   
483.000000	0.093576   
483.500000	0.044975   
484.000000	0.012471   
484.500000	0.037267   
485.000000	0.077604   
485.500000	0.117836   
486.000000	0.155630   
486.500000	0.183307   
487.000000	0.162120   
487.500000	0.091771   
488.000000	0.057365   
488.500000	0.024109   
489.000000	-0.005805  
489.500000	0.007306   
490.000000	0.062001   
490.500000	0.115961   
491.000000	0.157384   
491.500000	0.172473   
492.000000	0.165207   
492.500000	0.147081   
493.000000	0.144810   
493.500000	0.183929   
494.000000	0.227348   
494.500000	0.261358   
495.000000	0.264936   
495.500000	0.244077   
496.000000	0.231474   
496.500000	0.217098   
497.000000	0.289179   
497.500000	0.369469   
498.000000	0.448298   
498.500000	0.471387   
499.000000	0.453810   
499.500000	0.432820   
500.000000	0.404621   
500.500000	0.457332   
501.000000	0.558666   
501.500000	0.673777   
502.000000	0.748387   
502.500000	0.744079   
503.000000	0.716974   
503.500000	0.662150   
504.000000	0.598393   
504.500000	0.543263   
505.000000	0.567795   
505.500000	0.639423   
506.000000	0.700463   
506.500000	0.752677   
507.000000	0.854903   
507.500000	0.920413   
508.000000	0.967191   
508.500000	1.034358   
509.000000	1.107825   
509.500000	1.148387   
510.000000	1.161363   
510.500000	1.246185   
511.000000	1.295547   
511.500000	1.343430   
512.000000	1.397204   
512.500000	1.528534   
513.000000	1.671940   
513.500000	1.761541   
514.000000	1.908209   
514.500000	2.018994   
515.000000	2.062931   
515.500000	2.039192   
516.000000	2.041625   
516.500000	2.071126   
517.000000	2.113172   
517.500000	2.242020   
518.000000	2.405708   
518.500000	2.528968   
519.000000	2.543419   
519.500000	2.494103   
520.000000	2.421547   
520.500000	2.405860   
521.000000	2.439966   
521.500000	2.512654   
522.000000	2.613628   
522.500000	2.680402   
523.000000	2.706732   
523.500000	2.696890   
524.000000	2.743714   
524.500000	2.916927   
525.000000	3.098183   
525.500000	3.374256   
526.000000	3.617296   
526.500000	3.801645   
527.000000	3.921888   
527.500000	4.018738   
528.000000	4.162074   
528.500000	4.236922   
529.000000	4.359317   
529.500000	4.533803   
530.000000	4.721319   
530.500000	4.893415   
531.000000	5.098120   
531.500000	5.376231   
532.000000	5.643358   
532.500000	5.906040   
533.000000	6.256417   
533.500000	6.661597   
534.000000	6.978037   
534.500000	7.206081   
535.000000	7.367218   
535.500000	7.555569   
536.000000	7.684866   
536.500000	7.923686   
537.000000	8.359638   
537.500000	8.901053   
538.000000	9.438708   
538.500000	9.905756   
539.000000	10.352753  
539.500000	10.649983  
540.000000	10.821578  
540.500000	10.997552  
541.000000	11.205606  
541.500000	11.398905  
542.000000	11.609773  
542.500000	11.809974  
543.000000	11.946141  
543.500000	11.916011  
544.000000	11.733955  
544.500000	11.437009  
545.000000	11.113120  
545.500000	10.899653  
546.000000	10.806139  
546.500000	10.889851  
547.000000	10.978487  
547.500000	10.974543  
548.000000	10.868894  
548.500000	10.711643  
549.000000	10.515148  
549.500000	10.285139  
550.000000	10.210736  
550.500000	10.248944  
551.000000	10.219547  
551.500000	10.181382  
552.000000	10.184196  
552.500000	10.162115  
553.000000	10.061858  
553.500000	9.992061   
554.000000	9.986699   
554.500000	9.970543   
555.000000	10.008500  
555.500000	10.148935  
556.000000	10.431486  
556.500000	10.834996  
557.000000	11.297265  
557.500000	11.759630  
558.000000	12.153849  
558.500000	12.465187  
559.000000	12.590272  
559.500000	12.618037  
560.000000	12.660667  
560.500000	12.814341  
561.000000	13.031064  
561.500000	13.420502  
562.000000	14.017170  
562.500000	14.642732  
563.000000	15.285473  
563.500000	15.813092  
564.000000	16.276805  
564.500000	16.674044  
565.000000	17.070833  
565.500000	17.578775  
566.000000	18.097766  
566.500000	18.707747  
567.000000	19.260090  
567.500000	19.825873  
568.000000	20.414827  
568.500000	21.062575  
569.000000	21.822781  
569.500000	22.591339  
570.000000	23.390400  
570.500000	24.112766  
571.000000	24.698372  
571.500000	25.158001  
572.000000	25.567358  
572.500000	26.091653  
573.000000	26.655421  
573.500000	27.332141  
574.000000	28.210671  
574.500000	29.163756  
575.000000	29.934608  
575.500000	30.536961  
576.000000	31.122064  
576.500000	31.728270  
577.000000	32.144510  
577.500000	32.737365  
578.000000	33.618858  
578.500000	34.402500  
579.000000	35.038701  
579.500000	35.683000  
580.000000	36.617948  
580.500000	37.382252  
581.000000	38.142220  
581.500000	39.180803  
582.000000	40.277207  
582.500000	41.315500  
583.000000	42.143415  
583.500000	43.193445  
584.000000	44.106486  
584.500000	44.931816  
585.000000	45.713283  
585.500000	46.705482  
586.000000	47.955768  
586.500000	49.131909  
587.000000	50.601849  
587.500000	52.108460  
588.000000	53.642320  
588.500000	54.944658  
589.000000	56.345432  
589.500000	57.984495  
590.000000	59.491586  
590.500000	61.028871  
591.000000	62.687558  
591.500000	64.406393  
592.000000	65.919276  
592.500000	67.348090  
593.000000	68.789784  
593.500000	70.051758  
594.000000	71.036684  
594.500000	72.104562  
595.000000	73.311599  
595.500000	74.631428  
596.000000	76.164055  
596.500000	78.168343  
597.000000	80.645615  
597.500000	83.096447  
598.000000	85.546838  
598.500000	87.921298  
599.000000	90.023435  
599.500000	91.726526  
600.000000	93.390487  
600.500000	95.202964  
601.000000	97.245376  
601.500000	99.442920  
602.000000	101.725990 
602.500000	103.967523 
603.000000	105.843267 
603.500000	107.518671 
604.000000	109.239413 
604.500000	111.279834 
605.000000	113.720551 
605.500000	116.348159 
606.000000	119.308033 
606.500000	122.438743 
607.000000	125.489595 
607.500000	128.519437 
608.000000	131.417298 
608.500000	134.234239 
609.000000	136.571487 
609.500000	138.681649 
610.000000	140.924961 
610.500000	143.204437 
611.000000	146.442092 
611.500000	149.910183 
612.000000	153.815376 
612.500000	157.556558 
613.000000	160.680328 
613.500000	163.464717 
614.000000	165.862012 
614.500000	168.997525 
615.000000	172.579085 
615.500000	176.893365 
616.000000	181.677348 
616.500000	186.073304 
617.000000	189.990907 
617.500000	192.940265 
618.000000	195.588194 
618.500000	198.097179 
619.000000	201.178072 
619.500000	204.873484 
620.000000	208.716300 
620.500000	212.841564 
621.000000	216.901063 
621.500000	220.298578 
622.000000	223.189812 
622.500000	226.109187 
623.000000	229.082198 
623.500000	231.936916 
624.000000	235.239807 
624.500000	239.161864 
625.000000	243.021074 
625.500000	246.751346 
626.000000	250.735816 
626.500000	254.659263 
627.000000	258.163007 
627.500000	261.142614 
628.000000	264.371471 
628.500000	267.248311 
629.000000	269.984315 
629.500000	273.114209 
630.000000	276.520695 
630.500000	280.585061 
631.000000	284.384966 
631.500000	288.236042 
632.000000	291.534476 
632.500000	294.050586 
633.000000	296.282348 
633.500000	298.005137 
634.000000	300.233584 
634.500000	302.435534 
635.000000	304.703825 
635.500000	306.864118 
636.000000	308.660395 
636.500000	310.287870 
637.000000	311.592128 
637.500000	313.132504 
638.000000	314.963669 
638.500000	317.186753 
639.000000	319.446567 
639.500000	320.970714 
640.000000	321.919948 
640.500000	322.373525 
641.000000	322.094734 
641.500000	321.708356 
642.000000	321.985977 
642.500000	322.549207 
643.000000	323.131625 
643.500000	323.705549 
644.000000	324.105931 
644.500000	323.676313 
645.000000	322.890194 
645.500000	322.531979 
646.000000	321.993089 
646.500000	321.341614 
647.000000	320.638267 
647.500000	319.688790 
648.000000	318.303072 
648.500000	316.693313 
649.000000	315.206348 
649.500000	313.414567 
650.000000	311.905330 
650.500000	310.579907 
651.000000	309.045213 
651.500000	307.562415 
652.000000	305.986150 
652.500000	303.856495 
653.000000	301.300408 
653.500000	298.832217 
654.000000	296.370395 
654.500000	293.395272 
655.000000	290.238647 
655.500000	287.210103 
656.000000	283.592146 
656.500000	279.401684 
657.000000	274.964669 
657.500000	270.860610 
658.000000	266.945758 
658.500000	263.429988 
659.000000	260.530931 
659.500000	257.706940 
660.000000	254.595204 
660.500000	251.099942 
661.000000	247.100456 
661.500000	242.491679 
662.000000	237.425686 
662.500000	232.486539 
663.000000	227.747814 
663.500000	223.339799 
664.000000	219.535324 
664.500000	215.920454 
665.000000	212.125287 
665.500000	208.141578 
666.000000	204.315443 
666.500000	200.376562 
667.000000	196.212474 
667.500000	192.314575 
668.000000	188.407211 
668.500000	184.186935 
669.000000	179.520209 
669.500000	174.576051 
670.000000	169.451871 
670.500000	164.485823 
671.000000	159.719113 
671.500000	155.317367 
672.000000	150.951332 
672.500000	146.932888 
673.000000	142.816267 
673.500000	138.753033 
674.000000	135.068404 
674.500000	131.515586 
675.000000	128.104925 
675.500000	124.623766 
676.000000	121.496456 
676.500000	118.273502 
677.000000	114.933046 
677.500000	112.074628 
678.000000	109.524441 
678.500000	107.065959 
679.000000	104.456567 
679.500000	101.856525 
680.000000	99.146556  
680.500000	96.070608  
681.000000	93.052447  
681.500000	90.198808  
682.000000	87.584814  
682.500000	85.005276  
683.000000	82.341333  
683.500000	79.802276  
684.000000	77.162690  
684.500000	74.673743  
685.000000	72.172057  
685.500000	69.943285  
686.000000	67.834413  
686.500000	65.695009  
687.000000	63.513860  
687.500000	61.486723  
688.000000	59.862369  
688.500000	58.161703  
689.000000	56.514920  
689.500000	54.972005  
690.000000	53.441005  
690.500000	51.844556  
691.000000	50.282615  
691.500000	49.060218  
692.000000	47.961853  
692.500000	46.945653  
693.000000	45.921100  
693.500000	44.886454  
694.000000	43.811103  
694.500000	42.556762  
695.000000	41.200471  
695.500000	39.832747  
696.000000	38.501938  
696.500000	37.292775  
697.000000	36.098940  
697.500000	35.209358  
698.000000	34.510953  
698.500000	33.830810  
699.000000	33.026725  
699.500000	32.130103  
700.000000	31.179782  
700.500000	30.056218  
701.000000	28.930992  
701.500000	27.988024  
702.000000	27.288847  
702.500000	26.662949  
703.000000	26.239749  
703.500000	26.050970  
704.000000	25.883899  
704.500000	25.499799  
705.000000	24.994955  
705.500000	24.474447  
706.000000	23.731196  
706.500000	22.947341  
707.000000	22.221387  
707.500000	21.572166  
708.000000	20.993920  
708.500000	20.591974  
709.000000	20.330397  
709.500000	20.087198  
710.000000	19.739307  
710.500000	19.325862  
711.000000	18.797029  
711.500000	18.194998  
712.000000	17.653116  
712.500000	17.200643  
713.000000	16.967153  
713.500000	16.789063  
714.000000	16.645120  
714.500000	16.482374  
715.000000	16.241102  
715.500000	15.894285  
716.000000	15.396846  
716.500000	14.939842  
717.000000	14.501894  
717.500000	14.065465  
718.000000	13.755576  
718.500000	13.529482  
719.000000	13.378821  
719.500000	13.212949  
720.000000	12.995246  
720.500000	12.776526  
721.000000	12.486296  
721.500000	12.206315  
722.000000	11.941679  
722.500000	11.650810  
723.000000	11.378677  
723.500000	11.102756  
724.000000	10.919521  
724.500000	10.746578  
725.000000	10.567758  
725.500000	10.455033  
726.000000	10.273239  
726.500000	10.088584  
727.000000	9.915337   
727.500000	9.908423   
728.000000	9.923430   
728.500000	9.882606   
729.000000	9.821538   
729.500000	9.663660   
730.000000	9.470584   
730.500000	9.187209   
731.000000	8.983719   
731.500000	8.829938   
732.000000	8.719899   
732.500000	8.611760   
733.000000	8.492224   
733.500000	8.441899   
734.000000	8.326838   
734.500000	8.223469   
735.000000	8.161627   
735.500000	8.088460   
736.000000	7.971690   
736.500000	7.763710   
737.000000	7.611846   
737.500000	7.465339   
738.000000	7.290033   
738.500000	7.251834   
739.000000	7.170801   
739.500000	7.076317   
740.000000	6.909619   
740.500000	6.750287   
741.000000	6.647675   
741.500000	6.487705   
742.000000	6.506517   
742.500000	6.477463   
743.000000	6.499291   
743.500000	6.452022   
744.000000	6.403482   
744.500000	6.388797   
745.000000	6.345946   
745.500000	6.450016   
746.000000	6.495280   
746.500000	6.481990   
747.000000	6.388020   
747.500000	6.251040   
748.000000	6.085027   
748.500000	5.895988   
749.000000	5.826293   
749.500000	5.841460   
750.000000	5.831910   
750.500000	5.853512   
751.000000	5.870372   
751.500000	5.799241   
752.000000	5.620630   
752.500000	5.353309   
753.000000	5.105038   
753.500000	4.819877   
754.000000	4.717975   
754.500000	4.749269   
755.000000	4.856237   
755.500000	4.995118   
756.000000	5.100332   
756.500000	5.153057   
757.000000	5.081525   
757.500000	5.009230   
758.000000	4.961029   
758.500000	4.858246   
759.000000	4.761141   
759.500000	4.715155   
760.000000	4.728723   
760.500000	4.832306   
761.000000	4.953628   
761.500000	5.081903   
762.000000	5.120246   
762.500000	5.038751   
763.000000	4.836074   
763.500000	4.571469   
764.000000	4.368183   
764.500000	4.194628   
765.000000	4.089089   
765.500000	4.003920   
766.000000	3.937387   
766.500000	3.949063   
767.000000	3.958836   
767.500000	4.035029   
768.000000	4.097319   
768.500000	4.154897   
769.000000	4.128315   
769.500000	4.025959   
770.000000	3.970371   
770.500000	3.898858   
771.000000	3.847740   
771.500000	3.769894   
772.000000	3.730846   
772.500000	3.667196   
773.000000	3.558723   
773.500000	3.524899   
774.000000	3.452571   
774.500000	3.421343   
775.000000	3.361046   
775.500000	3.300645   
776.000000	3.240319   
776.500000	3.196697   
777.000000	3.228638   
777.500000	3.231294   
778.000000	3.244085   
778.500000	3.261949   
779.000000	3.261506   
779.500000	3.229506   
780.000000	3.195239   
780.500000	3.223029   
781.000000	3.215389   
781.500000	3.183298   
782.000000	3.146478   
782.500000	3.116374   
783.000000	3.045567   
783.500000	2.978768   
784.000000	2.964792   
784.500000	2.957627   
785.000000	2.961155   
785.500000	2.974478   
786.000000	3.007812   
786.500000	2.984673   
787.000000	2.972098   
787.500000	2.937844   
788.000000	2.864398   
788.500000	2.855166   
789.000000	2.846148   
789.500000	2.871092   
790.000000	2.864365   
790.500000	2.899320   
791.000000	2.940456   
791.500000	2.933448   
792.000000	2.985352   
792.500000	2.999205   
793.000000	3.004636   
793.500000	2.981450   
794.000000	2.976406   
794.500000	2.953983   
795.000000	2.901580   
795.500000	2.887205   
796.000000	2.859478   
796.500000	2.800705   
797.000000	2.725810   
797.500000	2.664198   
798.000000	2.599155   
798.500000	2.555857   
799.000000	2.546985   
799.500000	2.570283   
800.000000	2.586736   
800.500000	2.525480   
801.000000	2.471077   
801.500000	2.375237   
802.000000	2.267740   
802.500000	2.150782   
803.000000	2.076397   
803.500000	2.077267   
804.000000	2.066827   
804.500000	2.089077   
805.000000	2.049833   
805.500000	1.974161   
806.000000	1.896226   
806.500000	1.804163   
807.000000	1.798775   
807.500000	1.775873   
808.000000	1.828536   
808.500000	1.835343   
809.000000	1.825740   
809.500000	1.843504   
810.000000	1.820209   
810.500000	1.890410   
811.000000	1.918879   
811.500000	1.992131   
812.000000	2.054289   
812.500000	2.028037   
813.000000	2.010975   
813.500000	1.923452   
814.000000	1.913946   
814.500000	1.908029   
815.000000	1.902703   
815.500000	1.940172   
816.000000	1.908636   
816.500000	1.853981   
817.000000	1.742690   
817.500000	1.641870   
818.000000	1.607315   
818.500000	1.645909   
819.000000	1.774968   
819.500000	1.885987   
820.000000	1.968063   
820.500000	2.024337   
821.000000	2.031690   
821.500000	2.065977   
822.000000	2.208144   
822.500000	2.387128   
823.000000	2.561961   
823.500000	2.696198   
824.000000	2.772541   
824.500000	2.762235   
825.000000	2.673437   
825.500000	2.644617   
826.000000	2.633408   
826.500000	2.605851   
827.000000	2.541706   
827.500000	2.429417   
828.000000	2.261103   
828.500000	2.056833   
829.000000	1.884974   
829.500000	1.760829   
830.000000	1.669465   
830.500000	1.629773   
831.000000	1.600669   
831.500000	1.557892   
832.000000	1.514252   
832.500000	1.449695   
833.000000	1.383654   
833.500000	1.311205   
834.000000	1.254669   
834.500000	1.191090   
835.000000	1.096771   
835.500000	1.005682   
836.000000	0.936000   
836.500000	0.884582   
837.000000	0.858862   
837.500000	0.865569   
838.000000	0.901595   
838.500000	0.942441   
839.000000	0.958886   
839.500000	0.967061   
840.000000	0.934812   
840.500000	0.898654   
841.000000	0.841426   
841.500000	0.806589   
842.000000	0.827133   
842.500000	0.853302   
843.000000	0.887454   
843.500000	0.875133   
844.000000	0.855545   
844.500000	0.782411   
845.000000	0.691246   
845.500000	0.607597   
846.000000	0.544306   
846.500000	0.538404   
847.000000	0.530365   
847.500000	0.559105   
848.000000	0.561705   
848.500000	0.560528   
849.000000	0.538732   
849.500000	0.469332   
850.000000	0.434285   
850.500000	0.387044   
851.000000	0.368517   
851.500000	0.355265   
852.000000	0.365077   
852.500000	0.387283   
853.000000	0.349298   
853.500000	0.307701   
854.000000	0.237270   
854.500000	0.176029   
855.000000	0.129061   
855.500000	0.104489   
856.000000	0.128042   
856.500000	0.182510   
857.000000	0.224094   
857.500000	0.218272   
858.000000	0.184215   
858.500000	0.124601   
859.000000	0.036259   
859.500000	-0.049230  
860.000000	-0.069298  
860.500000	-0.070009  
861.000000	-0.070918  
861.500000	-0.046337  
862.000000	0.022842   
862.500000	0.067734   
863.000000	0.085660   
863.500000	0.117896   
864.000000	0.127105   
864.500000	0.086465   
865.000000	0.017784   
865.500000	-0.017487  
866.000000	-0.049504  
866.500000	-0.067020  
867.000000	-0.067131  
867.500000	-0.063918  
868.000000	-0.077133  
868.500000	-0.098372  
869.000000	-0.108586  
869.500000	-0.105643  
870.000000	-0.100141  
870.500000	-0.083634  
871.000000	-0.075391  
871.500000	-0.068320  
872.000000	-0.063424  
872.500000	-0.062602  
873.000000	-0.058322  
873.500000	-0.081398  
874.000000	-0.105560  
874.500000	-0.139849  
875.000000	-0.154565  
875.500000	-0.160580  
876.000000	-0.155087  
876.500000	-0.129139  
877.000000	-0.124129  
877.500000	-0.111389  
878.000000	-0.118853  
878.500000	-0.103131  
879.000000	-0.095289  
879.500000	-0.112840  
880.000000	-0.139122  
880.500000	-0.173857  
881.000000	-0.178270  
881.500000	-0.170979  
882.000000	-0.108712  
882.500000	-0.002710  
883.000000	0.079935   
883.500000	0.103866   
884.000000	0.085087   
884.500000	0.036384   
885.000000	-0.041833  
885.500000	-0.082374  
886.000000	-0.060975  
886.500000	-0.007317  
887.000000	0.051547   
887.500000	0.102398   
888.000000	0.131250   
888.500000	0.129671   
889.000000	0.101107   
889.500000	0.068831   
890.000000	0.042005   
890.500000	0.025107   
891.000000	-0.010884  
891.500000	-0.056705  
892.000000	-0.089532  
892.500000	-0.116966  
893.000000	-0.133873  
893.500000	-0.160042  
894.000000	-0.162647  
894.500000	-0.161306  
895.000000	-0.166361  
895.500000	-0.156504  
896.000000	-0.128285  
896.500000	-0.084909  

