PE FL                   SPECTRUM    ASCII       PEDS        1.60        
  -1
S01_IN~1.SP
24/04/11
16:04:45.00
24/04/11
16:04:45.00
Jan

896.500000
1









LS55
405.00
5.00
5.00
SCAN
1
20
100
100
0
400
0
1
0
1
5
ON
736 405 
1 0 0
#HDR
-1
-1
#GR
NM

0.00002384185791015625
0.0
450.000000
0.500000
894
8
423.443916
-0.205660
#DATA
450.000000	0.303000   
450.500000	0.199651   
451.000000	0.176775   
451.500000	0.157805   
452.000000	0.064445   
452.500000	-0.000846  
453.000000	-0.031849  
453.500000	-0.052899  
454.000000	-0.075686  
454.500000	-0.017758  
455.000000	0.087157   
455.500000	0.154627   
456.000000	0.189057   
456.500000	0.173376   
457.000000	0.143178   
457.500000	0.091979   
458.000000	0.039838   
458.500000	0.018962   
459.000000	0.019708   
459.500000	0.022389   
460.000000	-0.022346  
460.500000	-0.086215  
461.000000	-0.100829  
461.500000	-0.122231  
462.000000	-0.110654  
462.500000	-0.038716  
463.000000	0.061122   
463.500000	0.128532   
464.000000	0.190066   
464.500000	0.253163   
465.000000	0.267467   
465.500000	0.274946   
466.000000	0.293174   
466.500000	0.314807   
467.000000	0.279816   
467.500000	0.179940   
468.000000	0.084842   
468.500000	-0.022115  
469.000000	-0.094493  
469.500000	-0.097523  
470.000000	-0.006968  
470.500000	0.110239   
471.000000	0.194814   
471.500000	0.265497   
472.000000	0.310747   
472.500000	0.334395   
473.000000	0.314456   
473.500000	0.304857   
474.000000	0.276282   
474.500000	0.184074   
475.000000	0.104447   
475.500000	0.034254   
476.000000	-0.002257  
476.500000	0.013233   
477.000000	0.094838   
477.500000	0.177489   
478.000000	0.211486   
478.500000	0.249799   
479.000000	0.273432   
479.500000	0.264918   
480.000000	0.268729   
480.500000	0.301740   
481.000000	0.329144   
481.500000	0.292619   
482.000000	0.270387   
482.500000	0.267076   
483.000000	0.244025   
483.500000	0.231940   
484.000000	0.246803   
484.500000	0.291794   
485.000000	0.307139   
485.500000	0.304070   
486.000000	0.321313   
486.500000	0.347300   
487.000000	0.304602   
487.500000	0.213283   
488.000000	0.117270   
488.500000	-0.001797  
489.000000	-0.098037  
489.500000	-0.147686  
490.000000	-0.068636  
490.500000	0.031222   
491.000000	0.155011   
491.500000	0.303547   
492.000000	0.430098   
492.500000	0.505790   
493.000000	0.487643   
493.500000	0.489747   
494.000000	0.437074   
494.500000	0.382424   
495.000000	0.356612   
495.500000	0.354769   
496.000000	0.359610   
496.500000	0.342369   
497.000000	0.348393   
497.500000	0.342443   
498.000000	0.345651   
498.500000	0.364493   
499.000000	0.442892   
499.500000	0.529827   
500.000000	0.570975   
500.500000	0.561677   
501.000000	0.510430   
501.500000	0.455983   
502.000000	0.414064   
502.500000	0.436794   
503.000000	0.503795   
503.500000	0.591896   
504.000000	0.674341   
504.500000	0.737697   
505.000000	0.761458   
505.500000	0.761335   
506.000000	0.820730   
506.500000	0.957699   
507.000000	1.107597   
507.500000	1.265719   
508.000000	1.398506   
508.500000	1.384697   
509.000000	1.279654   
509.500000	1.198996   
510.000000	1.166964   
510.500000	1.184131   
511.000000	1.287862   
511.500000	1.505766   
512.000000	1.702896   
512.500000	1.849473   
513.000000	1.951126   
513.500000	2.005448   
514.000000	2.039033   
514.500000	2.076165   
515.000000	2.124000   
515.500000	2.180628   
516.000000	2.276181   
516.500000	2.391137   
517.000000	2.466508   
517.500000	2.519558   
518.000000	2.532690   
518.500000	2.463899   
519.000000	2.380651   
519.500000	2.361011   
520.000000	2.404248   
520.500000	2.457899   
521.000000	2.539938   
521.500000	2.629740   
522.000000	2.681623   
522.500000	2.711139   
523.000000	2.739576   
523.500000	2.798122   
524.000000	2.834966   
524.500000	2.925536   
525.000000	3.003916   
525.500000	3.108734   
526.000000	3.249873   
526.500000	3.425751   
527.000000	3.657437   
527.500000	3.890547   
528.000000	4.161332   
528.500000	4.403899   
529.000000	4.654571   
529.500000	4.828144   
530.000000	4.935209   
530.500000	4.962630   
531.000000	4.941968   
531.500000	4.955230   
532.000000	5.022564   
532.500000	5.176656   
533.000000	5.369313   
533.500000	5.642593   
534.000000	5.885588   
534.500000	6.097361   
535.000000	6.291962   
535.500000	6.538235   
536.000000	6.801263   
536.500000	7.172461   
537.000000	7.679445   
537.500000	8.234491   
538.000000	8.682309   
538.500000	9.033085   
539.000000	9.331343   
539.500000	9.484584   
540.000000	9.625578   
540.500000	9.900224   
541.000000	10.313786  
541.500000	10.714435  
542.000000	11.088287  
542.500000	11.343760  
543.000000	11.442066  
543.500000	11.368467  
544.000000	11.240359  
544.500000	11.108556  
545.000000	10.975220  
545.500000	10.864346  
546.000000	10.730788  
546.500000	10.654063  
547.000000	10.616183  
547.500000	10.620040  
548.000000	10.608857  
548.500000	10.641155  
549.000000	10.658365  
549.500000	10.613061  
550.000000	10.478048  
550.500000	10.303304  
551.000000	10.169250  
551.500000	10.018916  
552.000000	10.036024  
552.500000	10.163769  
553.000000	10.453914  
553.500000	10.692185  
554.000000	10.793181  
554.500000	10.879686  
555.000000	10.827836  
555.500000	10.786137  
556.000000	10.785254  
556.500000	10.956662  
557.000000	11.253551  
557.500000	11.506871  
558.000000	11.791124  
558.500000	12.116541  
559.000000	12.377697  
559.500000	12.568695  
560.000000	12.730282  
560.500000	12.988575  
561.000000	13.290092  
561.500000	13.609133  
562.000000	14.121686  
562.500000	14.796638  
563.000000	15.587354  
563.500000	16.311100  
564.000000	17.017068  
564.500000	17.696042  
565.000000	18.176671  
565.500000	18.564072  
566.000000	19.000873  
566.500000	19.590181  
567.000000	20.272423  
567.500000	21.014335  
568.000000	21.932320  
568.500000	22.801608  
569.000000	23.618786  
569.500000	24.357022  
570.000000	25.053591  
570.500000	25.801339  
571.000000	26.579465  
571.500000	27.618816  
572.000000	28.655189  
572.500000	29.782404  
573.000000	30.960808  
573.500000	32.099361  
574.000000	33.079664  
574.500000	33.959009  
575.000000	34.887751  
575.500000	35.661738  
576.000000	36.413267  
576.500000	37.280230  
577.000000	38.217441  
577.500000	39.050499  
578.000000	39.893198  
578.500000	40.814139  
579.000000	41.749714  
579.500000	42.407424  
580.000000	43.125402  
580.500000	43.849762  
581.000000	44.630562  
581.500000	45.612233  
582.000000	46.847927  
582.500000	48.150421  
583.000000	49.159829  
583.500000	50.195565  
584.000000	51.179495  
584.500000	52.198096  
585.000000	53.299153  
585.500000	54.645543  
586.000000	56.104664  
586.500000	57.450250  
587.000000	58.731628  
587.500000	60.034901  
588.000000	61.385315  
588.500000	62.717829  
589.000000	64.035120  
589.500000	65.214176  
590.000000	66.401298  
590.500000	67.381410  
591.000000	68.606339  
591.500000	70.130834  
592.000000	71.979430  
592.500000	73.997962  
593.000000	75.937022  
593.500000	77.884235  
594.000000	79.495269  
594.500000	80.931621  
595.000000	82.225302  
595.500000	83.478714  
596.000000	85.003194  
596.500000	86.688287  
597.000000	88.744799  
597.500000	91.103560  
598.000000	93.705369  
598.500000	96.287840  
599.000000	98.673660  
599.500000	101.013972 
600.000000	103.175888 
600.500000	105.112083 
601.000000	107.153326 
601.500000	109.254402 
602.000000	111.583118 
602.500000	114.295178 
603.000000	117.218705 
603.500000	120.322100 
604.000000	123.303883 
604.500000	126.273640 
605.000000	129.015359 
605.500000	131.522658 
606.000000	134.211599 
606.500000	136.908040 
607.000000	139.741257 
607.500000	142.545721 
608.000000	145.448523 
608.500000	148.454172 
609.000000	151.520482 
609.500000	154.834504 
610.000000	158.428604 
610.500000	162.299489 
611.000000	165.819074 
611.500000	169.013753 
612.000000	172.344142 
612.500000	175.566081 
613.000000	178.869884 
613.500000	182.681417 
614.000000	187.291866 
614.500000	191.939445 
615.000000	196.161868 
615.500000	200.463328 
616.000000	204.651239 
616.500000	208.277447 
617.000000	211.782144 
617.500000	215.305692 
618.000000	218.749237 
618.500000	221.894975 
619.000000	225.579406 
619.500000	229.736756 
620.000000	234.133443 
620.500000	239.276326 
621.000000	244.784948 
621.500000	250.409029 
622.000000	255.626116 
622.500000	260.460011 
623.000000	264.881571 
623.500000	268.626424 
624.000000	272.496558 
624.500000	276.456705 
625.000000	280.910697 
625.500000	285.850877 
626.000000	290.865589 
626.500000	295.787875 
627.000000	300.587320 
627.500000	305.217712 
628.000000	309.646935 
628.500000	314.101803 
629.000000	319.439439 
629.500000	324.517732 
630.000000	329.278723 
630.500000	333.900901 
631.000000	338.274166 
631.500000	342.427981 
632.000000	346.092808 
632.500000	350.320270 
633.000000	355.090376 
633.500000	359.998326 
634.000000	365.132840 
634.500000	369.793907 
635.000000	374.337896 
635.500000	378.096918 
636.000000	381.074031 
636.500000	383.730773 
637.000000	386.381660 
637.500000	388.933935 
638.000000	391.267638 
638.500000	393.774287 
639.000000	397.124656 
639.500000	400.446246 
640.000000	403.891038 
640.500000	407.283519 
641.000000	410.398643 
641.500000	412.706448 
642.000000	413.862920 
642.500000	415.170113 
643.000000	416.038276 
643.500000	416.631335 
644.000000	417.388883 
644.500000	418.497782 
645.000000	420.129935 
645.500000	421.204808 
646.000000	422.545764 
646.500000	423.368894 
647.000000	423.443916 
647.500000	422.854634 
648.000000	422.081938 
648.500000	421.653857 
649.000000	421.399074 
649.500000	421.986044 
650.000000	422.694786 
650.500000	422.890124 
651.000000	422.227365 
651.500000	420.902350 
652.000000	418.667337 
652.500000	415.722923 
653.000000	412.772756 
653.500000	409.964918 
654.000000	407.178118 
654.500000	404.576504 
655.000000	402.231844 
655.500000	399.601953 
656.000000	396.730100 
656.500000	393.895356 
657.000000	391.566627 
657.500000	389.038129 
658.000000	386.507187 
658.500000	383.432226 
659.000000	379.699037 
659.500000	375.628324 
660.000000	371.229669 
660.500000	367.078476 
661.000000	363.058651 
661.500000	359.341332 
662.000000	355.261265 
662.500000	350.868257 
663.000000	345.917497 
663.500000	340.328248 
664.000000	334.449853 
664.500000	329.083393 
665.000000	323.938528 
665.500000	318.992241 
666.000000	314.501421 
666.500000	309.949397 
667.000000	304.962981 
667.500000	299.486369 
668.000000	293.931972 
668.500000	288.297376 
669.000000	282.820055 
669.500000	277.806656 
670.000000	272.897226 
670.500000	267.442465 
671.000000	261.559705 
671.500000	255.159576 
672.000000	248.418862 
672.500000	242.077096 
673.000000	236.355365 
673.500000	231.060083 
674.000000	225.986762 
674.500000	221.255987 
675.000000	216.620024 
675.500000	211.586478 
676.000000	206.293406 
676.500000	201.210556 
677.000000	196.210797 
677.500000	191.013204 
678.000000	185.532244 
678.500000	180.231003 
679.000000	174.982961 
679.500000	169.374157 
680.000000	164.094608 
680.500000	159.565782 
681.000000	155.649591 
681.500000	151.745543 
682.000000	148.055146 
682.500000	144.788979 
683.000000	141.157799 
683.500000	137.040677 
684.000000	132.892614 
684.500000	128.935209 
685.000000	124.809899 
685.500000	120.560298 
686.000000	116.597222 
686.500000	112.896159 
687.000000	109.292855 
687.500000	106.038445 
688.000000	103.102654 
688.500000	100.201807 
689.000000	97.556046  
689.500000	95.038936  
690.000000	92.791432  
690.500000	90.419022  
691.000000	88.366233  
691.500000	86.377669  
692.000000	84.152679  
692.500000	81.882105  
693.000000	79.575727  
693.500000	77.515853  
694.000000	75.267016  
694.500000	73.090827  
695.000000	70.931781  
695.500000	68.644525  
696.000000	66.376634  
696.500000	63.997799  
697.000000	61.844072  
697.500000	59.700615  
698.000000	57.780341  
698.500000	56.118920  
699.000000	54.628682  
699.500000	53.337543  
700.000000	52.009974  
700.500000	50.612807  
701.000000	49.074307  
701.500000	47.580690  
702.000000	46.227842  
702.500000	44.771122  
703.000000	43.544868  
703.500000	42.488727  
704.000000	41.540827  
704.500000	40.511397  
705.000000	39.502345  
705.500000	38.628884  
706.000000	37.723768  
706.500000	36.988146  
707.000000	36.295615  
707.500000	35.669526  
708.000000	34.980775  
708.500000	34.207326  
709.000000	33.426174  
709.500000	32.398372  
710.000000	31.448855  
710.500000	30.505387  
711.000000	29.741903  
711.500000	29.182549  
712.000000	28.709710  
712.500000	28.285679  
713.000000	27.749361  
713.500000	27.201265  
714.000000	26.492059  
714.500000	25.756241  
715.000000	25.160346  
715.500000	24.601727  
716.000000	24.135172  
716.500000	23.687732  
717.000000	23.219784  
717.500000	22.542551  
718.000000	21.730471  
718.500000	21.010697  
719.000000	20.389543  
719.500000	19.894129  
720.000000	19.531625  
720.500000	19.373458  
721.000000	19.097825  
721.500000	18.585801  
722.000000	18.045628  
722.500000	17.516749  
723.000000	17.014014  
723.500000	16.559452  
724.000000	16.358411  
724.500000	16.234120  
725.000000	16.136556  
725.500000	16.054591  
726.000000	16.020922  
726.500000	15.827428  
727.000000	15.496417  
727.500000	15.056153  
728.000000	14.508239  
728.500000	13.954335  
729.000000	13.429953  
729.500000	13.095406  
730.000000	12.838009  
730.500000	12.750994  
731.000000	12.692551  
731.500000	12.560753  
732.000000	12.422454  
732.500000	12.234719  
733.000000	12.010897  
733.500000	11.705949  
734.000000	11.439671  
734.500000	11.176244  
735.000000	10.860302  
735.500000	10.568487  
736.000000	10.339192  
736.500000	10.174888  
737.000000	10.071244  
737.500000	10.065061  
738.000000	10.118456  
738.500000	10.141972  
739.000000	10.133762  
739.500000	10.045413  
740.000000	9.910905   
740.500000	9.702007   
741.000000	9.576165   
741.500000	9.455944   
742.000000	9.298638   
742.500000	9.185289   
743.000000	9.045877   
743.500000	8.894703   
744.000000	8.650983   
744.500000	8.485491   
745.000000	8.292827   
745.500000	7.979077   
746.000000	7.695591   
746.500000	7.423211   
747.000000	7.265881   
747.500000	7.149115   
748.000000	7.214482   
748.500000	7.362595   
749.000000	7.423896   
749.500000	7.410493   
750.000000	7.299061   
750.500000	7.159077   
751.000000	6.994903   
751.500000	6.907072   
752.000000	6.836482   
752.500000	6.734129   
753.000000	6.601612   
753.500000	6.474061   
754.000000	6.365651   
754.500000	6.366664   
755.000000	6.440860   
755.500000	6.568365   
756.000000	6.625782   
756.500000	6.534445   
757.000000	6.332808   
757.500000	5.996582   
758.000000	5.656779   
758.500000	5.368849   
759.000000	5.186103   
759.500000	5.140894   
760.000000	5.189571   
760.500000	5.334597   
761.000000	5.455217   
761.500000	5.483115   
762.000000	5.448864   
762.500000	5.350038   
763.000000	5.231994   
763.500000	5.125497   
764.000000	5.105118   
764.500000	5.191024   
765.000000	5.255786   
765.500000	5.350604   
766.000000	5.422226   
766.500000	5.448929   
767.000000	5.416892   
767.500000	5.339048   
768.000000	5.248024   
768.500000	5.095452   
769.000000	4.859367   
769.500000	4.656628   
770.000000	4.484009   
770.500000	4.352627   
771.000000	4.253964   
771.500000	4.257628   
772.000000	4.322903   
772.500000	4.354478   
773.000000	4.364179   
773.500000	4.319009   
774.000000	4.228152   
774.500000	4.082697   
775.000000	3.939949   
775.500000	3.868192   
776.000000	3.829319   
776.500000	3.830686   
777.000000	3.847217   
777.500000	3.862315   
778.000000	3.852456   
778.500000	3.776922   
779.000000	3.693395   
779.500000	3.657831   
780.000000	3.650653   
780.500000	3.615730   
781.000000	3.618647   
781.500000	3.651781   
782.000000	3.669805   
782.500000	3.658627   
783.000000	3.639994   
783.500000	3.597808   
784.000000	3.483411   
784.500000	3.401608   
785.000000	3.330059   
785.500000	3.287361   
786.000000	3.278669   
786.500000	3.317903   
787.000000	3.357293   
787.500000	3.340011   
788.000000	3.309348   
788.500000	3.227521   
789.000000	3.110256   
789.500000	3.015935   
790.000000	2.975361   
790.500000	2.980467   
791.000000	3.053376   
791.500000	3.148873   
792.000000	3.240168   
792.500000	3.271461   
793.000000	3.239378   
793.500000	3.145640   
794.000000	2.982564   
794.500000	2.855541   
795.000000	2.739612   
795.500000	2.665499   
796.000000	2.658716   
796.500000	2.654883   
797.000000	2.651825   
797.500000	2.623491   
798.000000	2.630692   
798.500000	2.646538   
799.000000	2.694871   
799.500000	2.804001   
800.000000	2.848675   
800.500000	2.876001   
801.000000	2.823734   
801.500000	2.735486   
802.000000	2.634712   
802.500000	2.594185   
803.000000	2.617126   
803.500000	2.608432   
804.000000	2.604161   
804.500000	2.580818   
805.000000	2.503818   
805.500000	2.368551   
806.000000	2.270847   
806.500000	2.243755   
807.000000	2.261256   
807.500000	2.314578   
808.000000	2.411434   
808.500000	2.470944   
809.000000	2.448107   
809.500000	2.380406   
810.000000	2.304458   
810.500000	2.284610   
811.000000	2.258820   
811.500000	2.282959   
812.000000	2.305614   
812.500000	2.348450   
813.000000	2.314239   
813.500000	2.231332   
814.000000	2.157142   
814.500000	2.069048   
815.000000	2.006612   
815.500000	1.914647   
816.000000	1.882886   
816.500000	1.827231   
817.000000	1.835471   
817.500000	1.896218   
818.000000	1.990135   
818.500000	2.100773   
819.000000	2.166851   
819.500000	2.284113   
820.000000	2.333474   
820.500000	2.418547   
821.000000	2.515712   
821.500000	2.654051   
822.000000	2.774974   
822.500000	2.855009   
823.000000	2.906623   
823.500000	2.839430   
824.000000	2.717469   
824.500000	2.575417   
825.000000	2.502523   
825.500000	2.443519   
826.000000	2.451428   
826.500000	2.510894   
827.000000	2.575846   
827.500000	2.588452   
828.000000	2.563382   
828.500000	2.501543   
829.000000	2.358968   
829.500000	2.204738   
830.000000	2.044098   
830.500000	1.892807   
831.000000	1.684690   
831.500000	1.483868   
832.000000	1.279439   
832.500000	1.097233   
833.000000	0.985007   
833.500000	0.948599   
834.000000	1.023786   
834.500000	1.135178   
835.000000	1.211103   
835.500000	1.202571   
836.000000	1.117428   
836.500000	0.990664   
837.000000	0.861532   
837.500000	0.775100   
838.000000	0.799304   
838.500000	0.818254   
839.000000	0.824111   
839.500000	0.813983   
840.000000	0.810747   
840.500000	0.820643   
841.000000	0.783723   
841.500000	0.802090   
842.000000	0.786656   
842.500000	0.746343   
843.000000	0.674243   
843.500000	0.599966   
844.000000	0.555628   
844.500000	0.505419   
845.000000	0.501840   
845.500000	0.515526   
846.000000	0.552849   
846.500000	0.548122   
847.000000	0.509944   
847.500000	0.443207   
848.000000	0.339719   
848.500000	0.241187   
849.000000	0.152666   
849.500000	0.152888   
850.000000	0.204243   
850.500000	0.296662   
851.000000	0.394174   
851.500000	0.442454   
852.000000	0.460224   
852.500000	0.415833   
853.000000	0.385580   
853.500000	0.371554   
854.000000	0.364176   
854.500000	0.372319   
855.000000	0.336992   
855.500000	0.306029   
856.000000	0.252291   
856.500000	0.174126   
857.000000	0.113287   
857.500000	0.087339   
858.000000	0.095332   
858.500000	0.112829   
859.000000	0.142263   
859.500000	0.181246   
860.000000	0.185987   
860.500000	0.140020   
861.000000	0.086302   
861.500000	0.027335   
862.000000	-0.016951  
862.500000	-0.046860  
863.000000	0.003100   
863.500000	0.102875   
864.000000	0.170215   
864.500000	0.231365   
865.000000	0.240443   
865.500000	0.214975   
866.000000	0.136827   
866.500000	0.061897   
867.000000	0.046198   
867.500000	0.048437   
868.000000	0.086745   
868.500000	0.163807   
869.000000	0.253269   
869.500000	0.316053   
870.000000	0.321204   
870.500000	0.295107   
871.000000	0.228118   
871.500000	0.129970   
872.000000	0.033115   
872.500000	-0.041936  
873.000000	-0.060890  
873.500000	-0.052204  
874.000000	-0.039623  
874.500000	-0.017879  
875.000000	0.015001   
875.500000	0.023740   
876.000000	0.014378   
876.500000	-0.010660  
877.000000	-0.018033  
877.500000	-0.026623  
878.000000	-0.049270  
878.500000	-0.000085  
879.000000	0.055040   
879.500000	0.106259   
880.000000	0.121378   
880.500000	0.129944   
881.000000	0.115521   
881.500000	0.049760   
882.000000	0.029068   
882.500000	0.004358   
883.000000	-0.005940  
883.500000	-0.033751  
884.000000	-0.091163  
884.500000	-0.130415  
885.000000	-0.189766  
885.500000	-0.205660  
886.000000	-0.187977  
886.500000	-0.140890  
887.000000	-0.081283  
887.500000	-0.066157  
888.000000	-0.034118  
888.500000	-0.023838  
889.000000	-0.028521  
889.500000	-0.046085  
890.000000	-0.059868  
890.500000	-0.030070  
891.000000	-0.029892  
891.500000	0.009359   
892.000000	0.040059   
892.500000	0.039489   
893.000000	0.025157   
893.500000	-0.015805  
894.000000	-0.039319  
894.500000	-0.075354  
895.000000	-0.058335  
895.500000	-0.014834  
896.000000	0.040443   
896.500000	0.083474   

