PE FL                   SPECTRUM    ASCII       PEDS        1.60        
  -1
S01383~1.SP
24/04/11
17:28:53.00
24/04/11
17:28:53.00
Jan

896.500000
1









LS55
405.00
5.00
5.00
SCAN
1
20
100
100
0
400
0
1
0
1
5
ON
736 405 
1 0 0
#HDR
-1
-1
#GR
NM

0.00002384185791015625
0.0
450.000000
0.500000
894
8
297.911176
-0.798999
#DATA
450.000000	-0.798999  
450.500000	-0.648076  
451.000000	-0.483564  
451.500000	-0.314402  
452.000000	-0.191847  
452.500000	-0.062756  
453.000000	0.039662   
453.500000	0.105200   
454.000000	0.103972   
454.500000	0.083499   
455.000000	0.078571   
455.500000	0.088070   
456.000000	0.143632   
456.500000	0.220428   
457.000000	0.318586   
457.500000	0.371994   
458.000000	0.390584   
458.500000	0.394875   
459.000000	0.385595   
459.500000	0.348204   
460.000000	0.298432   
460.500000	0.247671   
461.000000	0.203788   
461.500000	0.149879   
462.000000	0.148044   
462.500000	0.189146   
463.000000	0.216623   
463.500000	0.236001   
464.000000	0.222241   
464.500000	0.170988   
465.000000	0.072053   
465.500000	0.022729   
466.000000	0.032608   
466.500000	0.067589   
467.000000	0.099410   
467.500000	0.124961   
468.000000	0.157029   
468.500000	0.143840   
469.000000	0.146610   
469.500000	0.146536   
470.000000	0.179037   
470.500000	0.169391   
471.000000	0.142139   
471.500000	0.131677   
472.000000	0.109148   
472.500000	0.111914   
473.000000	0.102224   
473.500000	0.147808   
474.000000	0.181354   
474.500000	0.167009   
475.000000	0.126836   
475.500000	0.055975   
476.000000	-0.003675  
476.500000	-0.072790  
477.000000	-0.088526  
477.500000	-0.098723  
478.000000	-0.086688  
478.500000	-0.074779  
479.000000	-0.056920  
479.500000	-0.025269  
480.000000	-0.006834  
480.500000	0.053808   
481.000000	0.062339   
481.500000	0.060842   
482.000000	0.061137   
482.500000	0.064285   
483.000000	0.084133   
483.500000	0.121799   
484.000000	0.223601   
484.500000	0.283085   
485.000000	0.265233   
485.500000	0.213853   
486.000000	0.142204   
486.500000	0.085957   
487.000000	0.052716   
487.500000	0.076141   
488.000000	0.121938   
488.500000	0.142849   
489.000000	0.170109   
489.500000	0.168675   
490.000000	0.173398   
490.500000	0.208901   
491.000000	0.225918   
491.500000	0.224500   
492.000000	0.223499   
492.500000	0.230591   
493.000000	0.219812   
493.500000	0.189768   
494.000000	0.181263   
494.500000	0.173519   
495.000000	0.100051   
495.500000	0.041517   
496.000000	0.058983   
496.500000	0.104961   
497.000000	0.164089   
497.500000	0.259170   
498.000000	0.379877   
498.500000	0.434641   
499.000000	0.456977   
499.500000	0.486988   
500.000000	0.486842   
500.500000	0.462814   
501.000000	0.443749   
501.500000	0.478426   
502.000000	0.516883   
502.500000	0.562005   
503.000000	0.682311   
503.500000	0.829109   
504.000000	0.949473   
504.500000	1.009335   
505.000000	1.023756   
505.500000	0.978634   
506.000000	0.901851   
506.500000	0.851829   
507.000000	0.855684   
507.500000	0.917857   
508.000000	0.947048   
508.500000	1.006473   
509.000000	1.065897   
509.500000	1.131779   
510.000000	1.224729   
510.500000	1.335378   
511.000000	1.533170   
511.500000	1.682024   
512.000000	1.807662   
512.500000	1.901992   
513.000000	1.945400   
513.500000	1.961586   
514.000000	1.944320   
514.500000	1.987380   
515.000000	1.998818   
515.500000	1.998237   
516.000000	2.016805   
516.500000	2.054239   
517.000000	2.141150   
517.500000	2.232820   
518.000000	2.371450   
518.500000	2.523833   
519.000000	2.631903   
519.500000	2.671012   
520.000000	2.647949   
520.500000	2.634556   
521.000000	2.608814   
521.500000	2.626254   
522.000000	2.704890   
522.500000	2.828231   
523.000000	2.983126   
523.500000	3.121753   
524.000000	3.303354   
524.500000	3.471187   
525.000000	3.635541   
525.500000	3.804231   
526.000000	3.924445   
526.500000	4.072578   
527.000000	4.192441   
527.500000	4.362593   
528.000000	4.589324   
528.500000	4.814853   
529.000000	5.096508   
529.500000	5.317547   
530.000000	5.551699   
530.500000	5.719358   
531.000000	5.870046   
531.500000	6.099682   
532.000000	6.289467   
532.500000	6.509063   
533.000000	6.752048   
533.500000	7.024076   
534.000000	7.246851   
534.500000	7.454348   
535.000000	7.702269   
535.500000	7.947623   
536.000000	8.248448   
536.500000	8.626250   
537.000000	9.035085   
537.500000	9.450506   
538.000000	9.877888   
538.500000	10.306055  
539.000000	10.742166  
539.500000	11.200141  
540.000000	11.648543  
540.500000	12.045168  
541.000000	12.400662  
541.500000	12.671664  
542.000000	12.814001  
542.500000	12.795979  
543.000000	12.718434  
543.500000	12.504484  
544.000000	12.207820  
544.500000	11.940133  
545.000000	11.676276  
545.500000	11.448423  
546.000000	11.271554  
546.500000	11.183168  
547.000000	11.097747  
547.500000	10.966797  
548.000000	10.830935  
548.500000	10.654964  
549.000000	10.497109  
549.500000	10.337916  
550.000000	10.199545  
550.500000	10.125413  
551.000000	10.151621  
551.500000	10.266482  
552.000000	10.370556  
552.500000	10.546330  
553.000000	10.696829  
553.500000	10.789124  
554.000000	10.843461  
554.500000	10.918096  
555.000000	11.015408  
555.500000	11.022118  
556.000000	11.032090  
556.500000	11.145050  
557.000000	11.330617  
557.500000	11.569784  
558.000000	11.908415  
558.500000	12.364269  
559.000000	12.814597  
559.500000	13.151079  
560.000000	13.543606  
560.500000	13.890074  
561.000000	14.297276  
561.500000	14.772087  
562.000000	15.340341  
562.500000	16.032009  
563.000000	16.651985  
563.500000	17.273102  
564.000000	17.814638  
564.500000	18.356525  
565.000000	18.864708  
565.500000	19.251328  
566.000000	19.641703  
566.500000	20.007803  
567.000000	20.394072  
567.500000	20.891727  
568.000000	21.451435  
568.500000	22.173799  
569.000000	22.795352  
569.500000	23.440686  
570.000000	23.984265  
570.500000	24.373810  
571.000000	24.820664  
571.500000	25.323211  
572.000000	25.969306  
572.500000	26.573564  
573.000000	27.315166  
573.500000	28.059450  
574.000000	28.730146  
574.500000	29.423077  
575.000000	30.286912  
575.500000	31.192656  
576.000000	31.884742  
576.500000	32.481905  
577.000000	33.060998  
577.500000	33.604682  
578.000000	34.071165  
578.500000	34.711638  
579.000000	35.524730  
579.500000	36.349955  
580.000000	37.177625  
580.500000	38.041163  
581.000000	39.005146  
581.500000	40.019087  
582.000000	40.994834  
582.500000	42.024315  
583.000000	43.139827  
583.500000	44.420120  
584.000000	45.754456  
584.500000	47.125191  
585.000000	48.582363  
585.500000	49.840187  
586.000000	50.822614  
586.500000	51.587998  
587.000000	52.537265  
587.500000	53.638571  
588.000000	55.011224  
588.500000	56.498714  
589.000000	58.178951  
589.500000	59.890545  
590.000000	61.580654  
590.500000	63.371870  
591.000000	64.992673  
591.500000	66.581089  
592.000000	67.922202  
592.500000	69.072510  
593.000000	70.010680  
593.500000	70.917376  
594.000000	72.245424  
594.500000	73.639048  
595.000000	75.206799  
595.500000	77.001871  
596.000000	78.974005  
596.500000	81.071202  
597.000000	82.868907  
597.500000	85.076623  
598.000000	87.421693  
598.500000	89.441831  
599.000000	91.503437  
599.500000	93.621753  
600.000000	96.023641  
600.500000	98.090282  
601.000000	100.121207 
601.500000	102.446564 
602.000000	104.592087 
602.500000	106.818784 
603.000000	108.829474 
603.500000	111.055111 
604.000000	113.284983 
604.500000	115.439697 
605.000000	117.954380 
605.500000	120.331747 
606.000000	123.054829 
606.500000	125.678927 
607.000000	128.250074 
607.500000	130.889315 
608.000000	133.569907 
608.500000	136.397267 
609.000000	139.009684 
609.500000	142.124172 
610.000000	145.541955 
610.500000	148.971055 
611.000000	152.084766 
611.500000	155.258992 
612.000000	158.496172 
612.500000	161.308766 
613.000000	163.933834 
613.500000	166.746257 
614.000000	169.794012 
614.500000	172.632532 
615.000000	175.661669 
615.500000	179.005614 
616.000000	182.595022 
616.500000	185.834801 
617.000000	189.107962 
617.500000	192.655888 
618.000000	195.856282 
618.500000	198.648578 
619.000000	201.204003 
619.500000	204.087868 
620.000000	206.939421 
620.500000	209.760415 
621.000000	213.149205 
621.500000	216.786226 
622.000000	220.495389 
622.500000	223.916564 
623.000000	227.478174 
623.500000	230.799239 
624.000000	233.666987 
624.500000	236.136773 
625.000000	238.781875 
625.500000	241.655354 
626.000000	244.439530 
626.500000	247.607033 
627.000000	251.146194 
627.500000	254.726339 
628.000000	257.622491 
628.500000	260.306768 
629.000000	262.980554 
629.500000	265.286857 
630.000000	267.879194 
630.500000	270.822198 
631.000000	274.160745 
631.500000	276.965166 
632.000000	279.253610 
632.500000	281.100990 
633.000000	282.673662 
633.500000	284.133992 
634.000000	285.590851 
634.500000	287.189610 
635.000000	288.955526 
635.500000	290.536103 
636.000000	291.790300 
636.500000	292.954833 
637.000000	294.197410 
637.500000	295.162988 
638.000000	295.773400 
638.500000	296.463309 
639.000000	297.130957 
639.500000	297.394526 
640.000000	297.503191 
640.500000	297.822604 
641.000000	297.911176 
641.500000	297.232287 
642.000000	296.332170 
642.500000	295.212634 
643.000000	294.029231 
643.500000	292.608448 
644.000000	291.445538 
644.500000	290.718402 
645.000000	289.844230 
645.500000	289.172638 
646.000000	288.462536 
646.500000	287.872985 
647.000000	286.780267 
647.500000	285.291226 
648.000000	283.918782 
648.500000	282.358235 
649.000000	280.588089 
649.500000	278.470959 
650.000000	276.356402 
650.500000	273.838714 
651.000000	270.841307 
651.500000	267.935651 
652.000000	265.231656 
652.500000	262.505300 
653.000000	259.788552 
653.500000	257.096719 
654.000000	254.312985 
654.500000	250.860543 
655.000000	247.244606 
655.500000	243.729606 
656.000000	240.312302 
656.500000	236.922948 
657.000000	233.441575 
657.500000	230.159910 
658.000000	226.815918 
658.500000	223.591823 
659.000000	220.272641 
659.500000	216.950890 
660.000000	213.244500 
660.500000	208.920938 
661.000000	204.262480 
661.500000	199.255888 
662.000000	194.307218 
662.500000	189.644267 
663.000000	185.588487 
663.500000	182.269948 
664.000000	179.188205 
664.500000	176.066931 
665.000000	172.412009 
665.500000	168.099910 
666.000000	163.517697 
666.500000	158.693643 
667.000000	154.145343 
667.500000	149.960808 
668.000000	146.542131 
668.500000	143.472385 
669.000000	140.199868 
669.500000	136.745460 
670.000000	132.810159 
670.500000	128.731820 
671.000000	124.611888 
671.500000	120.894977 
672.000000	117.739048 
672.500000	114.717309 
673.000000	111.785165 
673.500000	108.704636 
674.000000	105.514656 
674.500000	102.310413 
675.000000	99.060333  
675.500000	96.142560  
676.000000	93.360454  
676.500000	90.772471  
677.000000	88.216443  
677.500000	85.667029  
678.000000	83.285428  
678.500000	81.005679  
679.000000	78.879987  
679.500000	76.770471  
680.000000	74.686237  
680.500000	72.686692  
681.000000	70.601912  
681.500000	68.640795  
682.000000	66.837593  
682.500000	65.001797  
683.000000	63.195779  
683.500000	61.327897  
684.000000	59.510220  
684.500000	57.690081  
685.000000	55.915547  
685.500000	54.237109  
686.000000	52.418345  
686.500000	50.798615  
687.000000	49.125781  
687.500000	47.461669  
688.000000	45.825827  
688.500000	44.401927  
689.000000	43.138332  
689.500000	41.950448  
690.000000	41.075215  
690.500000	40.193556  
691.000000	39.369632  
691.500000	38.442897  
692.000000	37.499504  
692.500000	36.308575  
693.000000	34.987972  
693.500000	33.826304  
694.000000	32.660053  
694.500000	31.610868  
695.000000	30.761194  
695.500000	30.163803  
696.000000	29.475391  
696.500000	28.927886  
697.000000	28.470948  
697.500000	27.884768  
698.000000	27.128241  
698.500000	26.398510  
699.000000	25.775905  
699.500000	24.991493  
700.000000	24.288153  
700.500000	23.593792  
701.000000	22.892697  
701.500000	22.070929  
702.000000	21.354858  
702.500000	20.784231  
703.000000	20.248710  
703.500000	19.887708  
704.000000	19.508870  
704.500000	19.117445  
705.000000	18.697337  
705.500000	18.281966  
706.000000	17.898322  
706.500000	17.610155  
707.000000	17.470604  
707.500000	17.328497  
708.000000	17.141361  
708.500000	16.935198  
709.000000	16.595259  
709.500000	16.115593  
710.000000	15.569495  
710.500000	15.060471  
711.000000	14.588044  
711.500000	14.268168  
712.000000	14.137862  
712.500000	14.026218  
713.000000	13.928519  
713.500000	13.826460  
714.000000	13.607105  
714.500000	13.214218  
715.000000	12.829619  
715.500000	12.475430  
716.000000	12.077163  
716.500000	11.679705  
717.000000	11.496604  
717.500000	11.506549  
718.000000	11.508461  
718.500000	11.553664  
719.000000	11.549309  
719.500000	11.401283  
720.000000	11.021927  
720.500000	10.627686  
721.000000	10.292940  
721.500000	9.991261   
722.000000	9.818903   
722.500000	9.729664   
723.000000	9.738406   
723.500000	9.700870   
724.000000	9.654909   
724.500000	9.574241   
725.000000	9.374688   
725.500000	9.092962   
726.000000	8.737064   
726.500000	8.455784   
727.000000	8.257551   
727.500000	8.214632   
728.000000	8.284884   
728.500000	8.344287   
729.000000	8.331380   
729.500000	8.180124   
730.000000	7.983048   
730.500000	7.715267   
731.000000	7.440576   
731.500000	7.238925   
732.000000	7.120920   
732.500000	7.156285   
733.000000	7.175174   
733.500000	7.239686   
734.000000	7.300677   
734.500000	7.303426   
735.000000	7.273231   
735.500000	7.125424   
736.000000	7.005805   
736.500000	6.811940   
737.000000	6.570593   
737.500000	6.355400   
738.000000	6.117992   
738.500000	5.947899   
739.000000	5.764209   
739.500000	5.735977   
740.000000	5.780289   
740.500000	5.834552   
741.000000	5.879473   
741.500000	5.881666   
742.000000	5.880178   
742.500000	5.842675   
743.000000	5.798753   
743.500000	5.792604   
744.000000	5.791372   
744.500000	5.785727   
745.000000	5.734461   
745.500000	5.634686   
746.000000	5.487812   
746.500000	5.344137   
747.000000	5.245569   
747.500000	5.174256   
748.000000	5.113740   
748.500000	5.066721   
749.000000	4.991259   
749.500000	4.912909   
750.000000	4.840053   
750.500000	4.789970   
751.000000	4.731862   
751.500000	4.691736   
752.000000	4.684538   
752.500000	4.652601   
753.000000	4.586847   
753.500000	4.539838   
754.000000	4.489057   
754.500000	4.466046   
755.000000	4.423358   
755.500000	4.435727   
756.000000	4.448033   
756.500000	4.452001   
757.000000	4.429873   
757.500000	4.331486   
758.000000	4.245953   
758.500000	4.134051   
759.000000	4.045933   
759.500000	4.041128   
760.000000	4.105721   
760.500000	4.112326   
761.000000	4.037031   
761.500000	3.989647   
762.000000	3.931647   
762.500000	3.848944   
763.000000	3.870128   
763.500000	4.031820   
764.000000	4.174452   
764.500000	4.265699   
765.000000	4.332319   
765.500000	4.332053   
766.000000	4.203085   
766.500000	4.092293   
767.000000	4.019161   
767.500000	3.936717   
768.000000	3.860636   
768.500000	3.857808   
769.000000	3.880202   
769.500000	3.850773   
770.000000	3.863460   
770.500000	3.901653   
771.000000	3.888274   
771.500000	3.812575   
772.000000	3.722894   
772.500000	3.605625   
773.000000	3.454016   
773.500000	3.326666   
774.000000	3.291673   
774.500000	3.265419   
775.000000	3.275797   
775.500000	3.306417   
776.000000	3.324168   
776.500000	3.312408   
777.000000	3.252352   
777.500000	3.209009   
778.000000	3.142923   
778.500000	3.078912   
779.000000	3.021894   
779.500000	2.949417   
780.000000	2.889254   
780.500000	2.876987   
781.000000	2.896742   
781.500000	2.945144   
782.000000	2.974304   
782.500000	3.014051   
783.000000	3.036556   
783.500000	3.019942   
784.000000	3.019588   
784.500000	2.995695   
785.000000	3.013972   
785.500000	3.032871   
786.000000	3.043905   
786.500000	3.066170   
787.000000	3.011085   
787.500000	2.948410   
788.000000	2.873397   
788.500000	2.807805   
789.000000	2.752205   
789.500000	2.721743   
790.000000	2.756333   
790.500000	2.783009   
791.000000	2.802402   
791.500000	2.827189   
792.000000	2.869769   
792.500000	2.889569   
793.000000	2.908712   
793.500000	2.923721   
794.000000	2.877851   
794.500000	2.800265   
795.000000	2.717417   
795.500000	2.636343   
796.000000	2.558909   
796.500000	2.562749   
797.000000	2.580948   
797.500000	2.571222   
798.000000	2.568782   
798.500000	2.602990   
799.000000	2.610166   
799.500000	2.591317   
800.000000	2.634269   
800.500000	2.656792   
801.000000	2.614847   
801.500000	2.502862   
802.000000	2.375085   
802.500000	2.221515   
803.000000	2.027361   
803.500000	1.912183   
804.000000	1.832410   
804.500000	1.835719   
805.000000	1.854853   
805.500000	1.884968   
806.000000	1.942551   
806.500000	1.951003   
807.000000	1.949604   
807.500000	1.921647   
808.000000	1.915614   
808.500000	1.914204   
809.000000	1.872714   
809.500000	1.885031   
810.000000	1.920029   
810.500000	1.938777   
811.000000	1.979638   
811.500000	2.048094   
812.000000	2.117727   
812.500000	2.124307   
813.000000	2.136092   
813.500000	2.149393   
814.000000	2.083259   
814.500000	1.999823   
815.000000	1.878671   
815.500000	1.785217   
816.000000	1.694250   
816.500000	1.665905   
817.000000	1.713801   
817.500000	1.788068   
818.000000	1.893623   
818.500000	1.968133   
819.000000	2.064942   
819.500000	2.146903   
820.000000	2.247627   
820.500000	2.366345   
821.000000	2.474348   
821.500000	2.584419   
822.000000	2.604254   
822.500000	2.605916   
823.000000	2.567064   
823.500000	2.542022   
824.000000	2.534658   
824.500000	2.499821   
825.000000	2.491274   
825.500000	2.468298   
826.000000	2.437434   
826.500000	2.352849   
827.000000	2.249328   
827.500000	2.155102   
828.000000	2.018194   
828.500000	1.884484   
829.000000	1.780823   
829.500000	1.703851   
830.000000	1.620115   
830.500000	1.522630   
831.000000	1.407460   
831.500000	1.286044   
832.000000	1.160580   
832.500000	1.062578   
833.000000	1.013432   
833.500000	1.003589   
834.000000	1.028515   
834.500000	1.020131   
835.000000	1.014153   
835.500000	0.990916   
836.000000	0.971712   
836.500000	0.929304   
837.000000	0.885033   
837.500000	0.889816   
838.000000	0.881324   
838.500000	0.891549   
839.000000	0.881525   
839.500000	0.872001   
840.000000	0.832384   
840.500000	0.787979   
841.000000	0.765324   
841.500000	0.732697   
842.000000	0.740148   
842.500000	0.747593   
843.000000	0.765968   
843.500000	0.749985   
844.000000	0.731667   
844.500000	0.724350   
845.000000	0.705426   
845.500000	0.718660   
846.000000	0.738100   
846.500000	0.746267   
847.000000	0.690302   
847.500000	0.595632   
848.000000	0.471476   
848.500000	0.345721   
849.000000	0.284912   
849.500000	0.267244   
850.000000	0.291528   
850.500000	0.328565   
851.000000	0.328050   
851.500000	0.282558   
852.000000	0.218371   
852.500000	0.201476   
853.000000	0.233688   
853.500000	0.292307   
854.000000	0.363623   
854.500000	0.400985   
855.000000	0.376064   
855.500000	0.287656   
856.000000	0.203684   
856.500000	0.137951   
857.000000	0.080209   
857.500000	0.052573   
858.000000	0.027489   
858.500000	0.018935   
859.000000	-0.009374  
859.500000	-0.034491  
860.000000	-0.054311  
860.500000	-0.044419  
861.000000	-0.057421  
861.500000	-0.062371  
862.000000	-0.033276  
862.500000	0.002291   
863.000000	0.052001   
863.500000	0.095179   
864.000000	0.155562   
864.500000	0.133764   
865.000000	0.073031   
865.500000	-0.009235  
866.000000	-0.082209  
866.500000	-0.152573  
867.000000	-0.203198  
867.500000	-0.175402  
868.000000	-0.164217  
868.500000	-0.117994  
869.000000	-0.077037  
869.500000	-0.010957  
870.000000	0.017634   
870.500000	0.010487   
871.000000	0.002864   
871.500000	-0.040276  
872.000000	-0.104395  
872.500000	-0.164222  
873.000000	-0.170981  
873.500000	-0.141816  
874.000000	-0.099493  
874.500000	-0.042792  
875.000000	0.014248   
875.500000	0.021727   
876.000000	-0.001883  
876.500000	-0.060781  
877.000000	-0.110721  
877.500000	-0.156751  
878.000000	-0.183343  
878.500000	-0.147319  
879.000000	-0.067037  
879.500000	0.023977   
880.000000	0.069103   
880.500000	0.099016   
881.000000	0.102658   
881.500000	0.063727   
882.000000	0.010018   
882.500000	-0.010695  
883.000000	-0.009847  
883.500000	0.005510   
884.000000	0.044000   
884.500000	0.108781   
885.000000	0.150693   
885.500000	0.151528   
886.000000	0.121541   
886.500000	0.065415   
887.000000	0.010302   
887.500000	-0.037884  
888.000000	-0.047686  
888.500000	-0.045706  
889.000000	-0.020538  
889.500000	-0.024684  
890.000000	-0.054231  
890.500000	-0.086721  
891.000000	-0.142456  
891.500000	-0.149326  
892.000000	-0.122142  
892.500000	-0.056296  
893.000000	0.018606   
893.500000	0.074884   
894.000000	0.120094   
894.500000	0.115901   
895.000000	0.091538   
895.500000	0.049749   
896.000000	0.014701   
896.500000	-0.006376  

