PE FL                   SPECTRUM    ASCII       PEDS        1.60        
  -1
S003C7~1.SP
24/04/11
16:28:59.00
24/04/11
16:28:59.00
Jan

896.500000
1









LS55
405.00
5.00
5.00
SCAN
1
20
100
100
0
400
0
1
0
1
5
ON
736 405 
1 0 0
#HDR
-1
-1
#GR
NM

0.00002384185791015625
0.0
450.000000
0.500000
894
8
349.774408
-0.257304
#DATA
450.000000	0.711000   
450.500000	0.407576   
451.000000	0.214038   
451.500000	0.103875   
452.000000	0.086085   
452.500000	0.111096   
453.000000	0.179857   
453.500000	0.170508   
454.000000	0.140643   
454.500000	0.110990   
455.000000	0.090604   
455.500000	0.077179   
456.000000	0.073803   
456.500000	0.076551   
457.000000	0.033795   
457.500000	-0.002656  
458.000000	-0.046929  
458.500000	-0.049124  
459.000000	-0.050243  
459.500000	-0.053949  
460.000000	-0.070376  
460.500000	-0.089623  
461.000000	-0.115261  
461.500000	-0.145495  
462.000000	-0.132595  
462.500000	-0.058556  
463.000000	0.007497   
463.500000	0.061782   
464.000000	0.139933   
464.500000	0.216807   
465.000000	0.265294   
465.500000	0.264705   
466.000000	0.294153   
466.500000	0.253306   
467.000000	0.182294   
467.500000	0.117372   
468.000000	0.116625   
468.500000	0.193790   
469.000000	0.258877   
469.500000	0.349050   
470.000000	0.368879   
470.500000	0.332365   
471.000000	0.219873   
471.500000	0.101413   
472.000000	0.047133   
472.500000	0.035686   
473.000000	0.051571   
473.500000	0.033597   
474.000000	-0.015460  
474.500000	-0.071892  
475.000000	-0.116090  
475.500000	-0.079788  
476.000000	0.015643   
476.500000	0.140413   
477.000000	0.289660   
477.500000	0.357372   
478.000000	0.375263   
478.500000	0.358716   
479.000000	0.317762   
479.500000	0.266979   
480.000000	0.189365   
480.500000	0.149901   
481.000000	0.086662   
481.500000	0.008953   
482.000000	-0.037998  
482.500000	-0.070653  
483.000000	-0.049820  
483.500000	-0.017588  
484.000000	0.060243   
484.500000	0.142441   
485.000000	0.215435   
485.500000	0.257118   
486.000000	0.214849   
486.500000	0.154384   
487.000000	0.106589   
487.500000	0.079936   
488.000000	0.089768   
488.500000	0.141769   
489.000000	0.203391   
489.500000	0.220775   
490.000000	0.242486   
490.500000	0.310341   
491.000000	0.364703   
491.500000	0.423228   
492.000000	0.465686   
492.500000	0.477226   
493.000000	0.450990   
493.500000	0.386000   
494.000000	0.350489   
494.500000	0.328597   
495.000000	0.318812   
495.500000	0.271732   
496.000000	0.205858   
496.500000	0.165558   
497.000000	0.116719   
497.500000	0.114220   
498.000000	0.203582   
498.500000	0.329129   
499.000000	0.421333   
499.500000	0.479346   
500.000000	0.543298   
500.500000	0.572775   
501.000000	0.560686   
501.500000	0.582614   
502.000000	0.620833   
502.500000	0.634037   
503.000000	0.628146   
503.500000	0.651270   
504.000000	0.665562   
504.500000	0.696153   
505.000000	0.764443   
505.500000	0.846589   
506.000000	0.925823   
506.500000	1.006808   
507.000000	1.057024   
507.500000	1.060502   
508.000000	1.055901   
508.500000	1.063753   
509.000000	1.063382   
509.500000	1.032198   
510.000000	1.090846   
510.500000	1.192695   
511.000000	1.288525   
511.500000	1.369311   
512.000000	1.477419   
512.500000	1.558057   
513.000000	1.588760   
513.500000	1.688480   
514.000000	1.829725   
514.500000	1.958426   
515.000000	2.018970   
515.500000	2.067708   
516.000000	2.086983   
516.500000	2.097176   
517.000000	2.186905   
517.500000	2.359662   
518.000000	2.560717   
518.500000	2.727569   
519.000000	2.804871   
519.500000	2.752586   
520.000000	2.592096   
520.500000	2.428493   
521.000000	2.329866   
521.500000	2.318250   
522.000000	2.412517   
522.500000	2.541615   
523.000000	2.723833   
523.500000	2.860699   
524.000000	2.997871   
524.500000	3.130141   
525.000000	3.194543   
525.500000	3.270109   
526.000000	3.338966   
526.500000	3.421922   
527.000000	3.547877   
527.500000	3.745860   
528.000000	4.022760   
528.500000	4.214187   
529.000000	4.382456   
529.500000	4.519293   
530.000000	4.577131   
530.500000	4.657860   
531.000000	4.830554   
531.500000	5.179823   
532.000000	5.488975   
532.500000	5.788894   
533.000000	6.099931   
533.500000	6.292617   
534.000000	6.459133   
534.500000	6.601343   
535.000000	6.856124   
535.500000	7.153070   
536.000000	7.518634   
536.500000	7.988725   
537.000000	8.409098   
537.500000	8.789636   
538.000000	9.062372   
538.500000	9.328359   
539.000000	9.587576   
539.500000	9.869883   
540.000000	10.281098  
540.500000	10.752332  
541.000000	11.187371  
541.500000	11.431478  
542.000000	11.526890  
542.500000	11.425272  
543.000000	11.206541  
543.500000	10.983346  
544.000000	10.927139  
544.500000	10.977430  
545.000000	10.929992  
545.500000	10.902202  
546.000000	10.844274  
546.500000	10.746836  
547.000000	10.547089  
547.500000	10.450940  
548.000000	10.487437  
548.500000	10.454098  
549.000000	10.335207  
549.500000	10.129599  
550.000000	9.872595   
550.500000	9.550987   
551.000000	9.338651   
551.500000	9.328018   
552.000000	9.491346   
552.500000	9.669118   
553.000000	9.917291   
553.500000	10.178751  
554.000000	10.439435  
554.500000	10.659844  
555.000000	10.820938  
555.500000	11.019751  
556.000000	11.132170  
556.500000	11.200029  
557.000000	11.230458  
557.500000	11.284936  
558.000000	11.384654  
558.500000	11.505367  
559.000000	11.773309  
559.500000	12.071743  
560.000000	12.411025  
560.500000	12.765985  
561.000000	13.201358  
561.500000	13.688194  
562.000000	14.083363  
562.500000	14.525528  
563.000000	14.910565  
563.500000	15.225254  
564.000000	15.486584  
564.500000	15.781851  
565.000000	16.274016  
565.500000	16.839974  
566.000000	17.662679  
566.500000	18.529966  
567.000000	19.434784  
567.500000	20.225684  
568.000000	20.805910  
568.500000	21.424562  
569.000000	22.031664  
569.500000	22.727658  
570.000000	23.418391  
570.500000	24.111254  
571.000000	24.925810  
571.500000	25.583972  
572.000000	26.293974  
572.500000	27.043515  
573.000000	27.815456  
573.500000	28.579840  
574.000000	29.289795  
574.500000	30.093237  
575.000000	30.857222  
575.500000	31.669667  
576.000000	32.558623  
576.500000	33.287437  
577.000000	34.064476  
577.500000	34.704241  
578.000000	35.230591  
578.500000	35.652525  
579.000000	36.098745  
579.500000	36.860042  
580.000000	37.634769  
580.500000	38.560382  
581.000000	39.597250  
581.500000	40.555311  
582.000000	41.462000  
582.500000	42.171142  
583.000000	43.107085  
583.500000	44.132875  
584.000000	45.264515  
584.500000	46.601614  
585.000000	47.902161  
585.500000	49.220371  
586.000000	50.221077  
586.500000	51.203012  
587.000000	52.324313  
587.500000	53.369230  
588.000000	54.654235  
588.500000	55.936174  
589.000000	57.112762  
589.500000	58.195411  
590.000000	59.363777  
590.500000	60.639751  
591.000000	61.832237  
591.500000	63.263966  
592.000000	64.954289  
592.500000	66.572871  
593.000000	67.974909  
593.500000	69.603712  
594.000000	71.322645  
594.500000	72.978326  
595.000000	74.632495  
595.500000	76.519391  
596.000000	78.315365  
596.500000	79.839994  
597.000000	81.415905  
597.500000	83.097658  
598.000000	84.927282  
598.500000	86.690517  
599.000000	88.705306  
599.500000	90.846326  
600.000000	93.056844  
600.500000	95.074612  
601.000000	97.144974  
601.500000	99.397146  
602.000000	101.485131 
602.500000	103.721567 
603.000000	105.679515 
603.500000	107.887539 
604.000000	110.023749 
604.500000	111.978797 
605.000000	114.277369 
605.500000	116.751510 
606.000000	119.527578 
606.500000	122.332636 
607.000000	125.352851 
607.500000	128.502263 
608.000000	131.271174 
608.500000	133.998712 
609.000000	136.419762 
609.500000	139.014649 
610.000000	141.525851 
610.500000	143.891897 
611.000000	146.671118 
611.500000	149.392150 
612.000000	152.667178 
612.500000	155.702460 
613.000000	158.965951 
613.500000	162.257788 
614.000000	165.297591 
614.500000	168.589276 
615.000000	171.731512 
615.500000	175.471873 
616.000000	178.916504 
616.500000	182.708278 
617.000000	186.599113 
617.500000	190.258747 
618.000000	194.217346 
618.500000	197.945948 
619.000000	201.819651 
619.500000	205.401111 
620.000000	208.972899 
620.500000	212.691669 
621.000000	216.103610 
621.500000	219.704551 
622.000000	223.314176 
622.500000	227.247667 
623.000000	230.955027 
623.500000	234.422324 
624.000000	238.341491 
624.500000	242.152732 
625.000000	246.067823 
625.500000	249.882207 
626.000000	254.177721 
626.500000	258.775057 
627.000000	262.961458 
627.500000	267.521174 
628.000000	271.990799 
628.500000	276.111680 
629.000000	279.826792 
629.500000	283.447463 
630.000000	287.351669 
630.500000	291.124482 
631.000000	294.901066 
631.500000	298.499606 
632.000000	301.328235 
632.500000	303.499129 
633.000000	305.375139 
633.500000	307.374525 
634.000000	309.586259 
634.500000	312.383359 
635.000000	315.906011 
635.500000	319.642155 
636.000000	323.348907 
636.500000	327.293660 
637.000000	331.089768 
637.500000	334.063994 
638.000000	336.139738 
638.500000	337.436968 
639.000000	337.708575 
639.500000	337.308461 
640.000000	336.830528 
640.500000	337.578578 
641.000000	338.822870 
641.500000	340.790582 
642.000000	343.426454 
642.500000	345.783107 
643.000000	347.878009 
643.500000	348.890443 
644.000000	349.764437 
644.500000	349.774408 
645.000000	349.537380 
645.500000	349.438439 
646.000000	349.182437 
646.500000	349.292235 
647.000000	349.166923 
647.500000	349.289070 
648.000000	348.767346 
648.500000	347.783033 
649.000000	346.141153 
649.500000	344.040278 
650.000000	341.613270 
650.500000	339.323708 
651.000000	337.641454 
651.500000	336.275517 
652.000000	335.154415 
652.500000	334.200346 
653.000000	332.842966 
653.500000	330.537411 
654.000000	327.467836 
654.500000	324.124727 
655.000000	320.866758 
655.500000	317.759875 
656.000000	315.321432 
656.500000	313.125929 
657.000000	310.618829 
657.500000	307.779621 
658.000000	304.469371 
658.500000	301.095382 
659.000000	297.531241 
659.500000	294.412502 
660.000000	291.322807 
660.500000	288.171300 
661.000000	284.799215 
661.500000	280.696959 
662.000000	276.474319 
662.500000	272.227027 
663.000000	268.374435 
663.500000	264.364313 
664.000000	260.339640 
664.500000	256.259736 
665.000000	251.342324 
665.500000	246.218593 
666.000000	240.974612 
666.500000	235.948443 
667.000000	230.848107 
667.500000	226.024883 
668.000000	221.586625 
668.500000	216.938133 
669.000000	212.253530 
669.500000	207.498081 
670.000000	203.009849 
670.500000	198.740873 
671.000000	194.330543 
671.500000	190.065092 
672.000000	185.964719 
672.500000	181.679721 
673.000000	177.196669 
673.500000	172.718927 
674.000000	168.561361 
674.500000	164.090404 
675.000000	159.488157 
675.500000	155.345543 
676.000000	151.158467 
676.500000	146.798489 
677.000000	142.510955 
677.500000	138.747677 
678.000000	134.916794 
678.500000	130.871320 
679.000000	127.162545 
679.500000	123.531899 
680.000000	120.057847 
680.500000	116.715593 
681.000000	113.874393 
681.500000	111.163827 
682.000000	108.258833 
682.500000	105.241992 
683.000000	102.024599 
683.500000	99.068237  
684.000000	96.152016  
684.500000	93.451575  
685.000000	91.130330  
685.500000	89.007539  
686.000000	86.823536  
686.500000	84.274309  
687.000000	81.941300  
687.500000	79.615313  
688.000000	77.168139  
688.500000	74.609846  
689.000000	72.505044  
689.500000	70.797695  
690.000000	68.920858  
690.500000	67.194988  
691.000000	65.561489  
691.500000	63.710419  
692.000000	61.245204  
692.500000	58.780502  
693.000000	56.598348  
693.500000	54.549102  
694.000000	52.817307  
694.500000	51.481760  
695.000000	50.533005  
695.500000	49.479814  
696.000000	48.321384  
696.500000	47.250029  
697.000000	46.101205  
697.500000	44.874424  
698.000000	43.676502  
698.500000	42.453528  
699.000000	41.262330  
699.500000	39.965818  
700.000000	38.703048  
700.500000	37.428858  
701.000000	36.195044  
701.500000	35.083482  
702.000000	33.976248  
702.500000	32.996562  
703.000000	32.050747  
703.500000	31.207365  
704.000000	30.414181  
704.500000	29.733821  
705.000000	29.186760  
705.500000	28.596985  
706.000000	27.960270  
706.500000	27.372708  
707.000000	26.714116  
707.500000	26.051990  
708.000000	25.417346  
708.500000	24.765552  
709.000000	24.110890  
709.500000	23.425671  
710.000000	22.943011  
710.500000	22.462356  
711.000000	22.166935  
711.500000	21.928914  
712.000000	21.580419  
712.500000	21.097703  
713.000000	20.477762  
713.500000	19.981287  
714.000000	19.436565  
714.500000	19.070480  
715.000000	18.800575  
715.500000	18.600339  
716.000000	18.380246  
716.500000	18.047155  
717.000000	17.803675  
717.500000	17.418775  
718.000000	16.994024  
718.500000	16.496528  
719.000000	16.106714  
719.500000	15.710949  
720.000000	15.206473  
720.500000	14.791257  
721.000000	14.337710  
721.500000	13.878137  
722.000000	13.406361  
722.500000	13.135339  
723.000000	13.066920  
723.500000	13.073868  
724.000000	13.181374  
724.500000	13.230586  
725.000000	13.144209  
725.500000	12.817664  
726.000000	12.393159  
726.500000	11.952369  
727.000000	11.544441  
727.500000	11.216680  
728.000000	10.941328  
728.500000	10.850693  
729.000000	10.817946  
729.500000	10.736152  
730.000000	10.641556  
730.500000	10.416842  
731.000000	10.141345  
731.500000	9.833643   
732.000000	9.638057   
732.500000	9.560530   
733.000000	9.542415   
733.500000	9.578914   
734.000000	9.464406   
734.500000	9.322042   
735.000000	9.184873   
735.500000	9.091552   
736.000000	8.992888   
736.500000	8.918755   
737.000000	8.899053   
737.500000	8.734923   
738.000000	8.484395   
738.500000	8.178983   
739.000000	7.949653   
739.500000	7.726137   
740.000000	7.567977   
740.500000	7.542597   
741.000000	7.568118   
741.500000	7.584938   
742.000000	7.482992   
742.500000	7.332220   
743.000000	7.087608   
743.500000	6.778141   
744.000000	6.483667   
744.500000	6.386202   
745.000000	6.435825   
745.500000	6.503393   
746.000000	6.564259   
746.500000	6.599634   
747.000000	6.514909   
747.500000	6.273276   
748.000000	6.103755   
748.500000	6.048237   
749.000000	6.043035   
749.500000	6.096270   
750.000000	6.234345   
750.500000	6.372742   
751.000000	6.368957   
751.500000	6.292022   
752.000000	6.167742   
752.500000	5.975892   
753.000000	5.754996   
753.500000	5.571558   
754.000000	5.474653   
754.500000	5.417877   
755.000000	5.343576   
755.500000	5.254981   
756.000000	5.107931   
756.500000	4.987176   
757.000000	4.869983   
757.500000	4.879265   
758.000000	4.955525   
758.500000	5.062300   
759.000000	5.197497   
759.500000	5.217094   
760.000000	5.162126   
760.500000	4.994307   
761.000000	4.898489   
761.500000	4.811907   
762.000000	4.711320   
762.500000	4.656166   
763.000000	4.596892   
763.500000	4.559094   
764.000000	4.485076   
764.500000	4.513020   
765.000000	4.576051   
765.500000	4.618287   
766.000000	4.614773   
766.500000	4.560628   
767.000000	4.506578   
767.500000	4.378881   
768.000000	4.243940   
768.500000	4.141638   
769.000000	4.098346   
769.500000	4.077666   
770.000000	4.014311   
770.500000	3.963018   
771.000000	3.939558   
771.500000	3.891630   
772.000000	3.828617   
772.500000	3.825773   
773.000000	3.903896   
773.500000	3.940061   
774.000000	3.960699   
774.500000	4.011526   
775.000000	3.993100   
775.500000	3.876005   
776.000000	3.754768   
776.500000	3.683732   
777.000000	3.606897   
777.500000	3.519191   
778.000000	3.465792   
778.500000	3.406204   
779.000000	3.313003   
779.500000	3.226304   
780.000000	3.175367   
780.500000	3.121217   
781.000000	3.094591   
781.500000	3.088170   
782.000000	3.101404   
782.500000	3.110946   
783.000000	3.086209   
783.500000	3.051897   
784.000000	2.992545   
784.500000	2.956554   
785.000000	2.940400   
785.500000	2.980320   
786.000000	3.074578   
786.500000	3.180358   
787.000000	3.244415   
787.500000	3.229309   
788.000000	3.134126   
788.500000	2.984000   
789.000000	2.855384   
789.500000	2.757046   
790.000000	2.724964   
790.500000	2.745122   
791.000000	2.771139   
791.500000	2.778419   
792.000000	2.781773   
792.500000	2.796749   
793.000000	2.779649   
793.500000	2.777248   
794.000000	2.794033   
794.500000	2.810972   
795.000000	2.829829   
795.500000	2.864955   
796.000000	2.936771   
796.500000	2.955267   
797.000000	2.931387   
797.500000	2.905248   
798.000000	2.828630   
798.500000	2.731803   
799.000000	2.604489   
799.500000	2.502593   
800.000000	2.368450   
800.500000	2.240799   
801.000000	2.199486   
801.500000	2.173189   
802.000000	2.208948   
802.500000	2.192218   
803.000000	2.212478   
803.500000	2.178701   
804.000000	2.100717   
804.500000	2.069252   
805.000000	2.080307   
805.500000	2.169376   
806.000000	2.214285   
806.500000	2.283374   
807.000000	2.273152   
807.500000	2.211250   
808.000000	2.149589   
808.500000	2.076604   
809.000000	2.048844   
809.500000	2.013549   
810.000000	2.041448   
810.500000	2.032486   
811.000000	2.047256   
811.500000	2.100024   
812.000000	2.111879   
812.500000	2.117248   
813.000000	2.066374   
813.500000	1.988614   
814.000000	1.845226   
814.500000	1.675031   
815.000000	1.573204   
815.500000	1.463578   
816.000000	1.439894   
816.500000	1.454489   
817.000000	1.518654   
817.500000	1.621857   
818.000000	1.757218   
818.500000	1.949981   
819.000000	2.089719   
819.500000	2.236692   
820.000000	2.350307   
820.500000	2.418595   
821.000000	2.468215   
821.500000	2.506345   
822.000000	2.593753   
822.500000	2.681282   
823.000000	2.781684   
823.500000	2.884664   
824.000000	2.964066   
824.500000	3.006723   
825.000000	2.954591   
825.500000	2.840126   
826.000000	2.687090   
826.500000	2.516359   
827.000000	2.354328   
827.500000	2.211981   
828.000000	2.115499   
828.500000	2.043723   
829.000000	1.964797   
829.500000	1.880957   
830.000000	1.784120   
830.500000	1.661265   
831.000000	1.519766   
831.500000	1.371204   
832.000000	1.262456   
832.500000	1.190461   
833.000000	1.142166   
833.500000	1.112703   
834.000000	1.075766   
834.500000	1.054235   
835.000000	0.987595   
835.500000	0.926473   
836.000000	0.894564   
836.500000	0.879367   
837.000000	0.872868   
837.500000	0.849430   
838.000000	0.838202   
838.500000	0.834892   
839.000000	0.827992   
839.500000	0.826267   
840.000000	0.826100   
840.500000	0.807226   
841.000000	0.750499   
841.500000	0.674038   
842.000000	0.625270   
842.500000	0.592612   
843.000000	0.573660   
843.500000	0.590827   
844.000000	0.615241   
844.500000	0.641693   
845.000000	0.615094   
845.500000	0.585847   
846.000000	0.569443   
846.500000	0.548148   
847.000000	0.557686   
847.500000	0.551653   
848.000000	0.561654   
848.500000	0.531207   
849.000000	0.521231   
849.500000	0.518358   
850.000000	0.536048   
850.500000	0.584879   
851.000000	0.595721   
851.500000	0.590795   
852.000000	0.500972   
852.500000	0.413998   
853.000000	0.351805   
853.500000	0.335074   
854.000000	0.391949   
854.500000	0.463695   
855.000000	0.518016   
855.500000	0.478499   
856.000000	0.390790   
856.500000	0.285512   
857.000000	0.149144   
857.500000	0.031825   
858.000000	-0.039435  
858.500000	-0.085597  
859.000000	-0.097166  
859.500000	-0.072560  
860.000000	0.008719   
860.500000	0.079966   
861.000000	0.126467   
861.500000	0.157621   
862.000000	0.137792   
862.500000	0.088410   
863.000000	0.055495   
863.500000	0.032270   
864.000000	0.008454   
864.500000	-0.040805  
865.000000	-0.093333  
865.500000	-0.153115  
866.000000	-0.222304  
866.500000	-0.257304  
867.000000	-0.255788  
867.500000	-0.212077  
868.000000	-0.146692  
868.500000	-0.056790  
869.000000	0.032096   
869.500000	0.094766   
870.000000	0.114669   
870.500000	0.098135   
871.000000	0.033181   
871.500000	-0.042280  
872.000000	-0.088142  
872.500000	-0.099035  
873.000000	-0.060846  
873.500000	-0.013827  
874.000000	0.034961   
874.500000	0.041512   
875.000000	0.016981   
875.500000	-0.031022  
876.000000	-0.092530  
876.500000	-0.130914  
877.000000	-0.152526  
877.500000	-0.136682  
878.000000	-0.096597  
878.500000	-0.050974  
879.000000	-0.026259  
879.500000	-0.019003  
880.000000	-0.011959  
880.500000	-0.034723  
881.000000	-0.076871  
881.500000	-0.106293  
882.000000	-0.131576  
882.500000	-0.158916  
883.000000	-0.167306  
883.500000	-0.130712  
884.000000	-0.066389  
884.500000	-0.008309  
885.000000	0.052345   
885.500000	0.085979   
886.000000	0.078896   
886.500000	0.047089   
887.000000	0.002987   
887.500000	-0.005755  
888.000000	0.005764   
888.500000	0.037957   
889.000000	0.068552   
889.500000	0.093324   
890.000000	0.109641   
890.500000	0.084176   
891.000000	0.061779   
891.500000	0.052864   
892.000000	0.046862   
892.500000	0.029614   
893.000000	0.016864   
893.500000	0.007712   
894.000000	-0.030185  
894.500000	-0.083682  
895.000000	-0.112285  
895.500000	-0.131024  
896.000000	-0.166578  
896.500000	-0.168413  

