PE FL                   SPECTRUM    ASCII       PEDS        1.60        
  -1
S01BCB~1.SP
24/04/11
17:13:12.00
24/04/11
17:13:12.00
Jan

896.500000
1









LS55
405.00
5.00
5.00
SCAN
1
20
100
100
0
400
0
1
0
1
5
ON
736 405 
1 0 0
#HDR
-1
-1
#GR
NM

0.00002384185791015625
0.0
450.000000
0.500000
894
8
322.213697
-0.289884
#DATA
450.000000	1.000000   
450.500000	0.656884   
451.000000	0.389515   
451.500000	0.233204   
452.000000	0.153510   
452.500000	0.149695   
453.000000	0.201350   
453.500000	0.220658   
454.000000	0.197634   
454.500000	0.163953   
455.000000	0.158717   
455.500000	0.143831   
456.000000	0.128499   
456.500000	0.132777   
457.000000	0.087391   
457.500000	0.036448   
458.000000	0.018419   
458.500000	0.042495   
459.000000	0.056530   
459.500000	0.095686   
460.000000	0.177608   
460.500000	0.202183   
461.000000	0.153395   
461.500000	0.119181   
462.000000	0.115202   
462.500000	0.072717   
463.000000	0.006768   
463.500000	-0.012452  
464.000000	0.003185   
464.500000	-0.026970  
465.000000	-0.056664  
465.500000	-0.022437  
466.000000	0.017471   
466.500000	-0.004994  
467.000000	-0.029517  
467.500000	0.010578   
468.000000	0.015781   
468.500000	0.035846   
469.000000	0.079643   
469.500000	0.144827   
470.000000	0.146324   
470.500000	0.134050   
471.000000	0.109393   
471.500000	0.007250   
472.000000	-0.088638  
472.500000	-0.124814  
473.000000	-0.105393  
473.500000	-0.052315  
474.000000	0.048578   
474.500000	0.157103   
475.000000	0.178061   
475.500000	0.138697   
476.000000	0.106025   
476.500000	0.068450   
477.000000	0.058617   
477.500000	0.083035   
478.000000	0.155575   
478.500000	0.262250   
479.000000	0.327909   
479.500000	0.365024   
480.000000	0.362643   
480.500000	0.332658   
481.000000	0.258790   
481.500000	0.150985   
482.000000	0.083959   
482.500000	0.095884   
483.000000	0.134640   
483.500000	0.200955   
484.000000	0.267602   
484.500000	0.312515   
485.000000	0.282779   
485.500000	0.189684   
486.000000	0.129539   
486.500000	0.115769   
487.000000	0.128896   
487.500000	0.159632   
488.000000	0.195257   
488.500000	0.242760   
489.000000	0.233356   
489.500000	0.193558   
490.000000	0.175473   
490.500000	0.181935   
491.000000	0.197643   
491.500000	0.205916   
492.000000	0.260992   
492.500000	0.318473   
493.000000	0.381762   
493.500000	0.461309   
494.000000	0.567504   
494.500000	0.613923   
495.000000	0.602382   
495.500000	0.546153   
496.000000	0.411771   
496.500000	0.295576   
497.000000	0.227564   
497.500000	0.239591   
498.000000	0.288729   
498.500000	0.401133   
499.000000	0.527643   
499.500000	0.570823   
500.000000	0.575428   
500.500000	0.539250   
501.000000	0.490096   
501.500000	0.444384   
502.000000	0.466302   
502.500000	0.543625   
503.000000	0.615038   
503.500000	0.708528   
504.000000	0.789610   
504.500000	0.812139   
505.000000	0.789883   
505.500000	0.749871   
506.000000	0.720777   
506.500000	0.679332   
507.000000	0.693226   
507.500000	0.776940   
508.000000	0.889781   
508.500000	1.054755   
509.000000	1.193513   
509.500000	1.358935   
510.000000	1.464703   
510.500000	1.500456   
511.000000	1.522398   
511.500000	1.515881   
512.000000	1.565207   
512.500000	1.580682   
513.000000	1.662350   
513.500000	1.796773   
514.000000	1.931729   
514.500000	2.090534   
515.000000	2.224679   
515.500000	2.396092   
516.000000	2.476192   
516.500000	2.506595   
517.000000	2.552623   
517.500000	2.554825   
518.000000	2.555794   
518.500000	2.512716   
519.000000	2.527096   
519.500000	2.551311   
520.000000	2.555220   
520.500000	2.627591   
521.000000	2.716146   
521.500000	2.843332   
522.000000	2.910734   
522.500000	2.918111   
523.000000	2.931948   
523.500000	2.909896   
524.000000	2.929129   
524.500000	3.027948   
525.000000	3.230328   
525.500000	3.480072   
526.000000	3.691897   
526.500000	3.875389   
527.000000	4.043150   
527.500000	4.213267   
528.000000	4.417714   
528.500000	4.680115   
529.000000	4.991768   
529.500000	5.296946   
530.000000	5.492909   
530.500000	5.673272   
531.000000	5.793964   
531.500000	5.909478   
532.000000	6.067408   
532.500000	6.282217   
533.000000	6.604936   
533.500000	6.864955   
534.000000	7.155615   
534.500000	7.393250   
535.000000	7.582740   
535.500000	7.743584   
536.000000	7.960608   
536.500000	8.256217   
537.000000	8.589589   
537.500000	9.050862   
538.000000	9.556328   
538.500000	10.058962  
539.000000	10.494191  
539.500000	10.901189  
540.000000	11.211788  
540.500000	11.430562  
541.000000	11.559717  
541.500000	11.684749  
542.000000	11.769246  
542.500000	11.826753  
543.000000	11.927679  
543.500000	11.992920  
544.000000	11.994747  
544.500000	11.896474  
545.000000	11.771083  
545.500000	11.607716  
546.000000	11.437521  
546.500000	11.257254  
547.000000	11.167846  
547.500000	11.094246  
548.000000	10.991339  
548.500000	10.944400  
549.000000	10.908834  
549.500000	10.880000  
550.000000	10.788760  
550.500000	10.707027  
551.000000	10.597404  
551.500000	10.404575  
552.000000	10.223647  
552.500000	10.095664  
553.000000	10.057406  
553.500000	10.081102  
554.000000	10.197942  
554.500000	10.424862  
555.000000	10.685465  
555.500000	10.938962  
556.000000	11.101096  
556.500000	11.228057  
557.000000	11.331916  
557.500000	11.450267  
558.000000	11.687400  
558.500000	12.082634  
559.000000	12.582510  
559.500000	13.028955  
560.000000	13.479220  
560.500000	13.840807  
561.000000	14.194936  
561.500000	14.654226  
562.000000	15.178938  
562.500000	15.776795  
563.000000	16.345569  
563.500000	16.856254  
564.000000	17.249146  
564.500000	17.513994  
565.000000	17.919001  
565.500000	18.386209  
566.000000	18.896454  
566.500000	19.414912  
567.000000	19.957762  
567.500000	20.558102  
568.000000	21.042972  
568.500000	21.649055  
569.000000	22.295153  
569.500000	22.999962  
570.000000	23.592990  
570.500000	24.071461  
571.000000	24.761593  
571.500000	25.501430  
572.000000	26.358710  
572.500000	27.284189  
573.000000	28.419098  
573.500000	29.263576  
574.000000	29.770675  
574.500000	30.114734  
575.000000	30.337998  
575.500000	30.630447  
576.000000	31.110545  
576.500000	32.021452  
577.000000	32.973664  
577.500000	33.921094  
578.000000	34.896935  
578.500000	35.663686  
579.000000	36.175955  
579.500000	36.654415  
580.000000	37.391423  
580.500000	38.108185  
581.000000	38.936935  
581.500000	40.107992  
582.000000	41.451241  
582.500000	42.715289  
583.000000	43.843686  
583.500000	44.945185  
584.000000	45.893085  
584.500000	46.498730  
585.000000	47.267836  
585.500000	48.345723  
586.000000	49.710001  
586.500000	51.073077  
587.000000	52.532977  
587.500000	54.099148  
588.000000	55.400634  
588.500000	56.591415  
589.000000	57.624269  
589.500000	58.853499  
590.000000	60.032758  
590.500000	61.242300  
591.000000	62.791756  
591.500000	64.427523  
592.000000	66.364484  
592.500000	68.174211  
593.000000	70.033207  
593.500000	71.578094  
594.000000	72.747879  
594.500000	73.980257  
595.000000	75.259866  
595.500000	77.062721  
596.000000	79.170144  
596.500000	81.640204  
597.000000	83.986471  
597.500000	86.023011  
598.000000	87.877703  
598.500000	89.435953  
599.000000	91.005187  
599.500000	92.778784  
600.000000	94.913085  
600.500000	97.223920  
601.000000	99.665870  
601.500000	102.198272 
602.000000	104.679870 
602.500000	106.997877 
603.000000	109.138985 
603.500000	110.986697 
604.000000	112.768000 
604.500000	114.689458 
605.000000	116.872187 
605.500000	119.650732 
606.000000	122.814083 
606.500000	125.894419 
607.000000	128.925669 
607.500000	131.842226 
608.000000	134.680708 
608.500000	137.345074 
609.000000	140.283962 
609.500000	143.413703 
610.000000	146.310788 
610.500000	149.398432 
611.000000	152.530499 
611.500000	155.875541 
612.000000	159.281946 
612.500000	162.973053 
613.000000	166.784944 
613.500000	170.106896 
614.000000	173.419118 
614.500000	176.694469 
615.000000	179.763994 
615.500000	183.042985 
616.000000	186.522636 
616.500000	190.092298 
617.000000	193.480617 
617.500000	197.020764 
618.000000	200.749923 
618.500000	204.308320 
619.000000	207.800988 
619.500000	211.263567 
620.000000	214.809805 
620.500000	218.130109 
621.000000	221.219825 
621.500000	224.586170 
622.000000	227.965142 
622.500000	231.258398 
623.000000	234.504597 
623.500000	238.068853 
624.000000	241.590556 
624.500000	244.699541 
625.000000	248.176432 
625.500000	252.147465 
626.000000	256.230265 
626.500000	260.167699 
627.000000	263.930296 
627.500000	267.494007 
628.000000	269.915968 
628.500000	272.254500 
629.000000	274.795335 
629.500000	277.596072 
630.000000	280.595855 
630.500000	283.521332 
631.000000	286.648061 
631.500000	289.231742 
632.000000	291.503155 
632.500000	293.833059 
633.000000	296.256437 
633.500000	298.799499 
634.000000	300.909612 
634.500000	302.790729 
635.000000	304.448940 
635.500000	305.963716 
636.000000	307.748909 
636.500000	309.601031 
637.000000	311.442975 
637.500000	313.116096 
638.000000	314.424725 
638.500000	315.348174 
639.000000	315.946500 
639.500000	316.778174 
640.000000	317.542033 
640.500000	318.077302 
641.000000	318.802944 
641.500000	319.784141 
642.000000	320.496009 
642.500000	321.003090 
643.000000	321.742651 
643.500000	322.213697 
644.000000	321.796857 
644.500000	320.535348 
645.000000	319.037009 
645.500000	316.912706 
646.000000	314.788738 
646.500000	313.071131 
647.000000	312.316063 
647.500000	311.847380 
648.000000	311.058016 
648.500000	310.368467 
649.000000	309.006799 
649.500000	306.954983 
650.000000	304.175016 
650.500000	301.759493 
651.000000	299.544716 
651.500000	297.027126 
652.000000	294.637029 
652.500000	292.167157 
653.000000	289.217777 
653.500000	285.504211 
654.000000	281.990868 
654.500000	278.896617 
655.000000	275.756935 
655.500000	272.653141 
656.000000	269.965675 
656.500000	266.840001 
657.000000	262.946675 
657.500000	258.942495 
658.000000	255.214309 
658.500000	251.788074 
659.000000	248.213604 
659.500000	245.175471 
660.000000	241.722482 
660.500000	237.633569 
661.000000	233.121339 
661.500000	228.470261 
662.000000	223.970172 
662.500000	219.317588 
663.000000	215.091250 
663.500000	210.826194 
664.000000	206.445504 
664.500000	201.837560 
665.000000	197.250165 
665.500000	192.999231 
666.000000	188.850064 
666.500000	184.713690 
667.000000	180.351437 
667.500000	176.060196 
668.000000	171.510833 
668.500000	167.071679 
669.000000	162.827382 
669.500000	158.768528 
670.000000	154.680610 
670.500000	150.633243 
671.000000	146.852200 
671.500000	143.001217 
672.000000	139.252643 
672.500000	135.804697 
673.000000	132.488053 
673.500000	129.161016 
674.000000	125.736949 
674.500000	122.277614 
675.000000	118.739437 
675.500000	115.118502 
676.000000	111.517187 
676.500000	108.158001 
677.000000	104.943345 
677.500000	101.656176 
678.000000	98.485825  
678.500000	95.585532  
679.000000	92.912608  
679.500000	90.175207  
680.000000	87.802558  
680.500000	85.719384  
681.000000	83.660499  
681.500000	81.529278  
682.000000	79.404942  
682.500000	77.355983  
683.000000	75.009424  
683.500000	72.674797  
684.000000	70.307094  
684.500000	68.031855  
685.000000	65.853311  
685.500000	63.922595  
686.000000	62.328903  
686.500000	60.856486  
687.000000	59.424040  
687.500000	57.760807  
688.000000	55.892988  
688.500000	53.903823  
689.000000	51.998899  
689.500000	50.218779  
690.000000	48.630189  
690.500000	47.132348  
691.000000	45.776250  
691.500000	44.526077  
692.000000	43.506710  
692.500000	42.520194  
693.000000	41.575595  
693.500000	40.798495  
694.000000	39.815862  
694.500000	38.785159  
695.000000	37.735129  
695.500000	36.848627  
696.000000	35.843246  
696.500000	34.700415  
697.000000	33.653706  
697.500000	32.548692  
698.000000	31.464756  
698.500000	30.448695  
699.000000	29.655176  
699.500000	28.880398  
700.000000	28.141166  
700.500000	27.488456  
701.000000	26.793556  
701.500000	26.163998  
702.000000	25.602376  
702.500000	25.037057  
703.000000	24.479935  
703.500000	23.955244  
704.000000	23.443103  
704.500000	22.797309  
705.000000	22.186168  
705.500000	21.657905  
706.000000	21.111758  
706.500000	20.597801  
707.000000	20.103244  
707.500000	19.735131  
708.000000	19.281949  
708.500000	18.928285  
709.000000	18.638168  
709.500000	18.320411  
710.000000	18.004871  
710.500000	17.577473  
711.000000	17.173723  
711.500000	16.714092  
712.000000	16.338692  
712.500000	16.051166  
713.000000	15.781606  
713.500000	15.538469  
714.000000	15.109538  
714.500000	14.675129  
715.000000	14.202395  
715.500000	13.814144  
716.000000	13.566619  
716.500000	13.377489  
717.000000	13.287265  
717.500000	13.064649  
718.000000	12.820651  
718.500000	12.594100  
719.000000	12.375693  
719.500000	12.260831  
720.000000	12.159048  
720.500000	12.062115  
721.000000	11.831896  
721.500000	11.536560  
722.000000	11.260508  
722.500000	10.948987  
723.000000	10.776831  
723.500000	10.714855  
724.000000	10.639638  
724.500000	10.546972  
725.000000	10.317037  
725.500000	10.158252  
726.000000	9.915525   
726.500000	9.732896   
727.000000	9.653087   
727.500000	9.562423   
728.000000	9.465992   
728.500000	9.231831   
729.000000	9.041994   
729.500000	8.791957   
730.000000	8.551855   
730.500000	8.376959   
731.000000	8.267742   
731.500000	8.190009   
732.000000	8.012821   
732.500000	7.889001   
733.000000	7.872406   
733.500000	7.883435   
734.000000	7.933729   
734.500000	8.021716   
735.000000	8.102200   
735.500000	8.078384   
736.000000	7.916222   
736.500000	7.719265   
737.000000	7.444871   
737.500000	7.181705   
738.000000	6.952564   
738.500000	6.872343   
739.000000	6.878500   
739.500000	6.899623   
740.000000	6.963298   
740.500000	6.948346   
741.000000	6.873423   
741.500000	6.712526   
742.000000	6.568873   
742.500000	6.388404   
743.000000	6.278959   
743.500000	6.254341   
744.000000	6.269059   
744.500000	6.241578   
745.000000	6.179233   
745.500000	6.136397   
746.000000	5.997855   
746.500000	5.824389   
747.000000	5.659988   
747.500000	5.511857   
748.000000	5.373530   
748.500000	5.301625   
749.000000	5.343276   
749.500000	5.387083   
750.000000	5.357307   
750.500000	5.346107   
751.000000	5.331454   
751.500000	5.297423   
752.000000	5.258387   
752.500000	5.258322   
753.000000	5.338146   
753.500000	5.295834   
754.000000	5.227057   
754.500000	5.170959   
755.000000	5.116985   
755.500000	5.063890   
756.000000	4.991899   
756.500000	5.044699   
757.000000	5.019489   
757.500000	4.900452   
758.000000	4.777072   
758.500000	4.678302   
759.000000	4.620228   
759.500000	4.465883   
760.000000	4.394549   
760.500000	4.350795   
761.000000	4.270050   
761.500000	4.167371   
762.000000	4.132215   
762.500000	4.147909   
763.000000	4.106285   
763.500000	4.134066   
764.000000	4.222705   
764.500000	4.302907   
765.000000	4.359608   
765.500000	4.444823   
766.000000	4.511259   
766.500000	4.484489   
767.000000	4.388345   
767.500000	4.234862   
768.000000	4.016000   
768.500000	3.796224   
769.000000	3.633547   
769.500000	3.538246   
770.000000	3.512693   
770.500000	3.612428   
771.000000	3.737207   
771.500000	3.815441   
772.000000	3.839118   
772.500000	3.756332   
773.000000	3.625821   
773.500000	3.432907   
774.000000	3.326688   
774.500000	3.286085   
775.000000	3.327007   
775.500000	3.414799   
776.000000	3.446814   
776.500000	3.473393   
777.000000	3.400294   
777.500000	3.300640   
778.000000	3.187684   
778.500000	3.110302   
779.000000	3.072319   
779.500000	2.992888   
780.000000	2.957376   
780.500000	2.926372   
781.000000	2.914012   
781.500000	2.937419   
782.000000	3.005547   
782.500000	3.094903   
783.000000	3.136025   
783.500000	3.136755   
784.000000	3.081825   
784.500000	3.005506   
785.000000	2.936836   
785.500000	2.903001   
786.000000	2.892066   
786.500000	2.911504   
787.000000	2.898987   
787.500000	2.843463   
788.000000	2.778243   
788.500000	2.732319   
789.000000	2.744593   
789.500000	2.799291   
790.000000	2.904144   
790.500000	2.984781   
791.000000	2.997751   
791.500000	2.948419   
792.000000	2.860406   
792.500000	2.773512   
793.000000	2.709745   
793.500000	2.694884   
794.000000	2.694760   
794.500000	2.723183   
795.000000	2.734432   
795.500000	2.730165   
796.000000	2.739697   
796.500000	2.732102   
797.000000	2.726801   
797.500000	2.686115   
798.000000	2.656478   
798.500000	2.596868   
799.000000	2.531816   
799.500000	2.518710   
800.000000	2.498228   
800.500000	2.550218   
801.000000	2.568400   
801.500000	2.614517   
802.000000	2.633315   
802.500000	2.587504   
803.000000	2.460539   
803.500000	2.253458   
804.000000	2.079055   
804.500000	1.908964   
805.000000	1.790706   
805.500000	1.753046   
806.000000	1.796307   
806.500000	1.830541   
807.000000	1.847484   
807.500000	1.915007   
808.000000	1.981786   
808.500000	2.027614   
809.000000	2.046289   
809.500000	2.044586   
810.000000	2.006128   
810.500000	1.868328   
811.000000	1.765779   
811.500000	1.670864   
812.000000	1.622241   
812.500000	1.645363   
813.000000	1.707675   
813.500000	1.832116   
814.000000	1.879500   
814.500000	1.962333   
815.000000	1.995732   
815.500000	1.991311   
816.000000	2.012562   
816.500000	2.001096   
817.000000	2.035424   
817.500000	2.019437   
818.000000	1.998938   
818.500000	1.968289   
819.000000	1.908068   
819.500000	1.894302   
820.000000	1.873408   
820.500000	1.928181   
821.000000	2.041029   
821.500000	2.151330   
822.000000	2.270977   
822.500000	2.396432   
823.000000	2.506157   
823.500000	2.541328   
824.000000	2.595656   
824.500000	2.648513   
825.000000	2.626460   
825.500000	2.553166   
826.000000	2.512487   
826.500000	2.422734   
827.000000	2.257836   
827.500000	2.128256   
828.000000	2.044413   
828.500000	1.955792   
829.000000	1.831621   
829.500000	1.768666   
830.000000	1.711788   
830.500000	1.611053   
831.000000	1.519714   
831.500000	1.469575   
832.000000	1.441378   
832.500000	1.373365   
833.000000	1.304029   
833.500000	1.253829   
834.000000	1.208879   
834.500000	1.151621   
835.000000	1.109142   
835.500000	1.107430   
836.000000	1.097871   
836.500000	1.083673   
837.000000	1.056168   
837.500000	1.041944   
838.000000	1.003571   
838.500000	0.935192   
839.000000	0.878243   
839.500000	0.827814   
840.000000	0.811712   
840.500000	0.817833   
841.000000	0.863653   
841.500000	0.948870   
842.000000	1.008261   
842.500000	1.001179   
843.000000	0.927293   
843.500000	0.818860   
844.000000	0.673218   
844.500000	0.506513   
845.000000	0.407834   
845.500000	0.385298   
846.000000	0.388155   
846.500000	0.409961   
847.000000	0.429794   
847.500000	0.472480   
848.000000	0.465790   
848.500000	0.433847   
849.000000	0.440697   
849.500000	0.465439   
850.000000	0.473701   
850.500000	0.434588   
851.000000	0.393432   
851.500000	0.317894   
852.000000	0.211864   
852.500000	0.135380   
853.000000	0.120693   
853.500000	0.158730   
854.000000	0.203658   
854.500000	0.250322   
855.000000	0.251944   
855.500000	0.207790   
856.000000	0.150545   
856.500000	0.124742   
857.000000	0.160430   
857.500000	0.223771   
858.000000	0.309003   
858.500000	0.359196   
859.000000	0.342441   
859.500000	0.239970   
860.000000	0.078144   
860.500000	-0.065858  
861.000000	-0.201257  
861.500000	-0.285727  
862.000000	-0.289884  
862.500000	-0.234562  
863.000000	-0.169955  
863.500000	-0.123949  
864.000000	-0.055857  
864.500000	-0.009243  
865.000000	-0.004920  
865.500000	0.004269   
866.000000	0.016098   
866.500000	0.041617   
867.000000	0.049335   
867.500000	0.050311   
868.000000	0.039831   
868.500000	-0.006107  
869.000000	-0.054343  
869.500000	-0.101968  
870.000000	-0.111068  
870.500000	-0.131868  
871.000000	-0.085525  
871.500000	-0.018398  
872.000000	0.034304   
872.500000	0.065565   
873.000000	0.068168   
873.500000	0.062831   
874.000000	-0.019491  
874.500000	-0.054599  
875.000000	-0.059614  
875.500000	-0.059586  
876.000000	-0.076465  
876.500000	-0.070513  
877.000000	-0.011781  
877.500000	-0.023578  
878.000000	-0.016317  
878.500000	0.037443   
879.000000	0.098178   
879.500000	0.121775   
880.000000	0.109630   
880.500000	0.095909   
881.000000	0.029363   
881.500000	-0.063890  
882.000000	-0.112532  
882.500000	-0.119489  
883.000000	-0.091814  
883.500000	-0.059723  
884.000000	-0.001521  
884.500000	0.051560   
885.000000	0.061116   
885.500000	0.053319   
886.000000	0.006397   
886.500000	-0.029820  
887.000000	-0.052495  
887.500000	-0.065378  
888.000000	-0.058560  
888.500000	-0.058497  
889.000000	-0.024795  
889.500000	-0.004415  
890.000000	0.013319   
890.500000	0.031411   
891.000000	0.041358   
891.500000	0.052517   
892.000000	0.029680   
892.500000	0.026408   
893.000000	0.014679   
893.500000	-0.001337  
894.000000	-0.023294  
894.500000	-0.038300  
895.000000	-0.048836  
895.500000	-0.092224  
896.000000	-0.137434  
896.500000	-0.175808  

