PE FL                   SPECTRUM    ASCII       PEDS        1.60        
  -1
S013B7~1.SP
24/04/11
17:23:11.00
24/04/11
17:23:11.00
Jan

896.500000
1









LS55
405.00
5.00
5.00
SCAN
1
20
100
100
0
400
0
1
0
1
5
ON
736 405 
1 0 0
#HDR
-1
-1
#GR
NM

0.00002384185791015625
0.0
450.000000
0.500000
894
8
304.022274
-0.193641
#DATA
450.000000	-0.000000  
450.500000	0.038782   
451.000000	0.038693   
451.500000	0.013842   
452.000000	-0.014458  
452.500000	-0.037840  
453.000000	-0.101814  
453.500000	-0.136057  
454.000000	-0.147801  
454.500000	-0.167448  
455.000000	-0.177400  
455.500000	-0.193641  
456.000000	-0.174855  
456.500000	-0.154972  
457.000000	-0.121170  
457.500000	-0.065402  
458.000000	0.007307   
458.500000	0.128354   
459.000000	0.230751   
459.500000	0.320760   
460.000000	0.395358   
460.500000	0.451927   
461.000000	0.453398   
461.500000	0.390675   
462.000000	0.353929   
462.500000	0.321461   
463.000000	0.268016   
463.500000	0.222194   
464.000000	0.165502   
464.500000	0.108213   
465.000000	-0.001729  
465.500000	-0.095588  
466.000000	-0.144877  
466.500000	-0.149209  
467.000000	-0.090886  
467.500000	-0.007983  
468.000000	0.129283   
468.500000	0.221777   
469.000000	0.288061   
469.500000	0.310497   
470.000000	0.282836   
470.500000	0.266166   
471.000000	0.226840   
471.500000	0.221256   
472.000000	0.182693   
472.500000	0.176300   
473.000000	0.150975   
473.500000	0.138484   
474.000000	0.130038   
474.500000	0.141434   
475.000000	0.182387   
475.500000	0.187851   
476.000000	0.202601   
476.500000	0.175022   
477.000000	0.145562   
477.500000	0.071552   
478.000000	-0.015129  
478.500000	-0.048729  
479.000000	-0.058812  
479.500000	-0.043547  
480.000000	-0.016951  
480.500000	0.021734   
481.000000	0.043100   
481.500000	0.022732   
482.000000	0.004957   
482.500000	0.026897   
483.000000	0.017341   
483.500000	0.020150   
484.000000	0.006975   
484.500000	-0.009816  
485.000000	-0.038100  
485.500000	-0.047979  
486.000000	0.031962   
486.500000	0.126877   
487.000000	0.285996   
487.500000	0.419098   
488.000000	0.475643   
488.500000	0.474684   
489.000000	0.386183   
489.500000	0.278235   
490.000000	0.131118   
490.500000	0.067372   
491.000000	0.078758   
491.500000	0.111909   
492.000000	0.207582   
492.500000	0.299137   
493.000000	0.371090   
493.500000	0.371057   
494.000000	0.335128   
494.500000	0.305103   
495.000000	0.260964   
495.500000	0.237912   
496.000000	0.210287   
496.500000	0.173601   
497.000000	0.153677   
497.500000	0.113853   
498.000000	0.131016   
498.500000	0.199790   
499.000000	0.276777   
499.500000	0.340352   
500.000000	0.366222   
500.500000	0.385493   
501.000000	0.350070   
501.500000	0.316795   
502.000000	0.309706   
502.500000	0.312903   
503.000000	0.331526   
503.500000	0.375441   
504.000000	0.468189   
504.500000	0.547946   
505.000000	0.636682   
505.500000	0.706903   
506.000000	0.766834   
506.500000	0.780371   
507.000000	0.786523   
507.500000	0.839870   
508.000000	0.923083   
508.500000	1.038617   
509.000000	1.107610   
509.500000	1.187165   
510.000000	1.241261   
510.500000	1.302595   
511.000000	1.365907   
511.500000	1.450443   
512.000000	1.572335   
512.500000	1.654730   
513.000000	1.727465   
513.500000	1.809278   
514.000000	1.889768   
514.500000	1.945712   
515.000000	1.996959   
515.500000	2.073003   
516.000000	2.137964   
516.500000	2.162205   
517.000000	2.226304   
517.500000	2.286443   
518.000000	2.348823   
518.500000	2.428925   
519.000000	2.517291   
519.500000	2.613545   
520.000000	2.661834   
520.500000	2.739508   
521.000000	2.791497   
521.500000	2.803621   
522.000000	2.849675   
522.500000	2.941532   
523.000000	3.040280   
523.500000	3.095714   
524.000000	3.153072   
524.500000	3.199135   
525.000000	3.242287   
525.500000	3.344100   
526.000000	3.525289   
526.500000	3.777165   
527.000000	3.961126   
527.500000	4.172239   
528.000000	4.394584   
528.500000	4.626163   
529.000000	4.867155   
529.500000	5.143285   
530.000000	5.513365   
530.500000	5.756200   
531.000000	5.993283   
531.500000	6.184050   
532.000000	6.344120   
532.500000	6.478760   
533.000000	6.589762   
533.500000	6.834330   
534.000000	7.037532   
534.500000	7.240977   
535.000000	7.498807   
535.500000	7.800061   
536.000000	8.172538   
536.500000	8.528458   
537.000000	9.005014   
537.500000	9.498873   
538.000000	9.982445   
538.500000	10.452068  
539.000000	10.957910  
539.500000	11.449656  
540.000000	11.789621  
540.500000	12.019300  
541.000000	12.135936  
541.500000	12.198105  
542.000000	12.203834  
542.500000	12.274764  
543.000000	12.417435  
543.500000	12.520009  
544.000000	12.551864  
544.500000	12.416803  
545.000000	12.230291  
545.500000	11.944007  
546.000000	11.650178  
546.500000	11.441218  
547.000000	11.305417  
547.500000	11.278717  
548.000000	11.246282  
548.500000	11.211573  
549.000000	11.164185  
549.500000	11.002322  
550.000000	10.802886  
550.500000	10.467717  
551.000000	10.229265  
551.500000	10.139552  
552.000000	10.191769  
552.500000	10.292901  
553.000000	10.341051  
553.500000	10.361860  
554.000000	10.229814  
554.500000	10.097996  
555.000000	10.128289  
555.500000	10.385085  
556.000000	10.712840  
556.500000	11.092983  
557.000000	11.531306  
557.500000	11.845090  
558.000000	12.045354  
558.500000	12.183491  
559.000000	12.250129  
559.500000	12.375424  
560.000000	12.666777  
560.500000	13.152235  
561.000000	13.703601  
561.500000	14.311079  
562.000000	15.003795  
562.500000	15.579899  
563.000000	16.077714  
563.500000	16.627367  
564.000000	17.241205  
564.500000	17.830875  
565.000000	18.467378  
565.500000	19.195068  
566.000000	19.783419  
566.500000	20.288649  
567.000000	20.730951  
567.500000	21.175003  
568.000000	21.563311  
568.500000	21.939187  
569.000000	22.336994  
569.500000	22.804860  
570.000000	23.389421  
570.500000	24.014949  
571.000000	24.791923  
571.500000	25.627313  
572.000000	26.425758  
572.500000	27.202434  
573.000000	27.989218  
573.500000	28.734441  
574.000000	29.235794  
574.500000	29.656656  
575.000000	30.183844  
575.500000	30.769619  
576.000000	31.399816  
576.500000	32.072679  
577.000000	32.985139  
577.500000	33.888679  
578.000000	34.702024  
578.500000	35.560007  
579.000000	36.352358  
579.500000	37.207901  
580.000000	37.808946  
580.500000	38.548348  
581.000000	39.356630  
581.500000	40.184899  
582.000000	41.160137  
582.500000	42.227758  
583.000000	43.615161  
583.500000	44.729066  
584.000000	45.743857  
584.500000	46.638406  
585.000000	47.381296  
585.500000	48.186072  
586.000000	49.205063  
586.500000	50.724209  
587.000000	52.220113  
587.500000	53.690471  
588.000000	55.141788  
588.500000	56.509152  
589.000000	57.740781  
589.500000	58.968818  
590.000000	60.549187  
590.500000	62.106690  
591.000000	63.620491  
591.500000	65.056185  
592.000000	66.413801  
592.500000	67.726124  
593.000000	69.056916  
593.500000	70.607714  
594.000000	72.160319  
594.500000	73.738630  
595.000000	75.334818  
595.500000	76.995582  
596.000000	78.858022  
596.500000	80.842230  
597.000000	83.121404  
597.500000	85.467430  
598.000000	87.767155  
598.500000	90.106244  
599.000000	92.204037  
599.500000	94.004627  
600.000000	95.558786  
600.500000	97.184378  
601.000000	98.812278  
601.500000	100.449387 
602.000000	102.341849 
602.500000	104.542935 
603.000000	106.853022 
603.500000	109.270382 
604.000000	111.845424 
604.500000	114.570703 
605.000000	117.179423 
605.500000	119.759317 
606.000000	122.456059 
606.500000	124.836413 
607.000000	127.253142 
607.500000	129.759022 
608.000000	132.570294 
608.500000	135.619803 
609.000000	139.036179 
609.500000	142.726131 
610.000000	146.233586 
610.500000	149.394935 
611.000000	152.317940 
611.500000	154.937166 
612.000000	157.295907 
612.500000	159.649113 
613.000000	162.309293 
613.500000	165.264447 
614.000000	168.391259 
614.500000	172.088363 
615.000000	175.989313 
615.500000	179.974350 
616.000000	183.524059 
616.500000	186.890460 
617.000000	189.795894 
617.500000	192.292300 
618.000000	194.805853 
618.500000	197.100975 
619.000000	199.838005 
619.500000	202.640259 
620.000000	205.892441 
620.500000	209.456844 
621.000000	213.163970 
621.500000	217.327597 
622.000000	221.220129 
622.500000	224.986467 
623.000000	228.371875 
623.500000	231.646961 
624.000000	235.018230 
624.500000	237.924217 
625.000000	241.091539 
625.500000	244.252801 
626.000000	247.531666 
626.500000	250.758092 
627.000000	254.121434 
627.500000	257.701905 
628.000000	260.685092 
628.500000	263.122714 
629.000000	265.199126 
629.500000	266.981959 
630.000000	268.598970 
630.500000	270.722909 
631.000000	273.361376 
631.500000	276.077096 
632.000000	278.866979 
632.500000	281.711705 
633.000000	284.375857 
633.500000	286.746011 
634.000000	288.757686 
634.500000	290.640276 
635.000000	291.963272 
635.500000	292.811628 
636.000000	293.803962 
636.500000	295.120139 
637.000000	296.810332 
637.500000	298.171593 
638.000000	299.815627 
638.500000	301.389346 
639.000000	302.460109 
639.500000	303.013645 
640.000000	303.487196 
640.500000	304.022274 
641.000000	303.612784 
641.500000	302.743821 
642.000000	301.755970 
642.500000	300.633322 
643.000000	299.353003 
643.500000	298.340632 
644.000000	298.000712 
644.500000	297.895625 
645.000000	297.950098 
645.500000	298.034320 
646.000000	298.101387 
646.500000	297.587419 
647.000000	296.207990 
647.500000	294.337890 
648.000000	291.806191 
648.500000	289.023558 
649.000000	286.398523 
649.500000	284.237090 
650.000000	282.127888 
650.500000	279.835059 
651.000000	277.793332 
651.500000	275.556204 
652.000000	272.936393 
652.500000	270.283194 
653.000000	267.928157 
653.500000	265.304782 
654.000000	262.238005 
654.500000	259.538478 
655.000000	256.719463 
655.500000	253.457755 
656.000000	249.996998 
656.500000	246.437408 
657.000000	242.840795 
657.500000	238.718265 
658.000000	234.915222 
658.500000	230.743335 
659.000000	226.582352 
659.500000	222.630072 
660.000000	218.337552 
660.500000	214.270172 
661.000000	210.144155 
661.500000	206.493500 
662.000000	202.553591 
662.500000	198.587070 
663.000000	195.177445 
663.500000	191.392643 
664.000000	187.658423 
664.500000	183.787165 
665.000000	180.206009 
665.500000	176.292543 
666.000000	172.050224 
666.500000	168.144398 
667.000000	163.981738 
667.500000	159.621723 
668.000000	155.044469 
668.500000	150.489220 
669.000000	146.197103 
669.500000	142.126168 
670.000000	138.763515 
670.500000	135.602196 
671.000000	132.619061 
671.500000	129.515860 
672.000000	126.191771 
672.500000	122.514762 
673.000000	118.971688 
673.500000	115.661582 
674.000000	112.454717 
674.500000	109.200150 
675.000000	106.146458 
675.500000	102.986361 
676.000000	99.616987  
676.500000	96.555031  
677.000000	93.630602  
677.500000	90.933961  
678.000000	88.199896  
678.500000	85.619756  
679.000000	83.124469  
679.500000	80.495183  
680.000000	78.010881  
680.500000	75.620061  
681.000000	73.481328  
681.500000	71.426256  
682.000000	69.552994  
682.500000	67.696846  
683.000000	65.973204  
683.500000	64.189836  
684.000000	62.358836  
684.500000	60.520495  
685.000000	58.661300  
685.500000	56.854834  
686.000000	55.004111  
686.500000	53.463612  
687.000000	52.046679  
687.500000	50.666528  
688.000000	49.311172  
688.500000	47.984513  
689.000000	46.603992  
689.500000	44.930716  
690.000000	43.362133  
690.500000	41.977680  
691.000000	40.653380  
691.500000	39.473332  
692.000000	38.626623  
692.500000	37.855777  
693.000000	36.996630  
693.500000	36.164545  
694.000000	35.402116  
694.500000	34.527675  
695.000000	33.584161  
695.500000	32.745328  
696.000000	31.845359  
696.500000	30.986825  
697.000000	30.090163  
697.500000	29.371243  
698.000000	28.576224  
698.500000	27.771326  
699.000000	26.983048  
699.500000	26.116510  
700.000000	25.347012  
700.500000	24.631406  
701.000000	24.109083  
701.500000	23.639755  
702.000000	23.302743  
702.500000	22.945697  
703.000000	22.426747  
703.500000	21.845985  
704.000000	21.149688  
704.500000	20.475543  
705.000000	19.774723  
705.500000	19.263699  
706.000000	18.901198  
706.500000	18.600647  
707.000000	18.225756  
707.500000	17.819228  
708.000000	17.398382  
708.500000	16.815014  
709.000000	16.368582  
709.500000	16.068682  
710.000000	15.865673  
710.500000	15.720873  
711.000000	15.569575  
711.500000	15.419142  
712.000000	15.075764  
712.500000	14.782716  
713.000000	14.502732  
713.500000	14.247018  
714.000000	13.979478  
714.500000	13.715680  
715.000000	13.446538  
715.500000	13.017675  
716.000000	12.623211  
716.500000	12.225109  
717.000000	11.884395  
717.500000	11.640929  
718.000000	11.545282  
718.500000	11.561942  
719.000000	11.572124  
719.500000	11.591142  
720.000000	11.487168  
720.500000	11.274634  
721.000000	11.024074  
721.500000	10.764901  
722.000000	10.495378  
722.500000	10.242077  
723.000000	10.083155  
723.500000	9.935359   
724.000000	9.717651   
724.500000	9.462048   
725.000000	9.311582   
725.500000	9.176552   
726.000000	9.046469   
726.500000	8.998558   
727.000000	8.939499   
727.500000	8.779209   
728.000000	8.519037   
728.500000	8.274042   
729.000000	8.098415   
729.500000	7.929391   
730.000000	7.912977   
730.500000	7.933213   
731.000000	7.954582   
731.500000	7.908942   
732.000000	7.746640   
732.500000	7.578515   
733.000000	7.458463   
733.500000	7.462513   
734.000000	7.490888   
734.500000	7.559443   
735.000000	7.688116   
735.500000	7.728873   
736.000000	7.713506   
736.500000	7.645059   
737.000000	7.498871   
737.500000	7.243083   
738.000000	6.978137   
738.500000	6.725367   
739.000000	6.523059   
739.500000	6.375077   
740.000000	6.320601   
740.500000	6.299788   
741.000000	6.239408   
741.500000	6.206307   
742.000000	6.155727   
742.500000	6.086641   
743.000000	6.086129   
743.500000	6.078734   
744.000000	6.065521   
744.500000	6.002899   
745.000000	5.903497   
745.500000	5.707538   
746.000000	5.448282   
746.500000	5.243296   
747.000000	4.985126   
747.500000	4.859628   
748.000000	4.890588   
748.500000	4.981074   
749.000000	5.064265   
749.500000	5.152326   
750.000000	5.291782   
750.500000	5.231922   
751.000000	5.151107   
751.500000	5.075994   
752.000000	4.946079   
752.500000	4.761220   
753.000000	4.647237   
753.500000	4.625996   
754.000000	4.561640   
754.500000	4.578384   
755.000000	4.628371   
755.500000	4.656988   
756.000000	4.629385   
756.500000	4.617280   
757.000000	4.627894   
757.500000	4.642174   
758.000000	4.688833   
758.500000	4.674775   
759.000000	4.631367   
759.500000	4.541105   
760.000000	4.423434   
760.500000	4.289385   
761.000000	4.231922   
761.500000	4.217283   
762.000000	4.189599   
762.500000	4.126354   
763.000000	4.056680   
763.500000	4.001866   
764.000000	3.960532   
764.500000	3.942437   
765.000000	4.007814   
765.500000	4.117434   
766.000000	4.174124   
766.500000	4.142040   
767.000000	4.077558   
767.500000	3.973693   
768.000000	3.759159   
768.500000	3.550406   
769.000000	3.415606   
769.500000	3.308905   
770.000000	3.220378   
770.500000	3.144402   
771.000000	3.182714   
771.500000	3.189300   
772.000000	3.217705   
772.500000	3.246833   
773.000000	3.277213   
773.500000	3.315662   
774.000000	3.285350   
774.500000	3.273799   
775.000000	3.249237   
775.500000	3.217460   
776.000000	3.160350   
776.500000	3.130274   
777.000000	3.142829   
777.500000	3.122363   
778.000000	3.081287   
778.500000	3.045842   
779.000000	3.025341   
779.500000	2.955289   
780.000000	2.908576   
780.500000	2.899322   
781.000000	2.907274   
781.500000	2.891575   
782.000000	2.880124   
782.500000	2.924608   
783.000000	2.903402   
783.500000	2.856166   
784.000000	2.816979   
784.500000	2.805250   
785.000000	2.784916   
785.500000	2.757593   
786.000000	2.816378   
786.500000	2.868515   
787.000000	2.889079   
787.500000	2.895909   
788.000000	2.895818   
788.500000	2.887146   
789.000000	2.843666   
789.500000	2.867987   
790.000000	2.911445   
790.500000	2.935256   
791.000000	2.912912   
791.500000	2.872335   
792.000000	2.790769   
792.500000	2.644194   
793.000000	2.532621   
793.500000	2.464196   
794.000000	2.444951   
794.500000	2.422705   
795.000000	2.458846   
795.500000	2.526380   
796.000000	2.576115   
796.500000	2.664565   
797.000000	2.762795   
797.500000	2.870376   
798.000000	2.879046   
798.500000	2.832100   
799.000000	2.744376   
799.500000	2.610519   
800.000000	2.477619   
800.500000	2.357423   
801.000000	2.302269   
801.500000	2.273402   
802.000000	2.260933   
802.500000	2.275139   
803.000000	2.306977   
803.500000	2.357207   
804.000000	2.409317   
804.500000	2.414738   
805.000000	2.359426   
805.500000	2.245833   
806.000000	2.096513   
806.500000	1.974081   
807.000000	1.884118   
807.500000	1.907046   
808.000000	1.976024   
808.500000	2.012896   
809.000000	2.026591   
809.500000	2.001601   
810.000000	1.932187   
810.500000	1.820406   
811.000000	1.781909   
811.500000	1.820879   
812.000000	1.861020   
812.500000	1.922742   
813.000000	2.015914   
813.500000	2.059070   
814.000000	2.018589   
814.500000	1.949719   
815.000000	1.850499   
815.500000	1.692884   
816.000000	1.526846   
816.500000	1.440157   
817.000000	1.400680   
817.500000	1.399738   
818.000000	1.484044   
818.500000	1.622825   
819.000000	1.788189   
819.500000	1.938781   
820.000000	2.062905   
820.500000	2.190456   
821.000000	2.290857   
821.500000	2.374471   
822.000000	2.477801   
822.500000	2.597450   
823.000000	2.667940   
823.500000	2.675042   
824.000000	2.612387   
824.500000	2.515148   
825.000000	2.382619   
825.500000	2.256302   
826.000000	2.199328   
826.500000	2.134640   
827.000000	2.085487   
827.500000	2.019022   
828.000000	1.970424   
828.500000	1.938165   
829.000000	1.893849   
829.500000	1.885840   
830.000000	1.827215   
830.500000	1.764235   
831.000000	1.660285   
831.500000	1.536766   
832.000000	1.431493   
832.500000	1.320551   
833.000000	1.241320   
833.500000	1.152871   
834.000000	1.077474   
834.500000	1.044035   
835.000000	1.051827   
835.500000	1.070001   
836.000000	1.094541   
836.500000	1.128638   
837.000000	1.117987   
837.500000	1.080775   
838.000000	1.042382   
838.500000	1.023641   
839.000000	1.006536   
839.500000	1.006356   
840.000000	1.002846   
840.500000	0.973890   
841.000000	0.935545   
841.500000	0.882894   
842.000000	0.846133   
842.500000	0.844512   
843.000000	0.841712   
843.500000	0.821979   
844.000000	0.762016   
844.500000	0.683157   
845.000000	0.572838   
845.500000	0.462888   
846.000000	0.395899   
846.500000	0.345018   
847.000000	0.321905   
847.500000	0.310946   
848.000000	0.319098   
848.500000	0.336938   
849.000000	0.346853   
849.500000	0.342881   
850.000000	0.319645   
850.500000	0.307723   
851.000000	0.266836   
851.500000	0.225178   
852.000000	0.217706   
852.500000	0.241844   
853.000000	0.266096   
853.500000	0.297857   
854.000000	0.374103   
854.500000	0.375404   
855.000000	0.334100   
855.500000	0.260660   
856.000000	0.160961   
856.500000	0.056647   
857.000000	-0.045593  
857.500000	-0.071547  
858.000000	-0.095419  
858.500000	-0.081530  
859.000000	-0.053185  
859.500000	-0.050404  
860.000000	-0.037248  
860.500000	-0.034552  
861.000000	-0.004142  
861.500000	-0.007866  
862.000000	-0.004736  
862.500000	-0.007701  
863.000000	-0.009187  
863.500000	-0.007367  
864.000000	-0.012217  
864.500000	0.011116   
865.000000	0.005870   
865.500000	0.007725   
866.000000	0.006842   
866.500000	0.007367   
867.000000	0.003936   
867.500000	-0.030602  
868.000000	-0.051573  
868.500000	-0.079248  
869.000000	-0.092942  
869.500000	-0.103792  
870.000000	-0.115493  
870.500000	-0.122146  
871.000000	-0.121727  
871.500000	-0.113662  
872.000000	-0.098784  
872.500000	-0.073630  
873.000000	-0.034721  
873.500000	-0.022103  
874.000000	-0.026999  
874.500000	-0.030846  
875.000000	-0.061346  
875.500000	-0.096538  
876.000000	-0.116213  
876.500000	-0.111393  
877.000000	-0.091988  
877.500000	-0.052987  
878.000000	-0.011987  
878.500000	0.025576   
879.000000	0.052556   
879.500000	0.058445   
880.000000	0.048751   
880.500000	0.023953   
881.000000	0.023849   
881.500000	0.024141   
882.000000	0.009450   
882.500000	-0.000688  
883.000000	-0.026441  
883.500000	-0.058179  
884.000000	-0.096209  
884.500000	-0.085938  
885.000000	-0.068031  
885.500000	-0.053144  
886.000000	-0.027280  
886.500000	-0.021705  
887.000000	-0.026020  
887.500000	-0.038812  
888.000000	-0.032534  
888.500000	-0.020100  
889.000000	-0.005469  
889.500000	0.019708   
890.000000	0.033933   
890.500000	0.019541   
891.000000	0.001658   
891.500000	0.000307   
892.000000	-0.029645  
892.500000	-0.046541  
893.000000	-0.043855  
893.500000	-0.026346  
894.000000	-0.038335  
894.500000	-0.014959  
895.000000	0.019549   
895.500000	0.021740   
896.000000	0.003907   
896.500000	-0.025834  

