PE FL                   SPECTRUM    ASCII       PEDS        1.60        
  -1
S01397~1.SP
24/04/11
17:17:29.00
24/04/11
17:17:29.00
Jan

896.500000
1









LS55
405.00
5.00
5.00
SCAN
1
20
100
100
0
400
0
1
0
1
5
ON
736 405 
1 0 0
#HDR
-1
-1
#GR
NM

0.00002384185791015625
0.0
450.000000
0.500000
894
8
315.718018
-0.462000
#DATA
450.000000	-0.462000  
450.500000	-0.181083  
451.000000	0.003983   
451.500000	0.112580   
452.000000	0.204775   
452.500000	0.157549   
453.000000	0.011899   
453.500000	-0.103398  
454.000000	-0.157896  
454.500000	-0.206000  
455.000000	-0.192315  
455.500000	-0.070135  
456.000000	0.081187   
456.500000	0.186469   
457.000000	0.244014   
457.500000	0.266051   
458.000000	0.239072   
458.500000	0.180868   
459.000000	0.141792   
459.500000	0.139324   
460.000000	0.126502   
460.500000	0.091556   
461.000000	0.048096   
461.500000	0.006269   
462.000000	-0.020703  
462.500000	0.023933   
463.000000	0.069994   
463.500000	0.125638   
464.000000	0.165283   
464.500000	0.160779   
465.000000	0.140935   
465.500000	0.102261   
466.000000	0.123578   
466.500000	0.159007   
467.000000	0.201471   
467.500000	0.249682   
468.000000	0.288807   
468.500000	0.304224   
469.000000	0.293732   
469.500000	0.270664   
470.000000	0.235000   
470.500000	0.195530   
471.000000	0.184589   
471.500000	0.199207   
472.000000	0.221001   
472.500000	0.269975   
473.000000	0.280614   
473.500000	0.256701   
474.000000	0.189753   
474.500000	0.097471   
475.000000	0.056654   
475.500000	0.041686   
476.000000	0.068823   
476.500000	0.115868   
477.000000	0.152328   
477.500000	0.173137   
478.000000	0.107706   
478.500000	0.030510   
479.000000	-0.053870  
479.500000	-0.099792  
480.000000	-0.101847  
480.500000	-0.079322  
481.000000	0.058499   
481.500000	0.179191   
482.000000	0.291896   
482.500000	0.345512   
483.000000	0.346632   
483.500000	0.306805   
484.000000	0.165795   
484.500000	0.045139   
485.000000	-0.049296  
485.500000	-0.037014  
486.000000	0.023335   
486.500000	0.115380   
487.000000	0.234222   
487.500000	0.324196   
488.000000	0.380361   
488.500000	0.381070   
489.000000	0.399254   
489.500000	0.391584   
490.000000	0.333411   
490.500000	0.226528   
491.000000	0.102098   
491.500000	-0.010090  
492.000000	-0.097374  
492.500000	-0.108515  
493.000000	-0.038495  
493.500000	0.104463   
494.000000	0.268105   
494.500000	0.403692   
495.000000	0.528584   
495.500000	0.623840   
496.000000	0.668910   
496.500000	0.702775   
497.000000	0.678768   
497.500000	0.620812   
498.000000	0.519213   
498.500000	0.446111   
499.000000	0.394764   
499.500000	0.337543   
500.000000	0.316781   
500.500000	0.300294   
501.000000	0.246551   
501.500000	0.195732   
502.000000	0.185237   
502.500000	0.211337   
503.000000	0.238397   
503.500000	0.318369   
504.000000	0.441178   
504.500000	0.537571   
505.000000	0.655714   
505.500000	0.753181   
506.000000	0.892291   
506.500000	1.023836   
507.000000	1.118421   
507.500000	1.198660   
508.000000	1.205602   
508.500000	1.254610   
509.000000	1.272489   
509.500000	1.310975   
510.000000	1.367922   
510.500000	1.425319   
511.000000	1.485983   
511.500000	1.484194   
512.000000	1.538252   
512.500000	1.608087   
513.000000	1.676810   
513.500000	1.774371   
514.000000	1.841823   
514.500000	1.915981   
515.000000	1.918525   
515.500000	1.903200   
516.000000	1.918890   
516.500000	1.970011   
517.000000	2.077365   
517.500000	2.183970   
518.000000	2.319855   
518.500000	2.439888   
519.000000	2.536352   
519.500000	2.600918   
520.000000	2.659302   
520.500000	2.758313   
521.000000	2.813372   
521.500000	2.852319   
522.000000	2.887849   
522.500000	2.903901   
523.000000	2.900263   
523.500000	2.898150   
524.000000	2.965038   
524.500000	3.100152   
525.000000	3.308701   
525.500000	3.569538   
526.000000	3.825352   
526.500000	4.064276   
527.000000	4.236397   
527.500000	4.395202   
528.000000	4.515576   
528.500000	4.667751   
529.000000	4.832424   
529.500000	4.996504   
530.000000	5.151541   
530.500000	5.241599   
531.000000	5.336447   
531.500000	5.420222   
532.000000	5.583981   
532.500000	5.796276   
533.000000	6.111209   
533.500000	6.500211   
534.000000	6.852638   
534.500000	7.255265   
535.000000	7.553313   
535.500000	7.793962   
536.000000	7.970743   
536.500000	8.180179   
537.000000	8.492925   
537.500000	8.954025   
538.000000	9.583593   
538.500000	10.228769  
539.000000	10.823680  
539.500000	11.321703  
540.000000	11.643148  
540.500000	11.859441  
541.000000	11.956489  
541.500000	12.045794  
542.000000	12.097714  
542.500000	12.053747  
543.000000	11.998307  
543.500000	11.867690  
544.000000	11.801257  
544.500000	11.741102  
545.000000	11.692914  
545.500000	11.723250  
546.000000	11.691814  
546.500000	11.551512  
547.000000	11.270543  
547.500000	11.028899  
548.000000	10.805302  
548.500000	10.616653  
549.000000	10.480515  
549.500000	10.329014  
550.000000	10.100217  
550.500000	9.835371   
551.000000	9.596111   
551.500000	9.494183   
552.000000	9.591116   
552.500000	9.827623   
553.000000	10.168721  
553.500000	10.425706  
554.000000	10.629873  
554.500000	10.769812  
555.000000	10.905447  
555.500000	11.141975  
556.000000	11.397183  
556.500000	11.589068  
557.000000	11.654287  
557.500000	11.713447  
558.000000	11.840654  
558.500000	12.130810  
559.000000	12.575224  
559.500000	13.168884  
560.000000	13.736970  
560.500000	14.199745  
561.000000	14.575627  
561.500000	14.868769  
562.000000	15.172847  
562.500000	15.477241  
563.000000	15.890842  
563.500000	16.335398  
564.000000	16.817059  
564.500000	17.335365  
565.000000	17.782857  
565.500000	18.259877  
566.000000	18.648807  
566.500000	19.088794  
567.000000	19.559873  
567.500000	20.159903  
568.000000	20.947454  
568.500000	21.756983  
569.000000	22.772371  
569.500000	23.731612  
570.000000	24.633679  
570.500000	25.336207  
571.000000	25.869552  
571.500000	26.340432  
572.000000	26.581573  
572.500000	26.985274  
573.000000	27.476387  
573.500000	28.154922  
574.000000	28.862990  
574.500000	29.551816  
575.000000	30.347038  
575.500000	31.010077  
576.000000	31.746727  
576.500000	32.541204  
577.000000	33.452417  
577.500000	34.392679  
578.000000	35.262805  
578.500000	36.015666  
579.000000	36.717079  
579.500000	37.438883  
580.000000	38.263478  
580.500000	39.143888  
581.000000	40.055055  
581.500000	40.981419  
582.000000	41.814528  
582.500000	42.674194  
583.000000	43.563217  
583.500000	44.719797  
584.000000	46.011756  
584.500000	47.301992  
585.000000	48.485404  
585.500000	49.529404  
586.000000	50.488107  
586.500000	51.290638  
587.000000	52.331205  
587.500000	53.595589  
588.000000	55.126064  
588.500000	56.557183  
589.000000	58.036821  
589.500000	59.572089  
590.000000	61.064788  
590.500000	62.521849  
591.000000	64.043324  
591.500000	65.715384  
592.000000	67.380504  
592.500000	69.107706  
593.000000	71.036415  
593.500000	73.122037  
594.000000	75.081844  
594.500000	76.714443  
595.000000	78.205235  
595.500000	79.580183  
596.000000	80.814102  
596.500000	81.902632  
597.000000	83.456168  
597.500000	85.298870  
598.000000	87.065571  
598.500000	88.967460  
599.000000	91.048456  
599.500000	93.373970  
600.000000	95.514962  
600.500000	97.824228  
601.000000	100.449842 
601.500000	102.892675 
602.000000	105.372890 
602.500000	107.827243 
603.000000	110.564912 
603.500000	113.046300 
604.000000	115.221495 
604.500000	117.373925 
605.000000	119.469801 
605.500000	121.715807 
606.000000	124.063949 
606.500000	126.852948 
607.000000	129.879222 
607.500000	132.754723 
608.000000	135.493758 
608.500000	138.198740 
609.000000	140.914975 
609.500000	143.372367 
610.000000	146.064007 
610.500000	149.170929 
611.000000	152.428487 
611.500000	155.682558 
612.000000	159.149896 
612.500000	162.813645 
613.000000	166.203916 
613.500000	169.492304 
614.000000	172.802538 
614.500000	176.063771 
615.000000	179.464283 
615.500000	183.109081 
616.000000	186.899287 
616.500000	190.818129 
617.000000	194.693641 
617.500000	198.184597 
618.000000	201.139397 
618.500000	203.856224 
619.000000	206.358834 
619.500000	208.682985 
620.000000	211.617198 
620.500000	215.281723 
621.000000	219.337988 
621.500000	223.530454 
622.000000	227.859241 
622.500000	231.827526 
623.000000	235.109601 
623.500000	238.325365 
624.000000	241.917046 
624.500000	245.517801 
625.000000	249.247126 
625.500000	252.970215 
626.000000	256.504105 
626.500000	259.564267 
627.000000	262.427252 
627.500000	265.504287 
628.000000	268.486829 
628.500000	271.625914 
629.000000	274.542218 
629.500000	277.400723 
630.000000	280.051111 
630.500000	282.661803 
631.000000	285.355328 
631.500000	287.975241 
632.000000	290.598675 
632.500000	293.151530 
633.000000	295.630727 
633.500000	298.133894 
634.000000	300.967870 
634.500000	303.729899 
635.000000	306.318692 
635.500000	308.057367 
636.000000	309.489838 
636.500000	310.068291 
637.000000	310.548675 
637.500000	310.863756 
638.000000	310.967012 
638.500000	311.468736 
639.000000	311.742829 
639.500000	312.686109 
640.000000	313.368944 
640.500000	314.315113 
641.000000	315.256267 
641.500000	315.718018 
642.000000	315.690018 
642.500000	315.049192 
643.000000	314.643816 
643.500000	314.117484 
644.000000	313.559068 
644.500000	313.460335 
645.000000	313.123172 
645.500000	312.276261 
646.000000	310.927764 
646.500000	309.522961 
647.000000	308.258812 
647.500000	306.653398 
648.000000	305.372883 
648.500000	303.910365 
649.000000	302.063044 
649.500000	299.791439 
650.000000	297.446398 
650.500000	295.312380 
651.000000	292.874710 
651.500000	290.786951 
652.000000	288.708346 
652.500000	286.537480 
653.000000	283.892632 
653.500000	281.419361 
654.000000	279.159337 
654.500000	276.344829 
655.000000	273.291647 
655.500000	269.962743 
656.000000	266.112558 
656.500000	261.811259 
657.000000	257.719124 
657.500000	254.142105 
658.000000	250.669461 
658.500000	247.356320 
659.000000	244.076074 
659.500000	240.385653 
660.000000	236.325703 
660.500000	232.100211 
661.000000	227.697567 
661.500000	223.378716 
662.000000	219.115539 
662.500000	214.933027 
663.000000	210.581558 
663.500000	206.388677 
664.000000	202.205293 
664.500000	197.856912 
665.000000	193.528187 
665.500000	189.115987 
666.000000	184.488437 
666.500000	179.816122 
667.000000	175.189330 
667.500000	170.554617 
668.000000	166.137007 
668.500000	162.168870 
669.000000	158.294703 
669.500000	154.190931 
670.000000	149.982307 
670.500000	145.574897 
671.000000	140.892645 
671.500000	136.494990 
672.000000	132.755766 
672.500000	129.572627 
673.000000	126.620441 
673.500000	123.970968 
674.000000	121.266543 
674.500000	118.059474 
675.000000	114.539940 
675.500000	110.925628 
676.000000	107.392586 
676.500000	104.002909 
677.000000	100.878862 
677.500000	97.993057  
678.000000	95.119695  
678.500000	92.465519  
679.000000	89.995161  
679.500000	87.581977  
680.000000	85.357077  
680.500000	83.175037  
681.000000	80.948124  
681.500000	78.544730  
682.000000	76.183799  
682.500000	73.961428  
683.000000	71.756040  
683.500000	69.815133  
684.000000	67.959372  
684.500000	65.979087  
685.000000	63.847050  
685.500000	61.694927  
686.000000	59.768168  
686.500000	57.922241  
687.000000	56.382862  
687.500000	55.140252  
688.000000	53.839653  
688.500000	52.330298  
689.000000	50.719103  
689.500000	49.156196  
690.000000	47.582918  
690.500000	46.165953  
691.000000	44.909777  
691.500000	43.557756  
692.000000	42.189736  
692.500000	40.844402  
693.000000	39.648068  
693.500000	38.528762  
694.000000	37.601486  
694.500000	36.817588  
695.000000	36.000745  
695.500000	35.089606  
696.000000	34.164974  
696.500000	33.196782  
697.000000	32.272897  
697.500000	31.511838  
698.000000	30.845358  
698.500000	30.173001  
699.000000	29.546896  
699.500000	28.833586  
700.000000	27.913220  
700.500000	26.965198  
701.000000	26.043862  
701.500000	25.185196  
702.000000	24.517935  
702.500000	24.162315  
703.000000	23.940743  
703.500000	23.511369  
704.000000	22.914040  
704.500000	22.210870  
705.000000	21.523348  
705.500000	20.912833  
706.000000	20.455961  
706.500000	20.248380  
707.000000	20.024673  
707.500000	19.649050  
708.000000	19.073692  
708.500000	18.421261  
709.000000	17.916343  
709.500000	17.455335  
710.000000	17.211397  
710.500000	17.075966  
711.000000	16.809031  
711.500000	16.391959  
712.000000	15.849968  
712.500000	15.334842  
713.000000	14.803447  
713.500000	14.429016  
714.000000	14.244825  
714.500000	14.057061  
715.000000	13.929901  
715.500000	13.760096  
716.000000	13.562528  
716.500000	13.299411  
717.000000	13.005821  
717.500000	12.787074  
718.000000	12.512643  
718.500000	12.229749  
719.000000	12.049513  
719.500000	11.947541  
720.000000	11.844280  
720.500000	11.718858  
721.000000	11.589614  
721.500000	11.411564  
722.000000	11.139870  
722.500000	10.949064  
723.000000	10.784692  
723.500000	10.644213  
724.000000	10.529068  
724.500000	10.357150  
725.000000	10.237050  
725.500000	9.976089   
726.000000	9.793892   
726.500000	9.634372   
727.000000	9.553942   
727.500000	9.567272   
728.000000	9.460593   
728.500000	9.441185   
729.000000	9.318144   
729.500000	9.108645   
730.000000	8.736591   
730.500000	8.367246   
731.000000	8.071912   
731.500000	7.681500   
732.000000	7.503974   
732.500000	7.440491   
733.000000	7.461647   
733.500000	7.497189   
734.000000	7.619773   
734.500000	7.785439   
735.000000	7.821582   
735.500000	7.830734   
736.000000	7.734376   
736.500000	7.536285   
737.000000	7.306810   
737.500000	7.146998   
738.000000	7.068057   
738.500000	6.981858   
739.000000	6.995428   
739.500000	7.040536   
740.000000	7.039122   
740.500000	6.937935   
741.000000	6.849554   
741.500000	6.792988   
742.000000	6.689391   
742.500000	6.581617   
743.000000	6.483020   
743.500000	6.371805   
744.000000	6.236795   
744.500000	6.091430   
745.000000	6.008020   
745.500000	5.903846   
746.000000	5.818769   
746.500000	5.707625   
747.000000	5.600452   
747.500000	5.559105   
748.000000	5.524589   
748.500000	5.543834   
749.000000	5.601992   
749.500000	5.706838   
750.000000	5.771050   
750.500000	5.764873   
751.000000	5.743684   
751.500000	5.629688   
752.000000	5.461742   
752.500000	5.320562   
753.000000	5.131155   
753.500000	4.961352   
754.000000	4.871660   
754.500000	4.870432   
755.000000	4.910974   
755.500000	4.898621   
756.000000	4.890584   
756.500000	4.805029   
757.000000	4.660259   
757.500000	4.506061   
758.000000	4.422231   
758.500000	4.429437   
759.000000	4.454753   
759.500000	4.534866   
760.000000	4.610946   
760.500000	4.710011   
761.000000	4.713320   
761.500000	4.657844   
762.000000	4.607664   
762.500000	4.561588   
763.000000	4.530935   
763.500000	4.507525   
764.000000	4.579907   
764.500000	4.634083   
765.000000	4.613786   
765.500000	4.507612   
766.000000	4.343443   
766.500000	4.185050   
767.000000	3.984346   
767.500000	3.900666   
768.000000	3.884220   
768.500000	3.919773   
769.000000	3.957146   
769.500000	3.981645   
770.000000	4.014866   
770.500000	3.991877   
771.000000	3.975397   
771.500000	3.909256   
772.000000	3.805545   
772.500000	3.664092   
773.000000	3.469916   
773.500000	3.302847   
774.000000	3.164647   
774.500000	3.168332   
775.000000	3.252918   
775.500000	3.404448   
776.000000	3.586469   
776.500000	3.677072   
777.000000	3.640957   
777.500000	3.494198   
778.000000	3.357434   
778.500000	3.206755   
779.000000	3.110936   
779.500000	3.115393   
780.000000	3.183990   
780.500000	3.266113   
781.000000	3.287131   
781.500000	3.302823   
782.000000	3.266278   
782.500000	3.225610   
783.000000	3.164554   
783.500000	3.087187   
784.000000	3.041063   
784.500000	2.965857   
785.000000	2.928823   
785.500000	2.903326   
786.000000	2.948840   
786.500000	3.013064   
787.000000	3.059204   
787.500000	3.117784   
788.000000	3.103020   
788.500000	3.061302   
789.000000	3.009090   
789.500000	2.992469   
790.000000	2.988222   
790.500000	2.984131   
791.000000	2.997320   
791.500000	2.949692   
792.000000	2.878719   
792.500000	2.816679   
793.000000	2.784977   
793.500000	2.772920   
794.000000	2.752025   
794.500000	2.725530   
795.000000	2.691634   
795.500000	2.627315   
796.000000	2.569621   
796.500000	2.561883   
797.000000	2.620884   
797.500000	2.699606   
798.000000	2.762539   
798.500000	2.752081   
799.000000	2.702330   
799.500000	2.587282   
800.000000	2.458918   
800.500000	2.358508   
801.000000	2.303710   
801.500000	2.288589   
802.000000	2.247322   
802.500000	2.278105   
803.000000	2.280944   
803.500000	2.292046   
804.000000	2.293111   
804.500000	2.278805   
805.000000	2.289128   
805.500000	2.256844   
806.000000	2.261773   
806.500000	2.223269   
807.000000	2.199432   
807.500000	2.167499   
808.000000	2.140191   
808.500000	2.088352   
809.000000	2.021643   
809.500000	2.001675   
810.000000	1.964040   
810.500000	1.960558   
811.000000	1.973165   
811.500000	2.005725   
812.000000	2.015222   
812.500000	1.958254   
813.000000	1.923959   
813.500000	1.898970   
814.000000	1.876799   
814.500000	1.867782   
815.000000	1.919018   
815.500000	2.000870   
816.000000	1.996923   
816.500000	1.989552   
817.000000	1.969415   
817.500000	1.895549   
818.000000	1.793912   
818.500000	1.763345   
819.000000	1.772025   
819.500000	1.744339   
820.000000	1.716328   
820.500000	1.749495   
821.000000	1.806085   
821.500000	1.865076   
822.000000	2.017371   
822.500000	2.212499   
823.000000	2.397089   
823.500000	2.539293   
824.000000	2.642224   
824.500000	2.684159   
825.000000	2.662695   
825.500000	2.607790   
826.000000	2.483745   
826.500000	2.357432   
827.000000	2.185903   
827.500000	2.003126   
828.000000	1.811853   
828.500000	1.729521   
829.000000	1.698380   
829.500000	1.666576   
830.000000	1.686677   
830.500000	1.693363   
831.000000	1.732307   
831.500000	1.733508   
832.000000	1.736708   
832.500000	1.711330   
833.000000	1.618897   
833.500000	1.508174   
834.000000	1.317567   
834.500000	1.177007   
835.000000	1.069536   
835.500000	1.014794   
836.000000	0.991938   
836.500000	1.019734   
837.000000	1.070614   
837.500000	1.074341   
838.000000	1.069267   
838.500000	1.044128   
839.000000	0.990020   
839.500000	0.930979   
840.000000	0.879589   
840.500000	0.864502   
841.000000	0.864467   
841.500000	0.885350   
842.000000	0.867434   
842.500000	0.819909   
843.000000	0.761864   
843.500000	0.690888   
844.000000	0.636168   
844.500000	0.590987   
845.000000	0.554500   
845.500000	0.520747   
846.000000	0.462374   
846.500000	0.435881   
847.000000	0.429350   
847.500000	0.445677   
848.000000	0.442452   
848.500000	0.392435   
849.000000	0.334235   
849.500000	0.224697   
850.000000	0.128005   
850.500000	0.077146   
851.000000	0.083825   
851.500000	0.124734   
852.000000	0.170072   
852.500000	0.217814   
853.000000	0.215178   
853.500000	0.194005   
854.000000	0.156333   
854.500000	0.133105   
855.000000	0.112170   
855.500000	0.133408   
856.000000	0.182181   
856.500000	0.228202   
857.000000	0.257081   
857.500000	0.248708   
858.000000	0.214467   
858.500000	0.144244   
859.000000	0.100962   
859.500000	0.083682   
860.000000	0.077513   
860.500000	0.068237   
861.000000	0.026645   
861.500000	-0.031569  
862.000000	-0.112595  
862.500000	-0.184873  
863.000000	-0.208615  
863.500000	-0.173578  
864.000000	-0.116580  
864.500000	-0.072397  
865.000000	-0.014037  
865.500000	0.032000   
866.000000	0.044187   
866.500000	0.019380   
867.000000	0.024055   
867.500000	0.036142   
868.000000	0.023682   
868.500000	0.048311   
869.000000	0.109855   
869.500000	0.167712   
870.000000	0.172797   
870.500000	0.175243   
871.000000	0.155506   
871.500000	0.079812   
872.000000	0.001753   
872.500000	-0.043233  
873.000000	-0.041096  
873.500000	-0.025866  
874.000000	0.015354   
874.500000	0.026732   
875.000000	0.004378   
875.500000	-0.026155  
876.000000	-0.049417  
876.500000	-0.053205  
877.000000	-0.005591  
877.500000	0.085070   
878.000000	0.169434   
878.500000	0.215178   
879.000000	0.212122   
879.500000	0.173103   
880.000000	0.104020   
880.500000	0.037760   
881.000000	0.012589   
881.500000	0.029534   
882.000000	0.050161   
882.500000	0.054820   
883.000000	0.061170   
883.500000	0.043829   
884.000000	-0.003784  
884.500000	-0.053128  
885.000000	-0.084332  
885.500000	-0.099367  
886.000000	-0.125424  
886.500000	-0.126803  
887.000000	-0.118033  
887.500000	-0.111692  
888.000000	-0.081827  
888.500000	-0.053237  
889.000000	0.001007   
889.500000	0.036979   
890.000000	0.069894   
890.500000	0.061159   
891.000000	0.027307   
891.500000	-0.003730  
892.000000	-0.067257  
892.500000	-0.087076  
893.000000	-0.107749  
893.500000	-0.098773  
894.000000	-0.104827  
894.500000	-0.121923  
895.000000	-0.128189  
895.500000	-0.164259  
896.000000	-0.164352  
896.500000	-0.167000  

