PE FL                   SPECTRUM    ASCII       PEDS        1.60        
  -1
S00393~1.SP
24/04/11
16:34:42.00
24/04/11
16:34:42.00
Jan

896.500000
1









LS55
405.00
5.00
5.00
SCAN
1
20
100
100
0
400
0
1
0
1
5
ON
736 405 
1 0 0
#HDR
-1
-1
#GR
NM

0.00002384185791015625
0.0
450.000000
0.500000
894
8
337.354703
-0.699000
#DATA
450.000000	-0.699000  
450.500000	-0.441441  
451.000000	-0.205389  
451.500000	-0.037664  
452.000000	0.061857   
452.500000	0.080534   
453.000000	0.088834   
453.500000	0.116675   
454.000000	0.128677   
454.500000	0.173165   
455.000000	0.219920   
455.500000	0.281276   
456.000000	0.270782   
456.500000	0.243031   
457.000000	0.183291   
457.500000	0.065326   
458.000000	-0.062300  
458.500000	-0.171508  
459.000000	-0.143679  
459.500000	-0.081589  
460.000000	0.011361   
460.500000	0.119007   
461.000000	0.193309   
461.500000	0.175612   
462.000000	0.075905   
462.500000	0.023554   
463.000000	-0.000575  
463.500000	-0.048063  
464.000000	-0.034936  
464.500000	0.007875   
465.000000	0.031076   
465.500000	0.041593   
466.000000	0.083701   
466.500000	0.182623   
467.000000	0.261886   
467.500000	0.348847   
468.000000	0.397486   
468.500000	0.388538   
469.000000	0.339283   
469.500000	0.272983   
470.000000	0.219747   
470.500000	0.189185   
471.000000	0.186406   
471.500000	0.199090   
472.000000	0.251515   
472.500000	0.296654   
473.000000	0.372586   
473.500000	0.403142   
474.000000	0.406302   
474.500000	0.393883   
475.000000	0.350949   
475.500000	0.333057   
476.000000	0.291810   
476.500000	0.315974   
477.000000	0.319602   
477.500000	0.295217   
478.000000	0.228024   
478.500000	0.156118   
479.000000	0.071014   
479.500000	0.005307   
480.000000	0.011014   
480.500000	0.022953   
481.000000	0.069788   
481.500000	0.097480   
482.000000	0.170141   
482.500000	0.191319   
483.000000	0.208209   
483.500000	0.217172   
484.000000	0.157064   
484.500000	0.092753   
485.000000	-0.003634  
485.500000	-0.013985  
486.000000	-0.006513  
486.500000	0.051474   
487.000000	0.136367   
487.500000	0.189716   
488.000000	0.188883   
488.500000	0.144907   
489.000000	0.100430   
489.500000	0.084974   
490.000000	0.095836   
490.500000	0.160996   
491.000000	0.267478   
491.500000	0.363890   
492.000000	0.420435   
492.500000	0.403736   
493.000000	0.340050   
493.500000	0.248385   
494.000000	0.168647   
494.500000	0.129317   
495.000000	0.087901   
495.500000	0.078742   
496.000000	0.065953   
496.500000	0.074463   
497.000000	0.111226   
497.500000	0.181265   
498.000000	0.288077   
498.500000	0.380189   
499.000000	0.456491   
499.500000	0.481018   
500.000000	0.451389   
500.500000	0.430406   
501.000000	0.418812   
501.500000	0.456716   
502.000000	0.518938   
502.500000	0.600671   
503.000000	0.667068   
503.500000	0.682233   
504.000000	0.681178   
504.500000	0.682085   
505.000000	0.664818   
505.500000	0.650421   
506.000000	0.657747   
506.500000	0.735432   
507.000000	0.824274   
507.500000	0.883586   
508.000000	0.944532   
508.500000	1.008493   
509.000000	1.069951   
509.500000	1.123556   
510.000000	1.203122   
510.500000	1.318332   
511.000000	1.355686   
511.500000	1.351066   
512.000000	1.367302   
512.500000	1.373092   
513.000000	1.404771   
513.500000	1.492126   
514.000000	1.702473   
514.500000	1.907795   
515.000000	2.077962   
515.500000	2.229523   
516.000000	2.310239   
516.500000	2.380144   
517.000000	2.393471   
517.500000	2.436115   
518.000000	2.452517   
518.500000	2.466651   
519.000000	2.498877   
519.500000	2.522805   
520.000000	2.604012   
520.500000	2.661120   
521.000000	2.715473   
521.500000	2.719877   
522.000000	2.727079   
522.500000	2.745274   
523.000000	2.776369   
523.500000	2.867040   
524.000000	3.008936   
524.500000	3.202784   
525.000000	3.337933   
525.500000	3.412044   
526.000000	3.508063   
526.500000	3.606625   
527.000000	3.706508   
527.500000	3.860779   
528.000000	4.102871   
528.500000	4.339591   
529.000000	4.554024   
529.500000	4.783133   
530.000000	4.998753   
530.500000	5.088803   
531.000000	5.195148   
531.500000	5.327330   
532.000000	5.455925   
532.500000	5.624909   
533.000000	5.886742   
533.500000	6.206222   
534.000000	6.409560   
534.500000	6.638847   
535.000000	6.900228   
535.500000	7.155897   
536.000000	7.454120   
536.500000	7.793387   
537.000000	8.274313   
537.500000	8.640823   
538.000000	8.930602   
538.500000	9.220382   
539.000000	9.498968   
539.500000	9.789243   
540.000000	10.113842  
540.500000	10.557567  
541.000000	11.023699  
541.500000	11.371220  
542.000000	11.651192  
542.500000	11.804513  
543.000000	11.830576  
543.500000	11.758454  
544.000000	11.665801  
544.500000	11.600235  
545.000000	11.547007  
545.500000	11.562174  
546.000000	11.529235  
546.500000	11.463664  
547.000000	11.307782  
547.500000	11.034267  
548.000000	10.700330  
548.500000	10.371998  
549.000000	10.201406  
549.500000	10.025300  
550.000000	9.998254   
550.500000	10.006328  
551.000000	10.011153  
551.500000	9.955261   
552.000000	9.916539   
552.500000	10.044090  
553.000000	10.146102  
553.500000	10.340109  
554.000000	10.565881  
554.500000	10.666243  
555.000000	10.580387  
555.500000	10.421580  
556.000000	10.343024  
556.500000	10.341975  
557.000000	10.458504  
557.500000	10.795756  
558.000000	11.210369  
558.500000	11.538332  
559.000000	11.790827  
559.500000	11.956339  
560.000000	12.118359  
560.500000	12.315873  
561.000000	12.664402  
561.500000	13.228361  
562.000000	13.877500  
562.500000	14.630326  
563.000000	15.379170  
563.500000	16.060293  
564.000000	16.635530  
564.500000	17.050706  
565.000000	17.427185  
565.500000	17.789089  
566.000000	18.211539  
566.500000	18.783230  
567.000000	19.422651  
567.500000	20.127656  
568.000000	20.699001  
568.500000	21.209764  
569.000000	21.761471  
569.500000	22.288439  
570.000000	23.000066  
570.500000	23.777079  
571.000000	24.703495  
571.500000	25.543653  
572.000000	26.344897  
572.500000	27.213053  
573.000000	28.023005  
573.500000	28.961602  
574.000000	29.825176  
574.500000	30.824126  
575.000000	31.574012  
575.500000	32.110415  
576.000000	32.462018  
576.500000	32.750426  
577.000000	33.166805  
577.500000	33.656113  
578.000000	34.483897  
578.500000	35.383528  
579.000000	36.343133  
579.500000	37.124471  
580.000000	37.850948  
580.500000	38.612586  
581.000000	39.130716  
581.500000	39.655677  
582.000000	40.271680  
582.500000	41.117194  
583.000000	41.866376  
583.500000	42.734361  
584.000000	44.016701  
584.500000	45.348126  
585.000000	46.545378  
585.500000	47.628077  
586.000000	48.728666  
586.500000	49.518059  
587.000000	50.134673  
587.500000	51.138717  
588.000000	52.556361  
588.500000	54.064072  
589.000000	55.731838  
589.500000	57.539003  
590.000000	59.114046  
590.500000	60.381513  
591.000000	61.649109  
591.500000	63.067191  
592.000000	64.439918  
592.500000	65.966482  
593.000000	67.682677  
593.500000	69.258979  
594.000000	70.597571  
594.500000	71.911606  
595.000000	73.230829  
595.500000	74.514447  
596.000000	75.791643  
596.500000	77.502465  
597.000000	79.292128  
597.500000	81.048029  
598.000000	82.820291  
598.500000	84.505109  
599.000000	86.347771  
599.500000	88.079055  
600.000000	90.016532  
600.500000	92.329447  
601.000000	94.909847  
601.500000	97.432404  
602.000000	99.497552  
602.500000	101.436502 
603.000000	103.026753 
603.500000	104.399812 
604.000000	106.248697 
604.500000	108.587035 
605.000000	111.242792 
605.500000	114.001821 
606.000000	116.857651 
606.500000	119.612814 
607.000000	122.176387 
607.500000	124.954480 
608.000000	128.010886 
608.500000	131.221975 
609.000000	134.471831 
609.500000	137.729643 
610.000000	140.531061 
610.500000	143.171497 
611.000000	145.838437 
611.500000	148.744139 
612.000000	152.056124 
612.500000	155.502690 
613.000000	159.185975 
613.500000	162.557217 
614.000000	165.713057 
614.500000	168.438606 
615.000000	170.940376 
615.500000	173.853883 
616.000000	176.904426 
616.500000	180.354113 
617.000000	183.975671 
617.500000	187.624105 
618.000000	190.945016 
618.500000	194.328166 
619.000000	197.807593 
619.500000	201.255207 
620.000000	204.881413 
620.500000	208.997682 
621.000000	213.260985 
621.500000	217.214777 
622.000000	221.260675 
622.500000	225.130541 
623.000000	228.731582 
623.500000	231.916241 
624.000000	235.437564 
624.500000	239.003053 
625.000000	242.605157 
625.500000	246.388243 
626.000000	250.224046 
626.500000	253.849413 
627.000000	257.311495 
627.500000	261.019651 
628.000000	264.768649 
628.500000	268.585523 
629.000000	272.448768 
629.500000	276.375966 
630.000000	279.996794 
630.500000	283.442111 
631.000000	286.840977 
631.500000	290.276102 
632.000000	293.199380 
632.500000	295.890673 
633.000000	298.671309 
633.500000	301.549933 
634.000000	304.679966 
634.500000	307.952204 
635.000000	311.422961 
635.500000	314.295283 
636.000000	316.714528 
636.500000	318.885092 
637.000000	320.893632 
637.500000	322.776213 
638.000000	324.814974 
638.500000	326.851291 
639.000000	328.260395 
639.500000	329.206784 
640.000000	330.051100 
640.500000	331.081977 
641.000000	332.000779 
641.500000	333.071565 
642.000000	334.169925 
642.500000	334.908109 
643.000000	335.379020 
643.500000	335.680994 
644.000000	336.279833 
644.500000	336.738287 
645.000000	337.112716 
645.500000	337.210873 
646.000000	337.154868 
646.500000	337.354703 
647.000000	337.090860 
647.500000	336.911686 
648.000000	336.901254 
648.500000	336.986460 
649.000000	336.319758 
649.500000	335.094599 
650.000000	333.721762 
650.500000	331.914237 
651.000000	329.683217 
651.500000	327.487333 
652.000000	325.758816 
652.500000	323.703682 
653.000000	321.401619 
653.500000	319.170738 
654.000000	316.925189 
654.500000	314.473113 
655.000000	312.236996 
655.500000	310.397803 
656.000000	308.185909 
656.500000	305.087745 
657.000000	301.510623 
657.500000	297.726415 
658.000000	293.925285 
658.500000	290.437014 
659.000000	287.253278 
659.500000	284.337723 
660.000000	280.819333 
660.500000	276.919664 
661.000000	272.597402 
661.500000	268.428220 
662.000000	264.617775 
662.500000	260.832187 
663.000000	257.237805 
663.500000	253.165638 
664.000000	248.547794 
664.500000	243.269740 
665.000000	238.239280 
665.500000	233.614853 
666.000000	229.416265 
666.500000	225.555769 
667.000000	221.990964 
667.500000	218.321935 
668.000000	213.977951 
668.500000	209.342773 
669.000000	204.247452 
669.500000	199.057092 
670.000000	193.630285 
670.500000	188.599569 
671.000000	183.714102 
671.500000	178.928371 
672.000000	174.639077 
672.500000	170.493946 
673.000000	166.550743 
673.500000	162.522239 
674.000000	158.834506 
674.500000	154.930988 
675.000000	150.763905 
675.500000	146.765141 
676.000000	142.793953 
676.500000	138.777454 
677.000000	134.893714 
677.500000	131.485656 
678.000000	128.344977 
678.500000	125.136319 
679.000000	122.172332 
679.500000	119.253473 
680.000000	116.036740 
680.500000	112.626165 
681.000000	109.211710 
681.500000	106.261525 
682.000000	103.266050 
682.500000	100.447549 
683.000000	97.791692  
683.500000	95.181905  
684.000000	92.466111  
684.500000	89.557341  
685.000000	86.943428  
685.500000	84.311500  
686.000000	81.735530  
686.500000	79.235148  
687.000000	76.843762  
687.500000	74.480215  
688.000000	72.167760  
688.500000	70.078712  
689.000000	68.107647  
689.500000	66.324092  
690.000000	64.613606  
690.500000	62.745536  
691.000000	60.901233  
691.500000	59.241519  
692.000000	57.684282  
692.500000	56.167567  
693.000000	54.739296  
693.500000	53.472853  
694.000000	52.004578  
694.500000	50.502426  
695.000000	49.079183  
695.500000	47.717871  
696.000000	46.244539  
696.500000	44.730408  
697.000000	43.299007  
697.500000	41.762588  
698.000000	40.291582  
698.500000	39.084643  
699.000000	38.139322  
699.500000	37.303359  
700.000000	36.542604  
700.500000	35.684536  
701.000000	34.760161  
701.500000	33.759024  
702.000000	32.788092  
702.500000	31.942706  
703.000000	31.153250  
703.500000	30.469825  
704.000000	29.744465  
704.500000	28.946007  
705.000000	28.005855  
705.500000	27.024478  
706.000000	26.271172  
706.500000	25.702823  
707.000000	25.278332  
707.500000	25.013834  
708.000000	24.748411  
708.500000	24.408161  
709.000000	23.785038  
709.500000	23.137777  
710.000000	22.420332  
710.500000	21.674612  
711.000000	21.121742  
711.500000	20.652246  
712.000000	20.361063  
712.500000	19.935996  
713.000000	19.542569  
713.500000	19.170972  
714.000000	18.865664  
714.500000	18.616100  
715.000000	18.327421  
715.500000	18.182181  
716.000000	17.946775  
716.500000	17.579751  
717.000000	17.125892  
717.500000	16.658545  
718.000000	16.210975  
718.500000	15.718727  
719.000000	15.402155  
719.500000	15.152076  
720.000000	14.855823  
720.500000	14.534549  
721.000000	14.271345  
721.500000	14.022055  
722.000000	13.681619  
722.500000	13.386623  
723.000000	13.128487  
723.500000	12.806500  
724.000000	12.466510  
724.500000	12.226250  
725.000000	12.030246  
725.500000	11.822632  
726.000000	11.669118  
726.500000	11.547786  
727.000000	11.380916  
727.500000	11.113044  
728.000000	10.942855  
728.500000	10.735677  
729.000000	10.549350  
729.500000	10.397267  
730.000000	10.276287  
730.500000	10.111261  
731.000000	9.785897   
731.500000	9.519395   
732.000000	9.251174   
732.500000	9.099894   
733.000000	9.087526   
733.500000	9.112933   
734.000000	9.149072   
734.500000	9.042274   
735.000000	8.794892   
735.500000	8.369740   
736.000000	7.945038   
736.500000	7.629450   
737.000000	7.462152   
737.500000	7.463679   
738.000000	7.589723   
738.500000	7.694011   
739.000000	7.684541   
739.500000	7.600025   
740.000000	7.441111   
740.500000	7.265387   
741.000000	7.130610   
741.500000	7.078322   
742.000000	7.042443   
742.500000	7.028450   
743.000000	7.013474   
743.500000	6.909710   
744.000000	6.789983   
744.500000	6.697204   
745.000000	6.680784   
745.500000	6.618567   
746.000000	6.588619   
746.500000	6.505500   
747.000000	6.374406   
747.500000	6.258931   
748.000000	6.155576   
748.500000	6.136298   
749.000000	6.037350   
749.500000	5.977957   
750.000000	5.852048   
750.500000	5.716085   
751.000000	5.636858   
751.500000	5.616020   
752.000000	5.715085   
752.500000	5.787907   
753.000000	5.824293   
753.500000	5.776211   
754.000000	5.690474   
754.500000	5.568775   
755.000000	5.443456   
755.500000	5.340810   
756.000000	5.228289   
756.500000	4.989721   
757.000000	4.765987   
757.500000	4.659808   
758.000000	4.628539   
758.500000	4.658077   
759.000000	4.765981   
759.500000	4.947011   
760.000000	4.994512   
760.500000	4.958586   
761.000000	4.945892   
761.500000	4.921358   
762.000000	4.880684   
762.500000	4.847931   
763.000000	4.864269   
763.500000	4.824842   
764.000000	4.760897   
764.500000	4.742207   
765.000000	4.739781   
765.500000	4.706593   
766.000000	4.652363   
766.500000	4.591647   
767.000000	4.449285   
767.500000	4.251311   
768.000000	4.053074   
768.500000	3.850306   
769.000000	3.683224   
769.500000	3.569163   
770.000000	3.566899   
770.500000	3.559367   
771.000000	3.588564   
771.500000	3.671910   
772.000000	3.766038   
772.500000	3.837063   
773.000000	3.835027   
773.500000	3.842487   
774.000000	3.794664   
774.500000	3.707545   
775.000000	3.640697   
775.500000	3.570630   
776.000000	3.536144   
776.500000	3.489610   
777.000000	3.449766   
777.500000	3.410730   
778.000000	3.335534   
778.500000	3.238964   
779.000000	3.173771   
779.500000	3.158675   
780.000000	3.184072   
780.500000	3.196775   
781.000000	3.225528   
781.500000	3.247614   
782.000000	3.242679   
782.500000	3.247133   
783.000000	3.233274   
783.500000	3.196115   
784.000000	3.125957   
784.500000	3.055526   
785.000000	2.988636   
785.500000	2.902423   
786.000000	2.913328   
786.500000	2.980263   
787.000000	3.062621   
787.500000	3.148669   
788.000000	3.219649   
788.500000	3.250998   
789.000000	3.143903   
789.500000	3.050411   
790.000000	2.964187   
790.500000	2.863666   
791.000000	2.788213   
791.500000	2.773022   
792.000000	2.830758   
792.500000	2.887868   
793.000000	2.918391   
793.500000	2.914777   
794.000000	2.852122   
794.500000	2.766823   
795.000000	2.719773   
795.500000	2.683367   
796.000000	2.721810   
796.500000	2.766094   
797.000000	2.783269   
797.500000	2.751946   
798.000000	2.669267   
798.500000	2.610764   
799.000000	2.491037   
799.500000	2.409339   
800.000000	2.367142   
800.500000	2.320664   
801.000000	2.331862   
801.500000	2.388382   
802.000000	2.495011   
802.500000	2.608877   
803.000000	2.643215   
803.500000	2.599222   
804.000000	2.426367   
804.500000	2.214773   
805.000000	2.054855   
805.500000	1.927951   
806.000000	1.892014   
806.500000	1.927549   
807.000000	1.972632   
807.500000	1.977042   
808.000000	1.971588   
808.500000	2.052187   
809.000000	2.094077   
809.500000	2.118578   
810.000000	2.150135   
810.500000	2.141337   
811.000000	2.061372   
811.500000	1.927350   
812.000000	1.873209   
812.500000	1.848968   
813.000000	1.843549   
813.500000	1.884775   
814.000000	1.928504   
814.500000	1.888467   
815.000000	1.824107   
815.500000	1.804864   
816.000000	1.820858   
816.500000	1.861090   
817.000000	1.935584   
817.500000	2.012001   
818.000000	1.991510   
818.500000	1.995576   
819.000000	1.973495   
819.500000	1.971181   
820.000000	1.999144   
820.500000	2.098259   
821.000000	2.226346   
821.500000	2.286027   
822.000000	2.388719   
822.500000	2.456532   
823.000000	2.560276   
823.500000	2.645486   
824.000000	2.719486   
824.500000	2.760014   
825.000000	2.741246   
825.500000	2.725250   
826.000000	2.635172   
826.500000	2.574487   
827.000000	2.496543   
827.500000	2.383896   
828.000000	2.263499   
828.500000	2.182133   
829.000000	2.087556   
829.500000	1.955526   
830.000000	1.851204   
830.500000	1.787808   
831.000000	1.695896   
831.500000	1.594701   
832.000000	1.567200   
832.500000	1.517634   
833.000000	1.445890   
833.500000	1.338374   
834.000000	1.246920   
834.500000	1.124530   
835.000000	0.991758   
835.500000	0.942397   
836.000000	0.920658   
836.500000	0.938478   
837.000000	0.967903   
837.500000	1.023727   
838.000000	1.059987   
838.500000	1.067823   
839.000000	1.059909   
839.500000	1.029083   
840.000000	0.967293   
840.500000	0.901866   
841.000000	0.828593   
841.500000	0.752730   
842.000000	0.707474   
842.500000	0.702595   
843.000000	0.686589   
843.500000	0.667385   
844.000000	0.660692   
844.500000	0.609320   
845.000000	0.560285   
845.500000	0.510267   
846.000000	0.493124   
846.500000	0.476825   
847.000000	0.497025   
847.500000	0.567589   
848.000000	0.591116   
848.500000	0.622014   
849.000000	0.601408   
849.500000	0.542226   
850.000000	0.428359   
850.500000	0.306417   
851.000000	0.206576   
851.500000	0.090150   
852.000000	0.028831   
852.500000	-0.002755  
853.000000	0.005070   
853.500000	0.036244   
854.000000	0.097545   
854.500000	0.156398   
855.000000	0.179549   
855.500000	0.193020   
856.000000	0.172098   
856.500000	0.161057   
857.000000	0.153602   
857.500000	0.185638   
858.000000	0.219040   
858.500000	0.221254   
859.000000	0.187454   
859.500000	0.122142   
860.000000	0.042992   
860.500000	-0.030860  
861.000000	-0.052343  
861.500000	-0.022029  
862.000000	0.009135   
862.500000	0.031376   
863.000000	0.067957   
863.500000	0.074810   
864.000000	0.066833   
864.500000	0.031749   
865.000000	-0.001742  
865.500000	-0.056408  
866.000000	-0.119632  
866.500000	-0.147699  
867.000000	-0.181187  
867.500000	-0.182818  
868.000000	-0.187909  
868.500000	-0.172124  
869.000000	-0.174927  
869.500000	-0.164139  
870.000000	-0.119541  
870.500000	-0.051682  
871.000000	0.054432   
871.500000	0.145369   
872.000000	0.218293   
872.500000	0.228426   
873.000000	0.180846   
873.500000	0.095589   
874.000000	0.008593   
874.500000	-0.040469  
875.000000	-0.065525  
875.500000	-0.058426  
876.000000	-0.036270  
876.500000	-0.034367  
877.000000	-0.073519  
877.500000	-0.118933  
878.000000	-0.136233  
878.500000	-0.127243  
879.000000	-0.107795  
879.500000	-0.061443  
880.000000	-0.013456  
880.500000	0.003604   
881.000000	-0.009677  
881.500000	-0.025512  
882.000000	-0.026204  
882.500000	-0.018037  
883.000000	-0.025220  
883.500000	-0.019510  
884.000000	-0.036983  
884.500000	-0.072048  
885.000000	-0.091102  
885.500000	-0.070638  
886.000000	-0.022096  
886.500000	0.010782   
887.000000	0.066220   
887.500000	0.105428   
888.000000	0.105966   
888.500000	0.080851   
889.000000	0.080634   
889.500000	0.063059   
890.000000	0.028163   
890.500000	-0.021821  
891.000000	-0.067964  
891.500000	-0.127578  
892.000000	-0.196179  
892.500000	-0.222562  
893.000000	-0.247181  
893.500000	-0.220586  
894.000000	-0.182591  
894.500000	-0.109239  
895.000000	-0.010374  
895.500000	0.076680   
896.000000	0.137061   
896.500000	0.123862   

