PE FL                   SPECTRUM    ASCII       PEDS        1.60        
  -1
S013CB~1.SP
24/04/11
17:11:47.00
24/04/11
17:11:47.00
Jan

896.500000
1









LS55
405.00
5.00
5.00
SCAN
1
20
100
100
0
400
0
1
0
1
5
ON
736 405 
1 0 0
#HDR
-1
-1
#GR
NM

0.00002384185791015625
0.0
450.000000
0.500000
894
8
322.161057
-0.333000
#DATA
450.000000	-0.333000  
450.500000	-0.265038  
451.000000	-0.203721  
451.500000	-0.145020  
452.000000	-0.024378  
452.500000	0.039554   
453.000000	0.097556   
453.500000	0.123842   
454.000000	0.102053   
454.500000	0.050024   
455.000000	0.009836   
455.500000	0.036374   
456.000000	0.085289   
456.500000	0.172382   
457.000000	0.284905   
457.500000	0.357215   
458.000000	0.353487   
458.500000	0.345647   
459.000000	0.283192   
459.500000	0.186987   
460.000000	0.078057   
460.500000	-0.004777  
461.000000	-0.055866  
461.500000	-0.120823  
462.000000	-0.099556  
462.500000	-0.055443  
463.000000	0.009211   
463.500000	0.060701   
464.000000	0.090090   
464.500000	0.132654   
465.000000	0.095808   
465.500000	0.099556   
466.000000	0.106866   
466.500000	0.130482   
467.000000	0.139677   
467.500000	0.099146   
468.000000	0.069000   
468.500000	-0.012005  
469.000000	-0.086899  
469.500000	-0.128647  
470.000000	-0.081022  
470.500000	-0.006126  
471.000000	0.079907   
471.500000	0.203975   
472.000000	0.285569   
472.500000	0.342705   
473.000000	0.329890   
473.500000	0.299842   
474.000000	0.193246   
474.500000	0.059218   
475.000000	-0.072406  
475.500000	-0.169359  
476.000000	-0.163432  
476.500000	-0.131803  
477.000000	-0.073730  
477.500000	-0.040779  
478.000000	-0.017558  
478.500000	-0.022152  
479.000000	-0.081805  
479.500000	-0.095962  
480.000000	-0.106285  
480.500000	-0.099669  
481.000000	-0.111294  
481.500000	-0.099684  
482.000000	-0.085946  
482.500000	-0.101732  
483.000000	-0.097471  
483.500000	-0.072053  
484.000000	-0.010768  
484.500000	0.056434   
485.000000	0.111350   
485.500000	0.162243   
486.000000	0.184714   
486.500000	0.161779   
487.000000	0.097695   
487.500000	0.067988   
488.000000	0.079434   
488.500000	0.138092   
489.000000	0.233797   
489.500000	0.354005   
490.000000	0.457358   
490.500000	0.478474   
491.000000	0.456541   
491.500000	0.408333   
492.000000	0.330070   
492.500000	0.241844   
493.000000	0.153224   
493.500000	0.101601   
494.000000	0.035886   
494.500000	0.003155   
495.000000	-0.010031  
495.500000	-0.026920  
496.000000	-0.013096  
496.500000	0.030703   
497.000000	0.139612   
497.500000	0.268070   
498.000000	0.407051   
498.500000	0.502387   
499.000000	0.499695   
499.500000	0.448573   
500.000000	0.358755   
500.500000	0.309413   
501.000000	0.320955   
501.500000	0.425853   
502.000000	0.569877   
502.500000	0.677729   
503.000000	0.757474   
503.500000	0.792972   
504.000000	0.812159   
504.500000	0.841129   
505.000000	0.878853   
505.500000	0.925625   
506.000000	0.923356   
506.500000	0.905033   
507.000000	0.876111   
507.500000	0.847435   
508.000000	0.838842   
508.500000	0.858029   
509.000000	0.930912   
509.500000	1.026285   
510.000000	1.147224   
510.500000	1.322682   
511.000000	1.459641   
511.500000	1.594228   
512.000000	1.698619   
512.500000	1.797794   
513.000000	1.847942   
513.500000	1.855829   
514.000000	1.932901   
514.500000	1.989252   
515.000000	2.089181   
515.500000	2.205400   
516.000000	2.375914   
516.500000	2.532317   
517.000000	2.612755   
517.500000	2.717196   
518.000000	2.746636   
518.500000	2.761940   
519.000000	2.746792   
519.500000	2.772057   
520.000000	2.818064   
520.500000	2.820619   
521.000000	2.810834   
521.500000	2.797495   
522.000000	2.799695   
522.500000	2.826424   
523.000000	2.871877   
523.500000	2.945779   
524.000000	3.000918   
524.500000	3.036734   
525.000000	3.119884   
525.500000	3.275654   
526.000000	3.512087   
526.500000	3.791922   
527.000000	4.173146   
527.500000	4.536927   
528.000000	4.835736   
528.500000	5.077820   
529.000000	5.194079   
529.500000	5.220987   
530.000000	5.146985   
530.500000	5.164287   
531.000000	5.168417   
531.500000	5.277393   
532.000000	5.557714   
532.500000	5.913556   
533.000000	6.287224   
533.500000	6.622309   
534.000000	7.041745   
534.500000	7.291192   
535.000000	7.465100   
535.500000	7.635324   
536.000000	7.778907   
536.500000	7.901636   
537.000000	8.150666   
537.500000	8.624278   
538.000000	9.177940   
538.500000	9.810248   
539.000000	10.401434  
539.500000	10.953113  
540.000000	11.317556  
540.500000	11.617636  
541.000000	11.882235  
541.500000	12.157512  
542.000000	12.488079  
542.500000	12.649790  
543.000000	12.736866  
543.500000	12.634743  
544.000000	12.428794  
544.500000	12.072636  
545.000000	11.744276  
545.500000	11.568517  
546.000000	11.366196  
546.500000	11.311957  
547.000000	11.267100  
547.500000	11.286905  
548.000000	11.183688  
548.500000	11.033135  
549.000000	10.855714  
549.500000	10.568497  
550.000000	10.342018  
550.500000	10.153701  
551.000000	10.075567  
551.500000	10.033092  
552.000000	10.061313  
552.500000	10.121059  
553.000000	10.039324  
553.500000	9.972246   
554.000000	9.933371   
554.500000	9.919423   
555.000000	10.088614  
555.500000	10.372627  
556.000000	10.795081  
556.500000	11.146925  
557.000000	11.543833  
557.500000	11.968296  
558.000000	12.225313  
558.500000	12.552523  
559.000000	12.885226  
559.500000	13.278671  
560.000000	13.564571  
560.500000	13.875949  
561.000000	14.336890  
561.500000	14.746955  
562.000000	15.189415  
562.500000	15.725437  
563.000000	16.320087  
563.500000	16.830560  
564.000000	17.217441  
564.500000	17.709743  
565.000000	18.173881  
565.500000	18.483658  
566.000000	18.784345  
566.500000	19.104133  
567.000000	19.484903  
567.500000	19.907619  
568.000000	20.538014  
568.500000	21.359773  
569.000000	22.143454  
569.500000	22.945111  
570.000000	23.598320  
570.500000	24.136307  
571.000000	24.637306  
571.500000	25.224434  
572.000000	25.908254  
572.500000	26.601534  
573.000000	27.454968  
573.500000	28.192282  
574.000000	28.731788  
574.500000	29.267853  
575.000000	29.823690  
575.500000	30.384211  
576.000000	31.010827  
576.500000	31.964333  
577.000000	33.002762  
577.500000	33.938393  
578.000000	34.884122  
578.500000	35.737595  
579.000000	36.451473  
579.500000	36.957183  
580.000000	37.567853  
580.500000	38.280133  
581.000000	39.047189  
581.500000	40.002172  
582.000000	41.026653  
582.500000	42.173378  
583.000000	43.277532  
583.500000	44.403710  
584.000000	45.510358  
584.500000	46.559400  
585.000000	47.583055  
585.500000	48.526001  
586.000000	49.602141  
586.500000	50.610591  
587.000000	51.862775  
587.500000	53.345662  
588.000000	54.972680  
588.500000	56.707272  
589.000000	58.688243  
589.500000	60.808727  
590.000000	62.557087  
590.500000	64.146250  
591.000000	65.564998  
591.500000	66.588521  
592.000000	67.196614  
592.500000	67.987717  
593.000000	69.178352  
593.500000	70.553456  
594.000000	72.228185  
594.500000	74.252606  
595.000000	76.298376  
595.500000	77.919959  
596.000000	79.452439  
596.500000	80.981256  
597.000000	82.712708  
597.500000	84.569385  
598.000000	86.828842  
598.500000	89.281307  
599.000000	91.407562  
599.500000	93.419988  
600.000000	95.219126  
600.500000	97.165376  
601.000000	99.144040  
601.500000	101.444102 
602.000000	104.055938 
602.500000	106.630955 
603.000000	109.112055 
603.500000	111.264801 
604.000000	113.274339 
604.500000	115.120365 
605.000000	117.010038 
605.500000	119.160602 
606.000000	121.658027 
606.500000	124.467834 
607.000000	127.632343 
607.500000	131.015320 
608.000000	134.455120 
608.500000	137.622443 
609.000000	140.612649 
609.500000	143.483322 
610.000000	146.338974 
610.500000	149.443205 
611.000000	152.667660 
611.500000	155.948957 
612.000000	159.074554 
612.500000	162.153254 
613.000000	165.149413 
613.500000	168.243365 
614.000000	171.486840 
614.500000	175.105833 
615.000000	178.898252 
615.500000	182.923148 
616.000000	186.935478 
616.500000	190.773599 
617.000000	194.459858 
617.500000	197.601497 
618.000000	200.587346 
618.500000	203.438769 
619.000000	206.343294 
619.500000	209.313157 
620.000000	212.525649 
620.500000	216.128395 
621.000000	219.980985 
621.500000	224.113987 
622.000000	228.525855 
622.500000	232.744450 
623.000000	236.574306 
623.500000	239.882090 
624.000000	242.679226 
624.500000	245.428135 
625.000000	248.405358 
625.500000	251.784697 
626.000000	255.456296 
626.500000	259.506447 
627.000000	263.528825 
627.500000	266.895649 
628.000000	269.646307 
628.500000	272.515634 
629.000000	275.343450 
629.500000	278.165426 
630.000000	281.256038 
630.500000	284.465755 
631.000000	287.961827 
631.500000	290.931833 
632.000000	294.134322 
632.500000	297.313339 
633.000000	300.246122 
633.500000	302.997302 
634.000000	305.124246 
634.500000	307.128929 
635.000000	308.583120 
635.500000	309.694833 
636.000000	311.070181 
636.500000	312.597990 
637.000000	314.603153 
637.500000	316.353987 
638.000000	317.878875 
638.500000	319.207595 
639.000000	319.964230 
639.500000	320.722920 
640.000000	321.259016 
640.500000	321.794398 
641.000000	322.161057 
641.500000	322.006851 
642.000000	321.644189 
642.500000	320.853302 
643.000000	320.028923 
643.500000	319.307218 
644.000000	318.741497 
644.500000	318.326508 
645.000000	317.752602 
645.500000	317.140157 
646.000000	316.581244 
646.500000	316.023000 
647.000000	315.338578 
647.500000	314.453183 
648.000000	313.212719 
648.500000	311.359901 
649.000000	309.292541 
649.500000	307.165602 
650.000000	305.113909 
650.500000	303.112300 
651.000000	301.096749 
651.500000	299.171860 
652.000000	296.865805 
652.500000	294.652397 
653.000000	292.430910 
653.500000	289.995903 
654.000000	287.155280 
654.500000	283.917174 
655.000000	280.395582 
655.500000	276.211897 
656.000000	272.216562 
656.500000	268.690122 
657.000000	265.706818 
657.500000	262.671103 
658.000000	259.414209 
658.500000	255.942977 
659.000000	251.809439 
659.500000	247.590705 
660.000000	243.217517 
660.500000	239.293124 
661.000000	235.033760 
661.500000	230.493779 
662.000000	225.828035 
662.500000	220.911614 
663.000000	216.331517 
663.500000	212.055714 
664.000000	208.321090 
664.500000	204.726831 
665.000000	200.882558 
665.500000	196.816760 
666.000000	192.377471 
666.500000	187.746988 
667.000000	183.503432 
667.500000	179.157406 
668.000000	174.832094 
668.500000	170.344701 
669.000000	165.737855 
669.500000	161.258753 
670.000000	156.906263 
670.500000	153.282502 
671.000000	149.490294 
671.500000	145.611964 
672.000000	141.720584 
672.500000	137.718723 
673.000000	133.865461 
673.500000	130.113595 
674.000000	126.832432 
674.500000	123.255092 
675.000000	119.526814 
675.500000	116.039766 
676.000000	112.593387 
676.500000	109.381230 
677.000000	106.493962 
677.500000	103.925667 
678.000000	101.266128 
678.500000	98.446799  
679.000000	95.649853  
679.500000	92.820404  
680.000000	90.005250  
680.500000	87.510126  
681.000000	85.043591  
681.500000	82.471682  
682.000000	79.875280  
682.500000	77.347703  
683.000000	75.060478  
683.500000	72.745024  
684.000000	70.819280  
684.500000	68.754179  
685.000000	66.589929  
685.500000	64.612840  
686.000000	62.701269  
686.500000	60.986732  
687.000000	59.270716  
687.500000	57.856551  
688.000000	56.360645  
688.500000	54.661541  
689.000000	53.111300  
689.500000	51.663007  
690.000000	50.404521  
690.500000	49.252677  
691.000000	48.184836  
691.500000	46.921467  
692.000000	45.422693  
692.500000	43.977588  
693.000000	42.495163  
693.500000	41.094662  
694.000000	40.018300  
694.500000	39.138402  
695.000000	38.165810  
695.500000	37.059651  
696.000000	36.036274  
696.500000	34.866306  
697.000000	33.557627  
697.500000	32.425948  
698.000000	31.531061  
698.500000	30.658050  
699.000000	29.798428  
699.500000	29.089723  
700.000000	28.461345  
700.500000	27.693391  
701.000000	26.911705  
701.500000	26.226764  
702.000000	25.592231  
702.500000	25.034137  
703.000000	24.445087  
703.500000	23.881608  
704.000000	23.153103  
704.500000	22.313460  
705.000000	21.466688  
705.500000	20.714857  
706.000000	20.180061  
706.500000	19.857079  
707.000000	19.770486  
707.500000	19.765727  
708.000000	19.637736  
708.500000	19.395779  
709.000000	19.037452  
709.500000	18.691489  
710.000000	18.322951  
710.500000	18.016376  
711.000000	17.807103  
711.500000	17.552109  
712.000000	17.243502  
712.500000	16.772871  
713.000000	16.342615  
713.500000	15.864480  
714.000000	15.494944  
714.500000	15.262187  
715.000000	15.022588  
715.500000	14.809940  
716.000000	14.430328  
716.500000	14.066094  
717.000000	13.591658  
717.500000	13.182677  
718.000000	12.922614  
718.500000	12.752426  
719.000000	12.644116  
719.500000	12.463829  
720.000000	12.259502  
720.500000	11.918001  
721.000000	11.565282  
721.500000	11.264909  
722.000000	11.035296  
722.500000	10.806133  
723.000000	10.610499  
723.500000	10.460847  
724.000000	10.275740  
724.500000	10.151012  
725.000000	10.025705  
725.500000	9.955584   
726.000000	9.887285   
726.500000	9.810272   
727.000000	9.754777   
727.500000	9.619003   
728.000000	9.500853   
728.500000	9.371578   
729.000000	9.232406   
729.500000	9.103905   
730.000000	8.931677   
730.500000	8.752888   
731.000000	8.507539   
731.500000	8.295452   
732.000000	8.101359   
732.500000	7.971159   
733.000000	7.929452   
733.500000	7.898907   
734.000000	7.889651   
734.500000	7.803243   
735.000000	7.743369   
735.500000	7.652493   
736.000000	7.619128   
736.500000	7.623922   
737.000000	7.658764   
737.500000	7.669423   
738.000000	7.549447   
738.500000	7.421187   
739.000000	7.274729   
739.500000	7.134430   
740.000000	7.010189   
740.500000	6.947144   
741.000000	6.871875   
741.500000	6.726944   
742.000000	6.570547   
742.500000	6.431528   
743.000000	6.308614   
743.500000	6.248046   
744.000000	6.259089   
744.500000	6.274988   
745.000000	6.253074   
745.500000	6.149543   
746.000000	5.983968   
746.500000	5.794771   
747.000000	5.655719   
747.500000	5.582545   
748.000000	5.558513   
748.500000	5.599115   
749.000000	5.606645   
749.500000	5.511504   
750.000000	5.331658   
750.500000	5.166011   
751.000000	5.039784   
751.500000	4.938098   
752.000000	4.923432   
752.500000	4.965372   
753.000000	5.033955   
753.500000	5.067306   
754.000000	5.076966   
754.500000	5.100795   
755.000000	5.101450   
755.500000	5.029857   
756.000000	4.934250   
756.500000	4.795975   
757.000000	4.598486   
757.500000	4.387196   
758.000000	4.238695   
758.500000	4.241207   
759.000000	4.306857   
759.500000	4.407092   
760.000000	4.470246   
760.500000	4.480300   
761.000000	4.413294   
761.500000	4.253983   
762.000000	4.110573   
762.500000	4.025233   
763.000000	4.011224   
763.500000	4.029421   
764.000000	4.066072   
764.500000	4.119059   
765.000000	4.181794   
765.500000	4.232022   
766.000000	4.298191   
766.500000	4.353215   
767.000000	4.380445   
767.500000	4.328729   
768.000000	4.184105   
768.500000	4.039996   
769.000000	3.874111   
769.500000	3.703287   
770.000000	3.587270   
770.500000	3.580133   
771.000000	3.614033   
771.500000	3.601313   
772.000000	3.608072   
772.500000	3.611363   
773.000000	3.571358   
773.500000	3.488530   
774.000000	3.416545   
774.500000	3.362152   
775.000000	3.260183   
775.500000	3.153758   
776.000000	3.059161   
776.500000	3.029868   
777.000000	3.028981   
777.500000	3.040057   
778.000000	3.083925   
778.500000	3.120816   
779.000000	3.137461   
779.500000	3.099406   
780.000000	3.078486   
780.500000	3.091910   
781.000000	3.090332   
781.500000	3.071510   
782.000000	3.056938   
782.500000	3.052966   
783.000000	3.017432   
783.500000	2.977948   
784.000000	3.005215   
784.500000	3.075857   
785.000000	3.113424   
785.500000	3.132847   
786.000000	3.124153   
786.500000	3.094128   
787.000000	2.995732   
787.500000	2.919699   
788.000000	2.900979   
788.500000	2.895506   
789.000000	2.919163   
789.500000	2.935038   
790.000000	2.958441   
790.500000	2.921818   
791.000000	2.876983   
791.500000	2.848040   
792.000000	2.816155   
792.500000	2.779905   
793.000000	2.741382   
793.500000	2.730148   
794.000000	2.693293   
794.500000	2.678105   
795.000000	2.673961   
795.500000	2.689378   
796.000000	2.695653   
796.500000	2.685725   
797.000000	2.665224   
797.500000	2.608456   
798.000000	2.575222   
798.500000	2.543502   
799.000000	2.560545   
799.500000	2.613057   
800.000000	2.666031   
800.500000	2.698842   
801.000000	2.680083   
801.500000	2.657309   
802.000000	2.569567   
802.500000	2.467771   
803.000000	2.402894   
803.500000	2.357951   
804.000000	2.308252   
804.500000	2.255651   
805.000000	2.254794   
805.500000	2.249129   
806.000000	2.230871   
806.500000	2.236808   
807.000000	2.237191   
807.500000	2.218469   
808.000000	2.169545   
808.500000	2.140788   
809.000000	2.091807   
809.500000	2.017250   
810.000000	1.955179   
810.500000	1.909235   
811.000000	1.895207   
811.500000	1.904532   
812.000000	1.969198   
812.500000	2.018471   
813.000000	2.048269   
813.500000	2.024636   
814.000000	1.935185   
814.500000	1.822669   
815.000000	1.686569   
815.500000	1.598966   
816.000000	1.558400   
816.500000	1.571692   
817.000000	1.663226   
817.500000	1.774491   
818.000000	1.914111   
818.500000	2.044844   
819.000000	2.135738   
819.500000	2.214439   
820.000000	2.240905   
820.500000	2.308591   
821.000000	2.351243   
821.500000	2.404858   
822.000000	2.478547   
822.500000	2.539474   
823.000000	2.604408   
823.500000	2.606732   
824.000000	2.642786   
824.500000	2.612556   
825.000000	2.531497   
825.500000	2.449350   
826.000000	2.410797   
826.500000	2.380346   
827.000000	2.328779   
827.500000	2.289441   
828.000000	2.173508   
828.500000	1.984254   
829.000000	1.759513   
829.500000	1.600554   
830.000000	1.476571   
830.500000	1.409341   
831.000000	1.429176   
831.500000	1.463302   
832.000000	1.462920   
832.500000	1.439612   
833.000000	1.441549   
833.500000	1.394823   
834.000000	1.308322   
834.500000	1.237909   
835.000000	1.176243   
835.500000	1.110389   
836.000000	1.077426   
836.500000	1.107426   
837.000000	1.131699   
837.500000	1.109944   
838.000000	1.068411   
838.500000	0.984502   
839.000000	0.867660   
839.500000	0.766879   
840.000000	0.716536   
840.500000	0.668641   
841.000000	0.640606   
841.500000	0.673092   
842.000000	0.699847   
842.500000	0.708474   
843.000000	0.688389   
843.500000	0.675150   
844.000000	0.607660   
844.500000	0.519107   
845.000000	0.497430   
845.500000	0.497512   
846.000000	0.516011   
846.500000	0.486693   
847.000000	0.476141   
847.500000	0.413732   
848.000000	0.299153   
848.500000	0.211530   
849.000000	0.145753   
849.500000	0.132712   
850.000000	0.130897   
850.500000	0.173014   
851.000000	0.258246   
851.500000	0.309191   
852.000000	0.363345   
852.500000	0.386469   
853.000000	0.356092   
853.500000	0.264944   
854.000000	0.152584   
854.500000	0.106510   
855.000000	0.070701   
855.500000	0.085627   
856.000000	0.139038   
856.500000	0.187410   
857.000000	0.218423   
857.500000	0.201001   
858.000000	0.205614   
858.500000	0.195510   
859.000000	0.155853   
859.500000	0.121478   
860.000000	0.099404   
860.500000	0.095133   
861.000000	0.097094   
861.500000	0.105450   
862.000000	0.154807   
862.500000	0.184901   
863.000000	0.170064   
863.500000	0.149858   
864.000000	0.127456   
864.500000	0.113447   
865.000000	0.046654   
865.500000	0.005042   
866.000000	-0.034656  
866.500000	-0.105894  
867.000000	-0.148231  
867.500000	-0.162656  
868.000000	-0.120356  
868.500000	-0.098628  
869.000000	-0.061129  
869.500000	-0.016656  
870.000000	-0.005404  
870.500000	0.017100   
871.000000	0.020348   
871.500000	0.035513   
872.000000	0.007534   
872.500000	-0.024003  
873.000000	-0.038267  
873.500000	-0.050003  
874.000000	-0.031571  
874.500000	0.007157   
875.000000	0.067402   
875.500000	0.112881   
876.000000	0.123187   
876.500000	0.120992   
877.000000	0.076250   
877.500000	0.018031   
878.000000	-0.040892  
878.500000	-0.073654  
879.000000	-0.061024  
879.500000	-0.055014  
880.000000	-0.006421  
880.500000	0.024053   
881.000000	0.032233   
881.500000	0.018723   
882.000000	-0.024146  
882.500000	-0.042714  
883.000000	-0.061589  
883.500000	-0.049999  
884.000000	-0.031886  
884.500000	0.010820   
885.000000	0.066068   
885.500000	0.100298   
886.000000	0.129181   
886.500000	0.141758   
887.000000	0.112046   
887.500000	0.056170   
888.000000	-0.014942  
888.500000	-0.076512  
889.000000	-0.144673  
889.500000	-0.182634  
890.000000	-0.175397  
890.500000	-0.178413  
891.000000	-0.161495  
891.500000	-0.132116  
892.000000	-0.075096  
892.500000	-0.031719  
893.000000	0.026901   
893.500000	0.084825   
894.000000	0.099538   
894.500000	0.105339   
895.000000	0.076697   
895.500000	0.045179   
896.000000	-0.008775  
896.500000	-0.029508  

