PE FL                   SPECTRUM    ASCII       PEDS        1.60        
  -1
S01B8B~1.SP
24/04/11
17:01:48.00
24/04/11
17:01:48.00
Jan

896.500000
1









LS55
405.00
5.00
5.00
SCAN
1
20
100
100
0
400
0
1
0
1
5
ON
736 405 
1 0 0
#HDR
-1
-1
#GR
NM

0.00002384185791015625
0.0
450.000000
0.500000
894
8
325.680508
-0.180931
#DATA
450.000000	0.267000   
450.500000	0.144634   
451.000000	0.044300   
451.500000	-0.020870  
452.000000	-0.017697  
452.500000	-0.007717  
453.000000	0.027209   
453.500000	0.072743   
454.000000	0.088604   
454.500000	0.088896   
455.000000	0.069315   
455.500000	0.068226   
456.000000	0.073090   
456.500000	0.137285   
457.000000	0.200975   
457.500000	0.239346   
458.000000	0.250818   
458.500000	0.200666   
459.000000	0.134322   
459.500000	0.059484   
460.000000	0.061231   
460.500000	0.075471   
461.000000	0.118458   
461.500000	0.183159   
462.000000	0.218779   
462.500000	0.219957   
463.000000	0.190829   
463.500000	0.201161   
464.000000	0.232243   
464.500000	0.278990   
465.000000	0.302617   
465.500000	0.269538   
466.000000	0.203241   
466.500000	0.081007   
467.000000	-0.053979  
467.500000	-0.119790  
468.000000	-0.116274  
468.500000	-0.078829  
469.000000	-0.008790  
469.500000	0.091966   
470.000000	0.181205   
470.500000	0.177022   
471.000000	0.171400   
471.500000	0.168905   
472.000000	0.155781   
472.500000	0.131332   
473.000000	0.130935   
473.500000	0.176645   
474.000000	0.171510   
474.500000	0.189725   
475.000000	0.197345   
475.500000	0.188419   
476.000000	0.176829   
476.500000	0.119168   
477.000000	0.087549   
477.500000	0.037454   
478.000000	0.042712   
478.500000	0.127304   
479.000000	0.225456   
479.500000	0.316267   
480.000000	0.355864   
480.500000	0.382204   
481.000000	0.350230   
481.500000	0.256834   
482.000000	0.198070   
482.500000	0.143480   
483.000000	0.124669   
483.500000	0.070031   
484.000000	0.056152   
484.500000	0.053163   
485.000000	0.003224   
485.500000	-0.033296  
486.000000	-0.032254  
486.500000	0.019384   
487.000000	0.050944   
487.500000	0.099628   
488.000000	0.190463   
488.500000	0.273734   
489.000000	0.330758   
489.500000	0.348794   
490.000000	0.340131   
490.500000	0.310087   
491.000000	0.249940   
491.500000	0.193569   
492.000000	0.117679   
492.500000	0.065627   
493.000000	0.072558   
493.500000	0.102400   
494.000000	0.199957   
494.500000	0.292222   
495.000000	0.423920   
495.500000	0.525231   
496.000000	0.596740   
496.500000	0.643786   
497.000000	0.616525   
497.500000	0.585269   
498.000000	0.528285   
498.500000	0.515090   
499.000000	0.537098   
499.500000	0.565105   
500.000000	0.614881   
500.500000	0.633940   
501.000000	0.680172   
501.500000	0.692261   
502.000000	0.733400   
502.500000	0.811222   
503.000000	0.868717   
503.500000	0.932782   
504.000000	0.931794   
504.500000	0.896358   
505.000000	0.843706   
505.500000	0.819812   
506.000000	0.847873   
506.500000	0.876875   
507.000000	0.961795   
507.500000	1.053311   
508.000000	1.117089   
508.500000	1.210109   
509.000000	1.292931   
509.500000	1.372372   
510.000000	1.373732   
510.500000	1.365261   
511.000000	1.310089   
511.500000	1.206723   
512.000000	1.210269   
512.500000	1.287584   
513.000000	1.406471   
513.500000	1.546122   
514.000000	1.750584   
514.500000	1.907235   
515.000000	2.025222   
515.500000	2.150619   
516.000000	2.257712   
516.500000	2.296601   
517.000000	2.290910   
517.500000	2.347794   
518.000000	2.405725   
518.500000	2.490523   
519.000000	2.613218   
519.500000	2.754632   
520.000000	2.833795   
520.500000	2.863588   
521.000000	2.866777   
521.500000	2.868391   
522.000000	2.875753   
522.500000	2.914322   
523.000000	2.957474   
523.500000	2.991248   
524.000000	3.082944   
524.500000	3.182870   
525.000000	3.347506   
525.500000	3.460734   
526.000000	3.554218   
526.500000	3.564254   
527.000000	3.559480   
527.500000	3.654011   
528.000000	3.784643   
528.500000	4.088571   
529.000000	4.440630   
529.500000	4.873423   
530.000000	5.199426   
530.500000	5.464549   
531.000000	5.624350   
531.500000	5.622972   
532.000000	5.613460   
532.500000	5.534189   
533.000000	5.650048   
533.500000	5.875439   
534.000000	6.278230   
534.500000	6.740812   
535.000000	7.176359   
535.500000	7.604584   
536.000000	7.865981   
536.500000	8.171948   
537.000000	8.504580   
537.500000	8.973758   
538.000000	9.482929   
538.500000	10.034834  
539.000000	10.548222  
539.500000	10.864166  
540.000000	11.123044  
540.500000	11.262417  
541.000000	11.384907  
541.500000	11.553053  
542.000000	11.850320  
542.500000	12.125886  
543.000000	12.308894  
543.500000	12.419790  
544.000000	12.322916  
544.500000	12.061695  
545.000000	11.689970  
545.500000	11.437649  
546.000000	11.228404  
546.500000	11.111680  
547.000000	11.064742  
547.500000	10.963584  
548.000000	10.813619  
548.500000	10.636601  
549.000000	10.477055  
549.500000	10.274024  
550.000000	10.154261  
550.500000	10.169038  
551.000000	10.106571  
551.500000	10.008866  
552.000000	9.966918   
552.500000	9.946159   
553.000000	9.867282   
553.500000	9.772970   
554.000000	9.819636   
554.500000	9.849278   
555.000000	9.898074   
555.500000	10.092022  
556.000000	10.388964  
556.500000	10.779263  
557.000000	11.128339  
557.500000	11.497814  
558.000000	11.790717  
558.500000	12.045732  
559.000000	12.271949  
559.500000	12.465346  
560.000000	12.678411  
560.500000	12.872228  
561.000000	13.062283  
561.500000	13.307100  
562.000000	13.741465  
562.500000	14.365280  
563.000000	15.065137  
563.500000	15.784064  
564.000000	16.404404  
564.500000	16.873820  
565.000000	17.255502  
565.500000	17.735768  
566.000000	18.344636  
566.500000	18.997415  
567.000000	19.766356  
567.500000	20.557847  
568.000000	21.271814  
568.500000	21.796087  
569.000000	22.271612  
569.500000	22.788560  
570.000000	23.261725  
570.500000	23.882447  
571.000000	24.581938  
571.500000	25.389699  
572.000000	26.165113  
572.500000	26.878920  
573.000000	27.529269  
573.500000	28.023820  
574.000000	28.518571  
574.500000	29.013159  
575.000000	29.525066  
575.500000	30.052218  
576.000000	30.512801  
576.500000	31.103996  
577.000000	31.817469  
577.500000	32.705311  
578.000000	33.748693  
578.500000	34.895732  
579.000000	35.925881  
579.500000	36.691348  
580.000000	37.329547  
580.500000	37.803348  
581.000000	38.295333  
581.500000	39.007133  
582.000000	39.995411  
582.500000	41.074831  
583.000000	42.111899  
583.500000	43.092207  
584.000000	43.874925  
584.500000	44.676146  
585.000000	45.721888  
585.500000	47.058985  
586.000000	48.600697  
586.500000	50.258860  
587.000000	51.839237  
587.500000	53.154209  
588.000000	54.341551  
588.500000	55.556194  
589.000000	56.803196  
589.500000	58.318454  
590.000000	59.990699  
590.500000	61.446417  
591.000000	62.738949  
591.500000	64.056829  
592.000000	65.363716  
592.500000	66.682270  
593.000000	68.156979  
593.500000	69.773382  
594.000000	71.303615  
594.500000	72.786688  
595.000000	74.335102  
595.500000	75.939502  
596.000000	77.710189  
596.500000	79.503248  
597.000000	81.290040  
597.500000	83.165693  
598.000000	85.091998  
598.500000	87.352246  
599.000000	89.487591  
599.500000	91.786480  
600.000000	94.002530  
600.500000	95.785779  
601.000000	97.467519  
601.500000	99.056079  
602.000000	101.190846 
602.500000	103.532204 
603.000000	106.298697 
603.500000	109.330912 
604.000000	112.263369 
604.500000	115.260274 
605.000000	117.868690 
605.500000	120.593953 
606.000000	123.180059 
606.500000	125.868014 
607.000000	128.488493 
607.500000	130.800615 
608.000000	132.957897 
608.500000	135.177378 
609.000000	137.547072 
609.500000	140.020714 
610.000000	142.985480 
610.500000	146.186352 
611.000000	149.443257 
611.500000	152.438181 
612.000000	155.410560 
612.500000	158.301656 
613.000000	161.068248 
613.500000	164.225866 
614.000000	167.527948 
614.500000	171.100350 
615.000000	174.809884 
615.500000	178.744506 
616.000000	182.578634 
616.500000	186.317109 
617.000000	190.164417 
617.500000	193.843445 
618.000000	197.019589 
618.500000	199.935332 
619.000000	203.080732 
619.500000	206.151183 
620.000000	209.516864 
620.500000	213.439300 
621.000000	217.843923 
621.500000	222.148083 
622.000000	226.105729 
622.500000	229.900456 
623.000000	232.961415 
623.500000	235.787905 
624.000000	238.608690 
624.500000	241.867332 
625.000000	245.421961 
625.500000	249.100782 
626.000000	253.087205 
626.500000	256.626072 
627.000000	259.819526 
627.500000	262.972972 
628.000000	266.215586 
628.500000	269.414764 
629.000000	272.942363 
629.500000	276.845510 
630.000000	280.777398 
630.500000	284.537159 
631.000000	288.068834 
631.500000	291.288012 
632.000000	294.059345 
632.500000	296.472897 
633.000000	298.905500 
633.500000	301.411667 
634.000000	303.912545 
634.500000	306.653046 
635.000000	309.337781 
635.500000	311.808892 
636.000000	313.616029 
636.500000	314.609051 
637.000000	315.242014 
637.500000	315.843634 
638.000000	316.513595 
638.500000	317.615209 
639.000000	318.974183 
639.500000	320.574515 
640.000000	321.804875 
640.500000	322.744252 
641.000000	323.834716 
641.500000	324.647775 
642.000000	325.356974 
642.500000	325.508918 
643.000000	325.680508 
643.500000	325.513920 
644.000000	324.768562 
644.500000	324.477552 
645.000000	324.202593 
645.500000	324.162742 
646.000000	323.499920 
646.500000	322.267291 
647.000000	320.442853 
647.500000	318.026905 
648.000000	315.801545 
648.500000	314.107410 
649.000000	312.955233 
649.500000	312.020022 
650.000000	311.207333 
650.500000	310.010155 
651.000000	308.742935 
651.500000	307.143851 
652.000000	305.411690 
652.500000	303.444538 
653.000000	300.850153 
653.500000	297.796634 
654.000000	293.654706 
654.500000	289.469970 
655.000000	285.050760 
655.500000	281.362632 
656.000000	278.463089 
656.500000	276.303866 
657.000000	274.727491 
657.500000	272.557959 
658.000000	269.858532 
658.500000	266.041359 
659.000000	261.561888 
659.500000	256.658604 
660.000000	251.755580 
660.500000	247.559463 
661.000000	243.989213 
661.500000	240.736953 
662.000000	237.350385 
662.500000	233.820814 
663.000000	229.803415 
663.500000	225.185244 
664.000000	220.534879 
664.500000	216.108703 
665.000000	211.513905 
665.500000	207.058183 
666.000000	202.780070 
666.500000	198.635903 
667.000000	194.142766 
667.500000	189.444397 
668.000000	184.860541 
668.500000	179.785632 
669.000000	174.925291 
669.500000	170.472552 
670.000000	166.574610 
670.500000	162.924178 
671.000000	159.226658 
671.500000	155.514942 
672.000000	151.075923 
672.500000	146.437656 
673.000000	141.532519 
673.500000	136.967155 
674.000000	132.897532 
674.500000	128.854853 
675.000000	125.203545 
675.500000	121.622753 
676.000000	118.334261 
676.500000	115.009489 
677.000000	111.978000 
677.500000	109.405068 
678.000000	106.655716 
678.500000	103.983231 
679.000000	101.233667 
679.500000	98.537141  
680.000000	95.605805  
680.500000	92.666977  
681.000000	90.032957  
681.500000	87.358077  
682.000000	85.041935  
682.500000	82.690684  
683.000000	80.487369  
683.500000	78.235183  
684.000000	75.690135  
684.500000	73.170159  
685.000000	70.541710  
685.500000	68.437996  
686.000000	66.411350  
686.500000	64.724040  
687.000000	63.239263  
687.500000	61.652146  
688.000000	60.142840  
688.500000	58.447126  
689.000000	56.791844  
689.500000	54.972601  
690.000000	53.246228  
690.500000	51.577389  
691.000000	49.833200  
691.500000	48.350103  
692.000000	47.144395  
692.500000	45.871513  
693.000000	44.592437  
693.500000	43.464448  
694.000000	42.463732  
694.500000	41.462103  
695.000000	40.382933  
695.500000	39.472230  
696.000000	38.400708  
696.500000	37.226933  
697.000000	35.950777  
697.500000	34.811480  
698.000000	33.858333  
698.500000	32.981326  
699.000000	32.357879  
699.500000	31.785974  
700.000000	31.204165  
700.500000	30.469243  
701.000000	29.485317  
701.500000	28.493215  
702.000000	27.527128  
702.500000	26.654530  
703.000000	25.965421  
703.500000	25.452161  
704.000000	25.072005  
704.500000	24.659604  
705.000000	24.175038  
705.500000	23.607762  
706.000000	22.958356  
706.500000	22.366612  
707.000000	21.821512  
707.500000	21.350484  
708.000000	20.925567  
708.500000	20.468189  
709.000000	20.056163  
709.500000	19.618382  
710.000000	19.185267  
710.500000	18.759148  
711.000000	18.256730  
711.500000	17.808320  
712.000000	17.382398  
712.500000	17.034936  
713.000000	16.765207  
713.500000	16.538879  
714.000000	16.339380  
714.500000	16.167391  
715.000000	15.917287  
715.500000	15.532128  
716.000000	15.065784  
716.500000	14.577526  
717.000000	14.040489  
717.500000	13.532059  
718.000000	13.201319  
718.500000	13.019521  
719.000000	12.882669  
719.500000	12.771499  
720.000000	12.675129  
720.500000	12.406445  
721.000000	12.041589  
721.500000	11.729141  
722.000000	11.607027  
722.500000	11.530994  
723.000000	11.616465  
723.500000	11.755296  
724.000000	11.684543  
724.500000	11.464367  
725.000000	11.145525  
725.500000	10.891363  
726.000000	10.584547  
726.500000	10.512914  
727.000000	10.620371  
727.500000	10.628812  
728.000000	10.542899  
728.500000	10.316779  
729.000000	9.987274   
729.500000	9.475001   
730.000000	9.050747   
730.500000	8.754929   
731.000000	8.619762   
731.500000	8.625797   
732.000000	8.627805   
732.500000	8.608686   
733.000000	8.533562   
733.500000	8.382515   
734.000000	8.115076   
734.500000	7.853564   
735.000000	7.669257   
735.500000	7.506250   
736.000000	7.430836   
736.500000	7.526300   
737.000000	7.667250   
737.500000	7.718803   
738.000000	7.721565   
738.500000	7.626265   
739.000000	7.362100   
739.500000	7.014313   
740.000000	6.748083   
740.500000	6.553623   
741.000000	6.475274   
741.500000	6.524649   
742.000000	6.641840   
742.500000	6.712907   
743.000000	6.778482   
743.500000	6.786502   
744.000000	6.685005   
744.500000	6.516113   
745.000000	6.343695   
745.500000	6.190512   
746.000000	5.997276   
746.500000	5.867172   
747.000000	5.774241   
747.500000	5.626319   
748.000000	5.464061   
748.500000	5.355410   
749.000000	5.299666   
749.500000	5.262354   
750.000000	5.215643   
750.500000	5.142677   
751.000000	5.074625   
751.500000	5.005294   
752.000000	4.988252   
752.500000	5.030493   
753.000000	5.176365   
753.500000	5.320899   
754.000000	5.295564   
754.500000	5.178643   
755.000000	5.002452   
755.500000	4.778944   
756.000000	4.571658   
756.500000	4.524614   
757.000000	4.625218   
757.500000	4.665808   
758.000000	4.652137   
758.500000	4.599371   
759.000000	4.455920   
759.500000	4.260881   
760.000000	4.163899   
760.500000	4.177942   
761.000000	4.224621   
761.500000	4.317502   
762.000000	4.391001   
762.500000	4.416372   
763.000000	4.336365   
763.500000	4.265146   
764.000000	4.225805   
764.500000	4.172296   
765.000000	4.129959   
765.500000	4.064946   
766.000000	3.988320   
766.500000	3.907185   
767.000000	3.846653   
767.500000	3.825161   
768.000000	3.826046   
768.500000	3.788037   
769.000000	3.770122   
769.500000	3.737597   
770.000000	3.716445   
770.500000	3.716595   
771.000000	3.737736   
771.500000	3.792278   
772.000000	3.758276   
772.500000	3.726610   
773.000000	3.669575   
773.500000	3.603782   
774.000000	3.526705   
774.500000	3.485296   
775.000000	3.414218   
775.500000	3.305831   
776.000000	3.225463   
776.500000	3.175046   
777.000000	3.166460   
777.500000	3.172638   
778.000000	3.245038   
778.500000	3.259393   
779.000000	3.261055   
779.500000	3.271159   
780.000000	3.241256   
780.500000	3.182450   
781.000000	3.122903   
781.500000	3.113708   
782.000000	3.087714   
782.500000	3.076532   
783.000000	3.142690   
783.500000	3.245157   
784.000000	3.332291   
784.500000	3.406317   
785.000000	3.462044   
785.500000	3.451582   
786.000000	3.372727   
786.500000	3.251894   
787.000000	3.133525   
787.500000	3.012710   
788.000000	2.918497   
788.500000	2.856491   
789.000000	2.810925   
789.500000	2.776102   
790.000000	2.754235   
790.500000	2.728593   
791.000000	2.749350   
791.500000	2.790259   
792.000000	2.834825   
792.500000	2.859111   
793.000000	2.840589   
793.500000	2.796198   
794.000000	2.734860   
794.500000	2.744768   
795.000000	2.730332   
795.500000	2.719001   
796.000000	2.685439   
796.500000	2.611224   
797.000000	2.454330   
797.500000	2.295224   
798.000000	2.269630   
798.500000	2.252896   
799.000000	2.278717   
799.500000	2.335732   
800.000000	2.462363   
800.500000	2.504111   
801.000000	2.491697   
801.500000	2.515782   
802.000000	2.500962   
802.500000	2.411671   
803.000000	2.255350   
803.500000	2.166914   
804.000000	2.102499   
804.500000	2.037586   
805.000000	2.052265   
805.500000	2.128192   
806.000000	2.184606   
806.500000	2.158961   
807.000000	2.138985   
807.500000	2.134120   
808.000000	2.061751   
808.500000	2.027519   
809.000000	1.981469   
809.500000	1.951053   
810.000000	1.907567   
810.500000	1.909794   
811.000000	1.984762   
811.500000	2.049187   
812.000000	2.179771   
812.500000	2.218807   
813.000000	2.211408   
813.500000	2.102942   
814.000000	1.907450   
814.500000	1.704076   
815.000000	1.554339   
815.500000	1.532387   
816.000000	1.546482   
816.500000	1.656847   
817.000000	1.775862   
817.500000	1.793248   
818.000000	1.704842   
818.500000	1.590656   
819.000000	1.508033   
819.500000	1.469031   
820.000000	1.537955   
820.500000	1.717551   
821.000000	1.942361   
821.500000	2.135601   
822.000000	2.305556   
822.500000	2.448122   
823.000000	2.612037   
823.500000	2.729562   
824.000000	2.803552   
824.500000	2.829003   
825.000000	2.798445   
825.500000	2.677443   
826.000000	2.482547   
826.500000	2.363267   
827.000000	2.277560   
827.500000	2.235617   
828.000000	2.208179   
828.500000	2.234615   
829.000000	2.231393   
829.500000	2.144079   
830.000000	2.016389   
830.500000	1.850536   
831.000000	1.661820   
831.500000	1.433070   
832.000000	1.254597   
832.500000	1.117931   
833.000000	1.052098   
833.500000	1.049012   
834.000000	1.099382   
834.500000	1.167515   
835.000000	1.206179   
835.500000	1.205278   
836.000000	1.132359   
836.500000	1.050437   
837.000000	0.967790   
837.500000	0.897157   
838.000000	0.850014   
838.500000	0.853163   
839.000000	0.847148   
839.500000	0.815109   
840.000000	0.785858   
840.500000	0.785654   
841.000000	0.766263   
841.500000	0.732239   
842.000000	0.727799   
842.500000	0.712552   
843.000000	0.664124   
843.500000	0.586857   
844.000000	0.530703   
844.500000	0.486929   
845.000000	0.430196   
845.500000	0.419285   
846.000000	0.432217   
846.500000	0.444129   
847.000000	0.454369   
847.500000	0.466740   
848.000000	0.492230   
848.500000	0.470606   
849.000000	0.452248   
849.500000	0.431265   
850.000000	0.396380   
850.500000	0.360907   
851.000000	0.342593   
851.500000	0.357146   
852.000000	0.372953   
852.500000	0.452410   
853.000000	0.513747   
853.500000	0.550636   
854.000000	0.523834   
854.500000	0.464929   
855.000000	0.364285   
855.500000	0.216779   
856.000000	0.120847   
856.500000	0.043975   
857.000000	0.026719   
857.500000	0.005033   
858.000000	-0.005552  
858.500000	-0.007525  
859.000000	-0.042068  
859.500000	-0.023165  
860.000000	0.013703   
860.500000	0.068213   
861.000000	0.115022   
861.500000	0.143150   
862.000000	0.161361   
862.500000	0.115395   
863.000000	0.039586   
863.500000	-0.038380  
864.000000	-0.114923  
864.500000	-0.175170  
865.000000	-0.180931  
865.500000	-0.149612  
866.000000	-0.113458  
866.500000	-0.054430  
867.000000	0.020988   
867.500000	0.078421   
868.000000	0.078374   
868.500000	0.057335   
869.000000	0.015667   
869.500000	-0.042159  
870.000000	-0.078745  
870.500000	-0.080417  
871.000000	-0.029157  
871.500000	0.037508   
872.000000	0.087491   
872.500000	0.131107   
873.000000	0.118359   
873.500000	0.087558   
874.000000	0.031879   
874.500000	-0.035896  
875.000000	-0.083159  
875.500000	-0.119909  
876.000000	-0.116543  
876.500000	-0.089983  
877.000000	-0.043625  
877.500000	0.034782   
878.000000	0.070150   
878.500000	0.057178   
879.000000	0.008799   
879.500000	-0.056460  
880.000000	-0.098502  
880.500000	-0.111710  
881.000000	-0.045378  
881.500000	0.048810   
882.000000	0.113573   
882.500000	0.154146   
883.000000	0.131942   
883.500000	0.092369   
884.000000	0.034521   
884.500000	0.009141   
885.000000	0.011410   
885.500000	0.019048   
886.000000	0.038068   
886.500000	0.043628   
887.000000	0.014395   
887.500000	-0.035031  
888.000000	-0.069998  
888.500000	-0.096675  
889.000000	-0.118100  
889.500000	-0.135222  
890.000000	-0.114417  
890.500000	-0.077202  
891.000000	-0.060217  
891.500000	-0.025335  
892.000000	-0.008983  
892.500000	-0.013246  
893.000000	-0.067521  
893.500000	-0.104549  
894.000000	-0.112326  
894.500000	-0.098508  
895.000000	-0.059942  
895.500000	-0.005957  
896.000000	0.015358   
896.500000	0.005625   

