PE FL                   SPECTRUM    ASCII       PEDS        1.60        
  -1
S003C3~1.SP
24/04/11
16:43:15.00
24/04/11
16:43:15.00
Jan

896.500000
1









LS55
405.00
5.00
5.00
SCAN
1
20
100
100
0
400
0
1
0
1
5
ON
736 405 
1 0 0
#HDR
-1
-1
#GR
NM

0.00002384185791015625
0.0
450.000000
0.500000
894
8
332.571000
-0.221556
#DATA
450.000000	0.409000   
450.500000	0.343981   
451.000000	0.317141   
451.500000	0.333901   
452.000000	0.313269   
452.500000	0.351953   
453.000000	0.385465   
453.500000	0.375532   
454.000000	0.336317   
454.500000	0.288272   
455.000000	0.255564   
455.500000	0.182608   
456.000000	0.150267   
456.500000	0.120738   
457.000000	0.077306   
457.500000	0.041220   
458.000000	0.013109   
458.500000	0.023473   
459.000000	0.005057   
459.500000	0.004903   
460.000000	0.024996   
460.500000	0.028406   
461.000000	0.039962   
461.500000	0.050591   
462.000000	0.104192   
462.500000	0.119677   
463.000000	0.102307   
463.500000	0.092690   
464.000000	0.042827   
464.500000	0.030397   
465.000000	-0.000037  
465.500000	0.025951   
466.000000	0.085983   
466.500000	0.160276   
467.000000	0.236504   
467.500000	0.269428   
468.000000	0.348270   
468.500000	0.391914   
469.000000	0.407042   
469.500000	0.385916   
470.000000	0.342168   
470.500000	0.244068   
471.000000	0.108628   
471.500000	0.026578   
472.000000	-0.011669  
472.500000	-0.015400  
473.000000	0.034799   
473.500000	0.150701   
474.000000	0.244450   
474.500000	0.296128   
475.000000	0.296270   
475.500000	0.252504   
476.000000	0.138283   
476.500000	0.003723   
477.000000	-0.095025  
477.500000	-0.164504  
478.000000	-0.168927  
478.500000	-0.104454  
479.000000	0.033682   
479.500000	0.170460   
480.000000	0.277233   
480.500000	0.361842   
481.000000	0.390732   
481.500000	0.369404   
482.000000	0.324567   
482.500000	0.310987   
483.000000	0.282050   
483.500000	0.248050   
484.000000	0.210179   
484.500000	0.117623   
485.000000	0.022588   
485.500000	-0.036450  
486.000000	-0.012037  
486.500000	0.020092   
487.000000	0.134569   
487.500000	0.286964   
488.000000	0.357833   
488.500000	0.401489   
489.000000	0.412445   
489.500000	0.418714   
490.000000	0.354020   
490.500000	0.334664   
491.000000	0.340884   
491.500000	0.283274   
492.000000	0.240237   
492.500000	0.235513   
493.000000	0.251528   
493.500000	0.266155   
494.000000	0.347348   
494.500000	0.449441   
495.000000	0.520675   
495.500000	0.572209   
496.000000	0.593782   
496.500000	0.552725   
497.000000	0.487285   
497.500000	0.458523   
498.000000	0.429348   
498.500000	0.386309   
499.000000	0.367139   
499.500000	0.378098   
500.000000	0.381927   
500.500000	0.408437   
501.000000	0.488779   
501.500000	0.594038   
502.000000	0.660404   
502.500000	0.729040   
503.000000	0.783382   
503.500000	0.834484   
504.000000	0.888230   
504.500000	0.956452   
505.000000	1.066157   
505.500000	1.112235   
506.000000	1.119619   
506.500000	1.095565   
507.000000	1.027153   
507.500000	0.956183   
508.000000	0.862487   
508.500000	0.877265   
509.000000	0.941435   
509.500000	1.055710   
510.000000	1.232486   
510.500000	1.367387   
511.000000	1.480847   
511.500000	1.488367   
512.000000	1.482146   
512.500000	1.496619   
513.000000	1.484923   
513.500000	1.564896   
514.000000	1.652508   
514.500000	1.790617   
515.000000	1.878764   
515.500000	1.958955   
516.000000	2.103064   
516.500000	2.205005   
517.000000	2.332625   
517.500000	2.455081   
518.000000	2.569328   
518.500000	2.582560   
519.000000	2.527406   
519.500000	2.491172   
520.000000	2.417992   
520.500000	2.389858   
521.000000	2.426231   
521.500000	2.563018   
522.000000	2.669000   
522.500000	2.741419   
523.000000	2.821165   
523.500000	2.854228   
524.000000	2.914079   
524.500000	2.970473   
525.000000	3.105012   
525.500000	3.268617   
526.000000	3.411896   
526.500000	3.551931   
527.000000	3.693855   
527.500000	3.921235   
528.000000	4.155554   
528.500000	4.404909   
529.000000	4.602888   
529.500000	4.773437   
530.000000	4.857230   
530.500000	4.889992   
531.000000	5.048094   
531.500000	5.281734   
532.000000	5.602630   
532.500000	5.921499   
533.000000	6.289725   
533.500000	6.566873   
534.000000	6.751152   
534.500000	6.955771   
535.000000	7.115851   
535.500000	7.302894   
536.000000	7.526987   
536.500000	7.848749   
537.000000	8.206884   
537.500000	8.604814   
538.000000	9.126567   
538.500000	9.706641   
539.000000	10.205400  
539.500000	10.649879  
540.000000	11.025423  
540.500000	11.284330  
541.000000	11.443252  
541.500000	11.544022  
542.000000	11.691606  
542.500000	11.729981  
543.000000	11.755261  
543.500000	11.738883  
544.000000	11.698727  
544.500000	11.571027  
545.000000	11.374974  
545.500000	11.213072  
546.000000	10.934743  
546.500000	10.749089  
547.000000	10.531730  
547.500000	10.374300  
548.000000	10.215794  
548.500000	10.135525  
549.000000	10.129018  
549.500000	9.991638   
550.000000	9.962029   
550.500000	9.994083   
551.000000	10.038912  
551.500000	10.058128  
552.000000	10.142992  
552.500000	10.269743  
553.000000	10.249523  
553.500000	10.232929  
554.000000	10.313799  
554.500000	10.334625  
555.000000	10.331951  
555.500000	10.412435  
556.000000	10.600925  
556.500000	10.753105  
557.000000	10.880027  
557.500000	11.120844  
558.000000	11.257634  
558.500000	11.298115  
559.000000	11.386833  
559.500000	11.632087  
560.000000	11.972421  
560.500000	12.478285  
561.000000	13.215341  
561.500000	13.917239  
562.000000	14.481350  
562.500000	14.919758  
563.000000	15.268157  
563.500000	15.439554  
564.000000	15.619679  
564.500000	16.012833  
565.000000	16.591141  
565.500000	17.210038  
566.000000	17.860966  
566.500000	18.585831  
567.000000	19.219562  
567.500000	19.845387  
568.000000	20.637994  
568.500000	21.483289  
569.000000	22.277153  
569.500000	22.963005  
570.000000	23.627241  
570.500000	24.161304  
571.000000	24.645818  
571.500000	25.331105  
572.000000	26.151840  
572.500000	26.917923  
573.000000	27.490962  
573.500000	27.955708  
574.000000	28.239495  
574.500000	28.213484  
575.000000	28.574562  
575.500000	29.413860  
576.000000	30.517888  
576.500000	31.661925  
577.000000	32.882849  
577.500000	34.022064  
578.000000	34.536903  
578.500000	34.820588  
579.000000	35.109257  
579.500000	35.516333  
580.000000	35.970532  
580.500000	36.743083  
581.000000	37.893708  
581.500000	39.015656  
582.000000	40.188641  
582.500000	41.180890  
583.000000	42.047582  
583.500000	42.767061  
584.000000	43.580131  
584.500000	44.271447  
585.000000	45.331118  
585.500000	46.879786  
586.000000	48.508272  
586.500000	50.028541  
587.000000	51.499248  
587.500000	52.878769  
588.000000	53.699122  
588.500000	54.346289  
589.000000	55.160903  
589.500000	56.103473  
590.000000	57.042938  
590.500000	58.310883  
591.000000	59.871690  
591.500000	61.412456  
592.000000	62.795567  
592.500000	64.094693  
593.000000	65.454751  
593.500000	66.933042  
594.000000	68.575781  
594.500000	70.490792  
595.000000	72.777213  
595.500000	75.005601  
596.000000	76.845220  
596.500000	78.506608  
597.000000	80.099282  
597.500000	81.394454  
598.000000	82.824690  
598.500000	84.710124  
599.000000	86.882615  
599.500000	89.104842  
600.000000	91.551309  
600.500000	94.255690  
601.000000	96.780280  
601.500000	99.114144  
602.000000	101.400476 
602.500000	103.350777 
603.000000	104.909974 
603.500000	106.352545 
604.000000	107.854278 
604.500000	109.796038 
605.000000	111.989007 
605.500000	114.604113 
606.000000	117.283074 
606.500000	120.274567 
607.000000	123.134525 
607.500000	125.758003 
608.000000	128.431090 
608.500000	131.028669 
609.000000	133.515985 
609.500000	135.759404 
610.000000	138.320593 
610.500000	140.735918 
611.000000	143.060296 
611.500000	145.539113 
612.000000	148.555589 
612.500000	152.093810 
613.000000	155.923359 
613.500000	160.325057 
614.000000	164.580441 
614.500000	168.454992 
615.000000	171.730875 
615.500000	174.910176 
616.000000	178.078231 
616.500000	181.280730 
617.000000	184.873792 
617.500000	188.463844 
618.000000	191.744513 
618.500000	194.571072 
619.000000	197.417448 
619.500000	200.528454 
620.000000	203.642053 
620.500000	207.229500 
621.000000	211.121814 
621.500000	214.962124 
622.000000	218.660615 
622.500000	222.454235 
623.000000	226.149324 
623.500000	229.303022 
624.000000	232.408519 
624.500000	235.494604 
625.000000	238.711282 
625.500000	242.358335 
626.000000	246.647486 
626.500000	251.250243 
627.000000	255.535363 
627.500000	259.207387 
628.000000	262.324905 
628.500000	265.069526 
629.000000	267.794211 
629.500000	270.997749 
630.000000	274.663525 
630.500000	278.668066 
631.000000	282.610506 
631.500000	286.379014 
632.000000	289.983838 
632.500000	293.140467 
633.000000	296.245525 
633.500000	299.217105 
634.000000	302.218599 
634.500000	305.142022 
635.000000	307.694601 
635.500000	310.039244 
636.000000	312.132506 
636.500000	314.282935 
637.000000	316.149378 
637.500000	317.914864 
638.000000	319.903404 
638.500000	321.826345 
639.000000	323.095868 
639.500000	324.048576 
640.000000	324.935215 
640.500000	325.244756 
641.000000	325.279567 
641.500000	325.715827 
642.000000	326.849155 
642.500000	327.595016 
643.000000	328.902829 
643.500000	330.709645 
644.000000	332.104332 
644.500000	332.571000 
645.000000	332.518539 
645.500000	332.443935 
646.000000	331.616053 
646.500000	330.724473 
647.000000	330.097500 
647.500000	329.505185 
648.000000	328.484328 
648.500000	327.342324 
649.000000	326.119476 
649.500000	324.727647 
650.000000	323.465382 
650.500000	322.574948 
651.000000	321.718474 
651.500000	320.638343 
652.000000	319.161007 
652.500000	317.018951 
653.000000	314.048862 
653.500000	310.484506 
654.000000	306.998521 
654.500000	303.782619 
655.000000	300.778153 
655.500000	298.076897 
656.000000	295.683625 
656.500000	292.832703 
657.000000	289.223435 
657.500000	285.150296 
658.000000	281.178055 
658.500000	277.310139 
659.000000	273.338675 
659.500000	269.736777 
660.000000	266.612025 
660.500000	263.434276 
661.000000	259.925823 
661.500000	256.320790 
662.000000	252.727936 
662.500000	249.010163 
663.000000	244.636786 
663.500000	240.243313 
664.000000	235.672855 
664.500000	231.264525 
665.000000	226.739564 
665.500000	222.327424 
666.000000	218.262823 
666.500000	213.930183 
667.000000	209.429623 
667.500000	204.449884 
668.000000	199.505395 
668.500000	194.789591 
669.000000	189.898363 
669.500000	185.521322 
670.000000	181.575719 
670.500000	177.718077 
671.000000	173.788320 
671.500000	169.859749 
672.000000	166.163521 
672.500000	162.178166 
673.000000	158.087100 
673.500000	153.979371 
674.000000	149.599476 
674.500000	144.863382 
675.000000	140.268775 
675.500000	136.087703 
676.000000	132.166923 
676.500000	128.535089 
677.000000	125.304304 
677.500000	122.435829 
678.000000	119.256604 
678.500000	116.596875 
679.000000	114.019471 
679.500000	111.363948 
680.000000	108.406044 
680.500000	105.262862 
681.000000	102.241053 
681.500000	98.712001  
682.000000	95.634220  
682.500000	92.618361  
683.000000	89.884434  
683.500000	87.328445  
684.000000	84.884302  
684.500000	82.510463  
685.000000	79.865319  
685.500000	77.534526  
686.000000	75.118938  
686.500000	72.764241  
687.000000	70.648556  
687.500000	68.622061  
688.000000	66.641935  
688.500000	64.759682  
689.000000	63.181083  
689.500000	61.533549  
690.000000	59.903552  
690.500000	58.495152  
691.000000	56.961469  
691.500000	55.241163  
692.000000	53.510384  
692.500000	51.799224  
693.000000	50.058163  
693.500000	48.502803  
694.000000	47.392463  
694.500000	46.366999  
695.000000	45.263497  
695.500000	44.263441  
696.000000	43.240931  
696.500000	42.013606  
697.000000	40.697389  
697.500000	39.483280  
698.000000	38.248087  
698.500000	36.893398  
699.000000	35.641788  
699.500000	34.627855  
700.000000	33.841946  
700.500000	33.125543  
701.000000	32.583601  
701.500000	32.100881  
702.000000	31.388202  
702.500000	30.542615  
703.000000	29.587087  
703.500000	28.740703  
704.000000	27.850435  
704.500000	27.114545  
705.000000	26.609523  
705.500000	26.091133  
706.000000	25.611827  
706.500000	25.083217  
707.000000	24.545198  
707.500000	23.910076  
708.000000	23.271163  
708.500000	22.650304  
709.000000	22.020413  
709.500000	21.478447  
710.000000	20.951270  
710.500000	20.533768  
711.000000	20.028330  
711.500000	19.478209  
712.000000	18.897666  
712.500000	18.417762  
713.000000	17.970359  
713.500000	17.526933  
714.000000	17.226085  
714.500000	16.987178  
715.000000	16.720890  
715.500000	16.420920  
716.000000	16.221051  
716.500000	16.001285  
717.000000	15.630035  
717.500000	15.220339  
718.000000	14.835233  
718.500000	14.379096  
719.000000	13.982628  
719.500000	13.776790  
720.000000	13.731660  
720.500000	13.785769  
721.000000	13.772649  
721.500000	13.691892  
722.000000	13.360276  
722.500000	12.887495  
723.000000	12.428842  
723.500000	12.057858  
724.000000	11.790617  
724.500000	11.594231  
725.000000	11.504951  
725.500000	11.391710  
726.000000	11.224220  
726.500000	11.102855  
727.000000	11.043949  
727.500000	11.009380  
728.000000	10.930029  
728.500000	10.754782  
729.000000	10.558706  
729.500000	10.245706  
730.000000	9.904764   
730.500000	9.700677   
731.000000	9.607627   
731.500000	9.574324   
732.000000	9.490595   
732.500000	9.463102   
733.000000	9.321575   
733.500000	9.023888   
734.000000	8.744847   
734.500000	8.425113   
735.000000	8.134974   
735.500000	7.876454   
736.000000	7.828788   
736.500000	7.854838   
737.000000	7.870675   
737.500000	7.943558   
738.000000	7.949417   
738.500000	7.866706   
739.000000	7.680628   
739.500000	7.588027   
740.000000	7.519385   
740.500000	7.384187   
741.000000	7.287868   
741.500000	7.179938   
742.000000	7.064782   
742.500000	6.895871   
743.000000	6.820862   
743.500000	6.827434   
744.000000	6.806205   
744.500000	6.799343   
745.000000	6.753276   
745.500000	6.654679   
746.000000	6.516031   
746.500000	6.340628   
747.000000	6.242083   
747.500000	6.136669   
748.000000	6.065423   
748.500000	5.975680   
749.000000	5.874391   
749.500000	5.837684   
750.000000	5.766113   
750.500000	5.742935   
751.000000	5.781994   
751.500000	5.883324   
752.000000	5.945339   
752.500000	5.926686   
753.000000	5.867797   
753.500000	5.714803   
754.000000	5.484623   
754.500000	5.292935   
755.000000	5.183935   
755.500000	5.092146   
756.000000	5.013209   
756.500000	4.957988   
757.000000	4.964005   
757.500000	4.940328   
758.000000	4.929784   
758.500000	4.970936   
759.000000	5.014680   
759.500000	5.015827   
760.000000	4.975424   
760.500000	4.954968   
761.000000	4.929293   
761.500000	4.915584   
762.000000	4.967128   
762.500000	5.037849   
763.000000	5.057654   
763.500000	5.015679   
764.000000	4.916732   
764.500000	4.790146   
765.000000	4.624421   
765.500000	4.500903   
766.000000	4.436730   
766.500000	4.432974   
767.000000	4.414742   
767.500000	4.365871   
768.000000	4.306439   
768.500000	4.148094   
769.000000	4.037016   
769.500000	3.923742   
770.000000	3.889890   
770.500000	3.875356   
771.000000	3.838673   
771.500000	3.834116   
772.000000	3.756170   
772.500000	3.700526   
773.000000	3.547927   
773.500000	3.420471   
774.000000	3.337712   
774.500000	3.297877   
775.000000	3.324283   
775.500000	3.362662   
776.000000	3.471992   
776.500000	3.513714   
777.000000	3.512602   
777.500000	3.469387   
778.000000	3.412165   
778.500000	3.326378   
779.000000	3.264647   
779.500000	3.250191   
780.000000	3.231354   
780.500000	3.223059   
781.000000	3.218573   
781.500000	3.223452   
782.000000	3.208606   
782.500000	3.195031   
783.000000	3.190946   
783.500000	3.184580   
784.000000	3.178816   
784.500000	3.208087   
785.000000	3.231614   
785.500000	3.214506   
786.000000	3.157166   
786.500000	3.097564   
787.000000	3.038614   
787.500000	2.969406   
788.000000	2.957228   
788.500000	2.979419   
789.000000	3.019458   
789.500000	3.040181   
790.000000	3.062365   
790.500000	3.084198   
791.000000	3.061564   
791.500000	2.997027   
792.000000	2.910198   
792.500000	2.813985   
793.000000	2.730829   
793.500000	2.680224   
794.000000	2.699990   
794.500000	2.758849   
795.000000	2.834968   
795.500000	2.870868   
796.000000	2.872252   
796.500000	2.810601   
797.000000	2.708307   
797.500000	2.630580   
798.000000	2.565293   
798.500000	2.571755   
799.000000	2.551371   
799.500000	2.569838   
800.000000	2.514400   
800.500000	2.427820   
801.000000	2.310291   
801.500000	2.135094   
802.000000	2.060604   
802.500000	1.983877   
803.000000	2.051727   
803.500000	2.118686   
804.000000	2.192315   
804.500000	2.256083   
805.000000	2.241133   
805.500000	2.235443   
806.000000	2.155525   
806.500000	2.103528   
807.000000	2.032382   
807.500000	1.954044   
808.000000	1.897560   
808.500000	1.862801   
809.000000	1.876077   
809.500000	1.902768   
810.000000	1.979877   
810.500000	2.069235   
811.000000	2.148532   
811.500000	2.173014   
812.000000	2.199556   
812.500000	2.232289   
813.000000	2.238653   
813.500000	2.244998   
814.000000	2.223666   
814.500000	2.199419   
815.000000	2.097521   
815.500000	1.987430   
816.000000	1.904393   
816.500000	1.854868   
817.000000	1.827896   
817.500000	1.809389   
818.000000	1.843359   
818.500000	1.909111   
819.000000	1.947640   
819.500000	1.984719   
820.000000	2.090816   
820.500000	2.157751   
821.000000	2.229961   
821.500000	2.294575   
822.000000	2.405363   
822.500000	2.470745   
823.000000	2.484795   
823.500000	2.536886   
824.000000	2.563680   
824.500000	2.573077   
825.000000	2.536328   
825.500000	2.560421   
826.000000	2.585738   
826.500000	2.595784   
827.000000	2.609929   
827.500000	2.606144   
828.000000	2.561970   
828.500000	2.423016   
829.000000	2.237645   
829.500000	2.024712   
830.000000	1.803873   
830.500000	1.599133   
831.000000	1.464936   
831.500000	1.392040   
832.000000	1.318465   
832.500000	1.254103   
833.000000	1.188172   
833.500000	1.094827   
834.000000	1.016133   
834.500000	0.972076   
835.000000	0.963632   
835.500000	0.957469   
836.000000	0.961400   
836.500000	1.006929   
837.000000	1.056411   
837.500000	1.088938   
838.000000	1.115738   
838.500000	1.114677   
839.000000	1.069230   
839.500000	0.993957   
840.000000	0.939858   
840.500000	0.936107   
841.000000	0.919990   
841.500000	0.923189   
842.000000	0.906244   
842.500000	0.864974   
843.000000	0.792534   
843.500000	0.689046   
844.000000	0.612712   
844.500000	0.543024   
845.000000	0.543560   
845.500000	0.570573   
846.000000	0.605076   
846.500000	0.670615   
847.000000	0.700272   
847.500000	0.693573   
848.000000	0.639122   
848.500000	0.582682   
849.000000	0.527890   
849.500000	0.452871   
850.000000	0.376814   
850.500000	0.325582   
851.000000	0.262742   
851.500000	0.189048   
852.000000	0.158695   
852.500000	0.162048   
853.000000	0.197211   
853.500000	0.226085   
854.000000	0.253061   
854.500000	0.247827   
855.000000	0.195304   
855.500000	0.132474   
856.000000	0.049625   
856.500000	0.008883   
857.000000	-0.014756  
857.500000	-0.019615  
858.000000	-0.007244  
858.500000	0.013037   
859.000000	0.031307   
859.500000	0.007434   
860.000000	-0.016354  
860.500000	-0.029090  
861.000000	-0.045747  
861.500000	-0.062478  
862.000000	-0.045179  
862.500000	-0.021092  
863.000000	-0.021541  
863.500000	-0.028641  
864.000000	-0.024163  
864.500000	-0.028317  
865.000000	-0.038365  
865.500000	-0.013504  
866.000000	0.038962   
866.500000	0.097612   
867.000000	0.105985   
867.500000	0.119753   
868.000000	0.104808   
868.500000	0.048910   
869.000000	-0.000328  
869.500000	-0.024931  
870.000000	-0.002808  
870.500000	-0.026610  
871.000000	-0.018005  
871.500000	-0.005918  
872.000000	-0.026525  
872.500000	-0.037897  
873.000000	-0.061608  
873.500000	-0.052463  
874.000000	-0.069042  
874.500000	-0.069350  
875.000000	-0.057951  
875.500000	-0.056827  
876.000000	-0.044846  
876.500000	-0.045953  
877.000000	-0.064884  
877.500000	-0.095172  
878.000000	-0.123042  
878.500000	-0.150300  
879.000000	-0.163968  
879.500000	-0.148549  
880.000000	-0.119198  
880.500000	-0.121582  
881.000000	-0.113339  
881.500000	-0.099682  
882.000000	-0.106012  
882.500000	-0.090432  
883.000000	-0.059881  
883.500000	-0.013679  
884.000000	-0.006834  
884.500000	0.013439   
885.000000	0.036805   
885.500000	0.027456   
886.000000	0.037820   
886.500000	0.053578   
887.000000	0.076781   
887.500000	0.060627   
888.000000	0.046773   
888.500000	0.044447   
889.000000	0.012513   
889.500000	-0.002771  
890.000000	-0.022294  
890.500000	-0.057881  
891.000000	-0.118977  
891.500000	-0.179317  
892.000000	-0.199150  
892.500000	-0.221556  
893.000000	-0.200827  
893.500000	-0.153771  
894.000000	-0.115749  
894.500000	-0.100437  
895.000000	-0.097938  
895.500000	-0.075482  
896.000000	-0.074400  
896.500000	-0.078469  

