PE FL                   SPECTRUM    ASCII       PEDS        1.60        
  -1
S00BBB~1.SP
24/04/11
16:13:18.00
24/04/11
16:13:18.00
Jan

896.500000
1









LS55
405.00
5.00
5.00
SCAN
1
20
100
100
0
400
0
1
0
1
5
ON
736 405 
1 0 0
#HDR
-1
-1
#GR
NM

0.00002384185791015625
0.0
450.000000
0.500000
894
8
389.169332
-0.433000
#DATA
450.000000	-0.433000  
450.500000	-0.167217  
451.000000	0.029753   
451.500000	0.139962   
452.000000	0.196823   
452.500000	0.162931   
453.000000	0.081161   
453.500000	-0.006320  
454.000000	-0.076601  
454.500000	-0.116287  
455.000000	-0.100710  
455.500000	-0.012163  
456.000000	0.098580   
456.500000	0.227769   
457.000000	0.333640   
457.500000	0.372471   
458.000000	0.373194   
458.500000	0.335556   
459.000000	0.300693   
459.500000	0.281762   
460.000000	0.272293   
460.500000	0.243495   
461.000000	0.191515   
461.500000	0.125782   
462.000000	0.050814   
462.500000	0.008000   
463.000000	0.040840   
463.500000	0.101756   
464.000000	0.135768   
464.500000	0.134103   
465.000000	0.146564   
465.500000	0.114408   
466.000000	0.073250   
466.500000	0.067098   
467.000000	0.102612   
467.500000	0.115178   
468.000000	0.083653   
468.500000	0.077083   
469.000000	0.069391   
469.500000	0.086614   
470.000000	0.138237   
470.500000	0.246194   
471.000000	0.386209   
471.500000	0.441560   
472.000000	0.467469   
472.500000	0.460534   
473.000000	0.417402   
473.500000	0.324612   
474.000000	0.229397   
474.500000	0.178105   
475.000000	0.143256   
475.500000	0.103858   
476.000000	0.096007   
476.500000	0.127302   
477.000000	0.177948   
477.500000	0.212747   
478.000000	0.231243   
478.500000	0.253651   
479.000000	0.229022   
479.500000	0.167153   
480.000000	0.114372   
480.500000	0.089090   
481.000000	0.096450   
481.500000	0.080821   
482.000000	0.072742   
482.500000	0.070712   
483.000000	0.064575   
483.500000	0.087068   
484.000000	0.118768   
484.500000	0.199914   
485.000000	0.267259   
485.500000	0.276159   
486.000000	0.243313   
486.500000	0.150782   
487.000000	0.088985   
487.500000	0.030983   
488.000000	0.072614   
488.500000	0.178096   
489.000000	0.278961   
489.500000	0.357419   
490.000000	0.348727   
490.500000	0.307884   
491.000000	0.220385   
491.500000	0.188844   
492.000000	0.221669   
492.500000	0.301641   
493.000000	0.380454   
493.500000	0.408352   
494.000000	0.406844   
494.500000	0.341660   
495.000000	0.244858   
495.500000	0.181840   
496.000000	0.168163   
496.500000	0.171601   
497.000000	0.182168   
497.500000	0.238753   
498.000000	0.342148   
498.500000	0.459745   
499.000000	0.575358   
499.500000	0.670614   
500.000000	0.695693   
500.500000	0.640137   
501.000000	0.554823   
501.500000	0.494341   
502.000000	0.474990   
502.500000	0.507933   
503.000000	0.580990   
503.500000	0.678569   
504.000000	0.754165   
504.500000	0.808771   
505.000000	0.838575   
505.500000	0.833812   
506.000000	0.832050   
506.500000	0.846482   
507.000000	0.885419   
507.500000	0.930597   
508.000000	1.013385   
508.500000	1.153406   
509.000000	1.276172   
509.500000	1.401920   
510.000000	1.487116   
510.500000	1.597371   
511.000000	1.648254   
511.500000	1.645833   
512.000000	1.634647   
512.500000	1.595597   
513.000000	1.621695   
513.500000	1.680679   
514.000000	1.841463   
514.500000	2.028797   
515.000000	2.181311   
515.500000	2.279662   
516.000000	2.328124   
516.500000	2.328506   
517.000000	2.312419   
517.500000	2.326901   
518.000000	2.368636   
518.500000	2.377012   
519.000000	2.365211   
519.500000	2.342526   
520.000000	2.249307   
520.500000	2.219699   
521.000000	2.257903   
521.500000	2.395805   
522.000000	2.543213   
522.500000	2.685100   
523.000000	2.857975   
523.500000	2.961846   
524.000000	3.043003   
524.500000	3.071122   
525.000000	3.139807   
525.500000	3.209434   
526.000000	3.318688   
526.500000	3.443881   
527.000000	3.591942   
527.500000	3.804289   
528.000000	4.007274   
528.500000	4.263630   
529.000000	4.492411   
529.500000	4.715658   
530.000000	4.891476   
530.500000	4.989233   
531.000000	5.091949   
531.500000	5.225478   
532.000000	5.416296   
532.500000	5.592708   
533.000000	5.826716   
533.500000	6.120701   
534.000000	6.361218   
534.500000	6.488860   
535.000000	6.586985   
535.500000	6.730888   
536.000000	6.886283   
536.500000	7.094274   
537.000000	7.448408   
537.500000	7.921907   
538.000000	8.371564   
538.500000	8.795987   
539.000000	9.251337   
539.500000	9.712968   
540.000000	10.099860  
540.500000	10.435463  
541.000000	10.785038  
541.500000	11.059441  
542.000000	11.188512  
542.500000	11.331539  
543.000000	11.455476  
543.500000	11.479875  
544.000000	11.385623  
544.500000	11.207784  
545.000000	10.964875  
545.500000	10.635087  
546.000000	10.420270  
546.500000	10.290692  
547.000000	10.204085  
547.500000	10.119359  
548.000000	9.982565   
548.500000	9.865860   
549.000000	9.772614   
549.500000	9.810478   
550.000000	9.868131   
550.500000	9.931881   
551.000000	10.001951  
551.500000	9.925562   
552.000000	9.823812   
552.500000	9.810673   
553.000000	9.949727   
553.500000	10.105504  
554.000000	10.311799  
554.500000	10.532575  
555.000000	10.638591  
555.500000	10.652654  
556.000000	10.625107  
556.500000	10.720686  
557.000000	10.880261  
557.500000	11.194042  
558.000000	11.547751  
558.500000	11.868042  
559.000000	12.195178  
559.500000	12.437512  
560.000000	12.747128  
560.500000	13.112254  
561.000000	13.625089  
561.500000	14.199213  
562.000000	14.791272  
562.500000	15.361688  
563.000000	15.799048  
563.500000	16.204124  
564.000000	16.592450  
564.500000	17.050076  
565.000000	17.539131  
565.500000	18.177294  
566.000000	18.843105  
566.500000	19.494693  
567.000000	20.127873  
567.500000	20.809538  
568.000000	21.539706  
568.500000	22.211884  
569.000000	22.991684  
569.500000	23.836343  
570.000000	24.676621  
570.500000	25.435617  
571.000000	26.156001  
571.500000	27.009697  
572.000000	27.840619  
572.500000	28.677873  
573.000000	29.559116  
573.500000	30.471671  
574.000000	31.329243  
574.500000	32.262165  
575.000000	33.320599  
575.500000	34.400237  
576.000000	35.348246  
576.500000	36.301372  
577.000000	37.196337  
577.500000	38.025868  
578.000000	38.965146  
578.500000	39.811961  
579.000000	40.708163  
579.500000	41.415714  
580.000000	42.001504  
580.500000	42.540699  
581.000000	42.908974  
581.500000	43.557927  
582.000000	44.060050  
582.500000	44.740105  
583.000000	45.488576  
583.500000	46.387200  
584.000000	47.593944  
584.500000	48.693185  
585.000000	50.072912  
585.500000	51.255031  
586.000000	52.422797  
586.500000	53.722602  
587.000000	55.106285  
587.500000	56.924500  
588.000000	58.511875  
588.500000	60.179530  
589.000000	61.407025  
589.500000	62.313643  
590.000000	63.160064  
590.500000	64.132842  
591.000000	65.650029  
591.500000	67.405690  
592.000000	69.553330  
592.500000	71.541541  
593.000000	73.407128  
593.500000	75.003606  
594.000000	76.335571  
594.500000	77.851788  
595.000000	79.436350  
595.500000	81.197087  
596.000000	82.947788  
596.500000	84.905159  
597.000000	87.011560  
597.500000	88.884100  
598.000000	90.793805  
598.500000	92.834070  
599.000000	94.693699  
599.500000	96.425738  
600.000000	97.931833  
600.500000	99.733369  
601.000000	101.507157 
601.500000	103.407081 
602.000000	105.767738 
602.500000	108.350369 
603.000000	111.086022 
603.500000	113.537764 
604.000000	116.117532 
604.500000	118.756641 
605.000000	121.428118 
605.500000	124.204146 
606.000000	127.083150 
606.500000	130.024627 
607.000000	132.648439 
607.500000	135.290137 
608.000000	137.975274 
608.500000	140.811730 
609.000000	143.934519 
609.500000	147.371918 
610.000000	151.057599 
610.500000	154.568378 
611.000000	157.943909 
611.500000	161.080185 
612.000000	164.060074 
612.500000	167.416194 
613.000000	171.054530 
613.500000	175.072144 
614.000000	179.000358 
614.500000	182.578072 
615.000000	185.928178 
615.500000	188.583454 
616.000000	191.370348 
616.500000	194.353888 
617.000000	197.886309 
617.500000	202.118717 
618.000000	206.654862 
618.500000	211.200165 
619.000000	215.097768 
619.500000	219.107940 
620.000000	223.030122 
620.500000	227.181623 
621.000000	231.591191 
621.500000	235.872109 
622.000000	240.318489 
622.500000	244.637630 
623.000000	249.143933 
623.500000	253.400259 
624.000000	257.546397 
624.500000	261.994736 
625.000000	265.874549 
625.500000	269.602745 
626.000000	273.725760 
626.500000	278.447283 
627.000000	283.210430 
627.500000	288.194636 
628.000000	293.825692 
628.500000	298.541751 
629.000000	302.636899 
629.500000	306.521649 
630.000000	310.347248 
630.500000	314.052109 
631.000000	317.454400 
631.500000	321.121679 
632.000000	324.230632 
632.500000	327.592589 
633.000000	331.437155 
633.500000	335.608975 
634.000000	339.991465 
634.500000	344.395966 
635.000000	348.732920 
635.500000	352.010547 
636.000000	354.977615 
636.500000	357.976808 
637.000000	360.582493 
637.500000	363.146868 
638.000000	365.457378 
638.500000	368.284588 
639.000000	371.103677 
639.500000	374.112506 
640.000000	377.416627 
640.500000	380.198211 
641.000000	382.587228 
641.500000	383.910844 
642.000000	384.947840 
642.500000	385.799239 
643.000000	386.335337 
643.500000	387.350692 
644.000000	388.090998 
644.500000	389.080534 
645.000000	389.169332 
645.500000	388.876244 
646.000000	388.618430 
646.500000	387.953927 
647.000000	387.485647 
647.500000	387.112831 
648.000000	387.139834 
648.500000	386.951404 
649.000000	386.434326 
649.500000	385.933645 
650.000000	385.007294 
650.500000	383.779005 
651.000000	382.317189 
651.500000	380.985617 
652.000000	379.645679 
652.500000	378.279567 
653.000000	376.594421 
653.500000	374.867515 
654.000000	373.083803 
654.500000	371.220855 
655.000000	369.040053 
655.500000	366.445480 
656.000000	363.591985 
656.500000	360.105851 
657.000000	356.471285 
657.500000	352.874632 
658.000000	349.334085 
658.500000	345.806920 
659.000000	342.153333 
659.500000	338.484927 
660.000000	334.381031 
660.500000	330.213528 
661.000000	325.997851 
661.500000	321.664979 
662.000000	317.469261 
662.500000	313.308163 
663.000000	309.576224 
663.500000	305.544261 
664.000000	301.284029 
664.500000	297.000439 
665.000000	292.389135 
665.500000	287.483734 
666.000000	282.238118 
666.500000	277.348124 
667.000000	272.381319 
667.500000	267.293272 
668.000000	262.433317 
668.500000	257.593137 
669.000000	252.668385 
669.500000	247.289278 
670.000000	241.993320 
670.500000	236.845871 
671.000000	231.557378 
671.500000	226.217009 
672.000000	221.028319 
672.500000	215.774011 
673.000000	210.627788 
673.500000	205.432124 
674.000000	200.323322 
674.500000	195.397055 
675.000000	190.287829 
675.500000	185.217463 
676.000000	180.199643 
676.500000	175.498567 
677.000000	170.992493 
677.500000	166.513085 
678.000000	162.358096 
678.500000	158.060823 
679.000000	153.474552 
679.500000	148.674853 
680.000000	143.885452 
680.500000	139.454098 
681.000000	135.239289 
681.500000	131.553790 
682.000000	128.246959 
682.500000	125.021695 
683.000000	122.212111 
683.500000	119.517267 
684.000000	116.749764 
684.500000	113.933525 
685.000000	111.029714 
685.500000	107.854786 
686.000000	104.228773 
686.500000	100.744120 
687.000000	97.491899  
687.500000	94.506280  
688.000000	91.738179  
688.500000	89.300868  
689.000000	86.816506  
689.500000	84.025443  
690.000000	81.106272  
690.500000	78.026931  
691.000000	75.299434  
691.500000	72.923128  
692.000000	70.909701  
692.500000	69.160213  
693.000000	67.748630  
693.500000	66.527372  
694.000000	65.094072  
694.500000	63.677738  
695.000000	62.283840  
695.500000	60.579241  
696.000000	58.552610  
696.500000	56.501829  
697.000000	54.496688  
697.500000	52.653423  
698.000000	51.104307  
698.500000	49.949647  
699.000000	48.826269  
699.500000	47.633905  
700.000000	46.402248  
700.500000	44.873545  
701.000000	43.367358  
701.500000	41.942866  
702.000000	40.784280  
702.500000	39.747565  
703.000000	38.830532  
703.500000	37.991847  
704.000000	36.912051  
704.500000	35.763048  
705.000000	34.607730  
705.500000	33.604328  
706.000000	32.853096  
706.500000	32.214810  
707.000000	31.798877  
707.500000	31.246931  
708.000000	30.498877  
708.500000	29.728248  
709.000000	28.907936  
709.500000	28.181964  
710.000000	27.474215  
710.500000	26.855532  
711.000000	26.239710  
711.500000	25.436805  
712.000000	24.734354  
712.500000	24.200682  
713.000000	23.866434  
713.500000	23.597567  
714.000000	23.312953  
714.500000	22.961408  
715.000000	22.300465  
715.500000	21.512027  
716.000000	20.694515  
716.500000	20.012307  
717.000000	19.580829  
717.500000	19.259899  
718.000000	19.062040  
718.500000	18.878460  
719.000000	18.627448  
719.500000	18.225419  
720.000000	17.811914  
720.500000	17.364602  
721.000000	16.826367  
721.500000	16.307680  
722.000000	15.870133  
722.500000	15.524805  
723.000000	15.303825  
723.500000	15.215293  
724.000000	15.153935  
724.500000	14.974601  
725.000000	14.582981  
725.500000	14.144063  
726.000000	13.608996  
726.500000	13.244276  
727.000000	13.076975  
727.500000	13.059810  
728.000000	13.059862  
728.500000	12.889053  
729.000000	12.600801  
729.500000	12.144677  
730.000000	11.747803  
730.500000	11.497211  
731.000000	11.405352  
731.500000	11.475679  
732.000000	11.534209  
732.500000	11.522179  
733.000000	11.355282  
733.500000	10.954369  
734.000000	10.465499  
734.500000	9.952935   
735.000000	9.556033   
735.500000	9.342324   
736.000000	9.269719   
736.500000	9.367706   
737.000000	9.382061   
737.500000	9.386493   
738.000000	9.251619   
738.500000	9.033732   
739.000000	8.799330   
739.500000	8.573055   
740.000000	8.451716   
740.500000	8.291647   
741.000000	8.181966   
741.500000	8.097131   
742.000000	7.990935   
742.500000	7.920129   
743.000000	7.843194   
743.500000	7.806450   
744.000000	7.672465   
744.500000	7.461664   
745.000000	7.290476   
745.500000	7.165699   
746.000000	7.089779   
746.500000	7.008432   
747.000000	6.959833   
747.500000	6.885656   
748.000000	6.750758   
748.500000	6.604716   
749.000000	6.524246   
749.500000	6.513619   
750.000000	6.499094   
750.500000	6.488001   
751.000000	6.448050   
751.500000	6.412818   
752.000000	6.341016   
752.500000	6.291500   
753.000000	6.248241   
753.500000	6.140630   
754.000000	5.971024   
754.500000	5.704500   
755.000000	5.549246   
755.500000	5.481465   
756.000000	5.501265   
756.500000	5.625066   
757.000000	5.759378   
757.500000	5.846521   
758.000000	5.788144   
758.500000	5.695946   
759.000000	5.576536   
759.500000	5.355378   
760.000000	5.140814   
760.500000	4.921024   
761.000000	4.808189   
761.500000	4.797699   
762.000000	4.918675   
762.500000	5.152547   
763.000000	5.389758   
763.500000	5.542166   
764.000000	5.542105   
764.500000	5.426291   
765.000000	5.292538   
765.500000	5.158730   
766.000000	5.049688   
766.500000	5.076768   
767.000000	5.121883   
767.500000	5.136031   
768.000000	5.074647   
768.500000	4.972022   
769.000000	4.843025   
769.500000	4.620543   
770.000000	4.475536   
770.500000	4.347803   
771.000000	4.240968   
771.500000	4.117076   
772.000000	4.017105   
772.500000	3.939163   
773.000000	3.850385   
773.500000	3.780311   
774.000000	3.731638   
774.500000	3.662322   
775.000000	3.544194   
775.500000	3.443679   
776.000000	3.360423   
776.500000	3.348428   
777.000000	3.331864   
777.500000	3.362465   
778.000000	3.393356   
778.500000	3.405192   
779.000000	3.431020   
779.500000	3.467968   
780.000000	3.566682   
780.500000	3.659463   
781.000000	3.713569   
781.500000	3.709461   
782.000000	3.630814   
782.500000	3.488892   
783.000000	3.330959   
783.500000	3.228860   
784.000000	3.198936   
784.500000	3.201146   
785.000000	3.269458   
785.500000	3.389606   
786.000000	3.494254   
786.500000	3.560940   
787.000000	3.562020   
787.500000	3.521415   
788.000000	3.400115   
788.500000	3.303480   
789.000000	3.233743   
789.500000	3.166929   
790.000000	3.116784   
790.500000	3.087437   
791.000000	3.053894   
791.500000	2.958879   
792.000000	2.898489   
792.500000	2.882519   
793.000000	2.927564   
793.500000	2.994894   
794.000000	3.046792   
794.500000	3.032589   
795.000000	2.938910   
795.500000	2.806244   
796.000000	2.659842   
796.500000	2.581022   
797.000000	2.555387   
797.500000	2.598923   
798.000000	2.665823   
798.500000	2.724269   
799.000000	2.707343   
799.500000	2.579161   
800.000000	2.414391   
800.500000	2.247256   
801.000000	2.168103   
801.500000	2.180749   
802.000000	2.276363   
802.500000	2.383402   
803.000000	2.480116   
803.500000	2.518025   
804.000000	2.430306   
804.500000	2.327035   
805.000000	2.285066   
805.500000	2.269428   
806.000000	2.259703   
806.500000	2.271660   
807.000000	2.284977   
807.500000	2.244512   
808.000000	2.200213   
808.500000	2.255302   
809.000000	2.327282   
809.500000	2.414063   
810.000000	2.492808   
810.500000	2.544985   
811.000000	2.543081   
811.500000	2.413909   
812.000000	2.273560   
812.500000	2.074076   
813.000000	1.945910   
813.500000	1.883658   
814.000000	1.874166   
814.500000	1.971319   
815.000000	2.030213   
815.500000	2.055897   
816.000000	1.946734   
816.500000	1.788981   
817.000000	1.626269   
817.500000	1.500098   
818.000000	1.509593   
818.500000	1.603192   
819.000000	1.787769   
819.500000	1.973595   
820.000000	2.144714   
820.500000	2.320959   
821.000000	2.453708   
821.500000	2.563745   
822.000000	2.628929   
822.500000	2.654946   
823.000000	2.669849   
823.500000	2.658794   
824.000000	2.697113   
824.500000	2.731302   
825.000000	2.777445   
825.500000	2.782228   
826.000000	2.740910   
826.500000	2.667812   
827.000000	2.599324   
827.500000	2.589649   
828.000000	2.586016   
828.500000	2.624430   
829.000000	2.639274   
829.500000	2.600858   
830.000000	2.460888   
830.500000	2.298029   
831.000000	2.100829   
831.500000	1.866168   
832.000000	1.649829   
832.500000	1.479391   
833.000000	1.360962   
833.500000	1.252250   
834.000000	1.219447   
834.500000	1.187567   
835.000000	1.169179   
835.500000	1.145606   
836.000000	1.138935   
836.500000	1.123513   
837.000000	1.107196   
837.500000	1.115877   
838.000000	1.086790   
838.500000	1.061380   
839.000000	1.002044   
839.500000	0.947129   
840.000000	0.889283   
840.500000	0.838510   
841.000000	0.814914   
841.500000	0.781491   
842.000000	0.761988   
842.500000	0.728604   
843.000000	0.701159   
843.500000	0.685135   
844.000000	0.673001   
844.500000	0.634220   
845.000000	0.586324   
845.500000	0.538571   
846.000000	0.480187   
846.500000	0.422547   
847.000000	0.403196   
847.500000	0.430398   
848.000000	0.477608   
848.500000	0.547204   
849.000000	0.595968   
849.500000	0.641209   
850.000000	0.651096   
850.500000	0.602894   
851.000000	0.540784   
851.500000	0.464361   
852.000000	0.384949   
852.500000	0.283927   
853.000000	0.235020   
853.500000	0.216912   
854.000000	0.202664   
854.500000	0.197842   
855.000000	0.210354   
855.500000	0.223439   
856.000000	0.203638   
856.500000	0.202103   
857.000000	0.204723   
857.500000	0.180113   
858.000000	0.142955   
858.500000	0.107504   
859.000000	0.104118   
859.500000	0.105738   
860.000000	0.151779   
860.500000	0.204829   
861.000000	0.259012   
861.500000	0.283042   
862.000000	0.259641   
862.500000	0.211523   
863.000000	0.114439   
863.500000	0.033920   
864.000000	-0.024111  
864.500000	-0.023300  
865.000000	0.020562   
865.500000	0.072289   
866.000000	0.135543   
866.500000	0.137122   
867.000000	0.137213   
867.500000	0.106938   
868.000000	0.074163   
868.500000	0.041615   
869.000000	0.019376   
869.500000	0.019575   
870.000000	-0.022933  
870.500000	-0.035983  
871.000000	-0.036766  
871.500000	-0.016864  
872.000000	0.019721   
872.500000	0.054920   
873.000000	0.090157   
873.500000	0.075985   
874.000000	0.056727   
874.500000	0.029743   
875.000000	0.001797   
875.500000	-0.014031  
876.000000	-0.008307  
876.500000	-0.006834  
877.000000	-0.014430  
877.500000	-0.010745  
878.000000	-0.007265  
878.500000	-0.006820  
879.000000	-0.033849  
879.500000	-0.043671  
880.000000	-0.072612  
880.500000	-0.104901  
881.000000	-0.142599  
881.500000	-0.158551  
882.000000	-0.143228  
882.500000	-0.155463  
883.000000	-0.147834  
883.500000	-0.144864  
884.000000	-0.126818  
884.500000	-0.124315  
885.000000	-0.129888  
885.500000	-0.093627  
886.000000	-0.038339  
886.500000	0.017181   
887.000000	0.079560   
887.500000	0.162994   
888.000000	0.225814   
888.500000	0.217686   
889.000000	0.172087   
889.500000	0.101968   
890.000000	-0.012269  
890.500000	-0.102070  
891.000000	-0.140782  
891.500000	-0.110139  
892.000000	-0.060988  
892.500000	-0.007187  
893.000000	0.041521   
893.500000	0.038899   
894.000000	0.022667   
894.500000	-0.000948  
895.000000	-0.024593  
895.500000	-0.020628  
896.000000	0.005122   
896.500000	0.028833   

