PE FL                   SPECTRUM    ASCII       PEDS        1.60        
  -1
S0039F~1.SP
24/04/11
16:48:57.00
24/04/11
16:48:57.00
Jan

896.500000
1









LS55
405.00
5.00
5.00
SCAN
1
20
100
100
0
400
0
1
0
1
5
ON
736 405 
1 0 0
#HDR
-1
-1
#GR
NM

0.00002384185791015625
0.0
450.000000
0.500000
894
8
328.845456
-0.267775
#DATA
450.000000	0.067000   
450.500000	0.080478   
451.000000	0.099812   
451.500000	0.112410   
452.000000	0.101575   
452.500000	0.102050   
453.000000	0.123647   
453.500000	0.161508   
454.000000	0.161660   
454.500000	0.185766   
455.000000	0.204625   
455.500000	0.191352   
456.000000	0.171181   
456.500000	0.164589   
457.000000	0.190677   
457.500000	0.176179   
458.000000	0.206541   
458.500000	0.246280   
459.000000	0.294003   
459.500000	0.324022   
460.000000	0.288987   
460.500000	0.229842   
461.000000	0.072615   
461.500000	-0.068191  
462.000000	-0.203194  
462.500000	-0.267775  
463.000000	-0.243756  
463.500000	-0.170122  
464.000000	-0.029779  
464.500000	0.084571   
465.000000	0.198909   
465.500000	0.229395   
466.000000	0.192998   
466.500000	0.138376   
467.000000	0.056159   
467.500000	0.016671   
468.000000	-0.023285  
468.500000	-0.010964  
469.000000	-0.014519  
469.500000	-0.033278  
470.000000	-0.027423  
470.500000	-0.018847  
471.000000	-0.043712  
471.500000	-0.056306  
472.000000	-0.018647  
472.500000	0.025669   
473.000000	0.025413   
473.500000	0.035146   
474.000000	0.084133   
474.500000	0.088478   
475.000000	0.069482   
475.500000	0.044827   
476.000000	0.012983   
476.500000	-0.018996  
477.000000	-0.074454  
477.500000	-0.043771  
478.000000	-0.009877  
478.500000	0.039269   
479.000000	0.116673   
479.500000	0.181371   
480.000000	0.253625   
480.500000	0.247270   
481.000000	0.233792   
481.500000	0.173491   
482.000000	0.064645   
482.500000	0.019675   
483.000000	0.006016   
483.500000	0.072454   
484.000000	0.146187   
484.500000	0.243521   
485.000000	0.306291   
485.500000	0.278031   
486.000000	0.230092   
486.500000	0.186714   
487.000000	0.150936   
487.500000	0.134256   
488.000000	0.153742   
488.500000	0.210981   
489.000000	0.264723   
489.500000	0.311788   
490.000000	0.372050   
490.500000	0.445410   
491.000000	0.504113   
491.500000	0.534092   
492.000000	0.552764   
492.500000	0.548814   
493.000000	0.473829   
493.500000	0.353178   
494.000000	0.248500   
494.500000	0.145296   
495.000000	0.077413   
495.500000	0.099888   
496.000000	0.178766   
496.500000	0.239857   
497.000000	0.285808   
497.500000	0.344933   
498.000000	0.391320   
498.500000	0.423272   
499.000000	0.481191   
499.500000	0.514569   
500.000000	0.476849   
500.500000	0.389077   
501.000000	0.303001   
501.500000	0.238745   
502.000000	0.236176   
502.500000	0.349083   
503.000000	0.522836   
503.500000	0.681992   
504.000000	0.765076   
504.500000	0.833274   
505.000000	0.836769   
505.500000	0.848760   
506.000000	0.863602   
506.500000	0.875745   
507.000000	0.915868   
507.500000	0.867740   
508.000000	0.891302   
508.500000	0.953699   
509.000000	1.043397   
509.500000	1.137792   
510.000000	1.205239   
510.500000	1.299406   
511.000000	1.315987   
511.500000	1.373068   
512.000000	1.483966   
512.500000	1.642267   
513.000000	1.826113   
513.500000	1.925523   
514.000000	1.990526   
514.500000	2.006144   
515.000000	1.956346   
515.500000	1.912141   
516.000000	1.887074   
516.500000	1.985766   
517.000000	2.064155   
517.500000	2.132194   
518.000000	2.257690   
518.500000	2.383148   
519.000000	2.464474   
519.500000	2.476858   
520.000000	2.562025   
520.500000	2.609888   
521.000000	2.630792   
521.500000	2.667686   
522.000000	2.680987   
522.500000	2.730445   
523.000000	2.722205   
523.500000	2.759324   
524.000000	2.758673   
524.500000	2.889207   
525.000000	3.104363   
525.500000	3.312135   
526.000000	3.613378   
526.500000	3.901504   
527.000000	4.126914   
527.500000	4.170346   
528.000000	4.185500   
528.500000	4.213623   
529.000000	4.180870   
529.500000	4.236144   
530.000000	4.415910   
530.500000	4.690860   
531.000000	5.000525   
531.500000	5.282562   
532.000000	5.536319   
532.500000	5.761946   
533.000000	5.963165   
533.500000	6.181423   
534.000000	6.370387   
534.500000	6.635096   
535.000000	6.911230   
535.500000	7.122957   
536.000000	7.316007   
536.500000	7.485048   
537.000000	7.679764   
537.500000	7.903070   
538.000000	8.277192   
538.500000	8.722380   
539.000000	9.242977   
539.500000	9.776328   
540.000000	10.284037  
540.500000	10.738174  
541.000000	11.061330  
541.500000	11.358141  
542.000000	11.453773  
542.500000	11.556356  
543.000000	11.629575  
543.500000	11.678324  
544.000000	11.699270  
544.500000	11.609820  
545.000000	11.518528  
545.500000	11.284532  
546.000000	11.047246  
546.500000	10.875788  
547.000000	10.750643  
547.500000	10.660144  
548.000000	10.598827  
548.500000	10.488202  
549.000000	10.295528  
549.500000	10.057539  
550.000000	9.870387   
550.500000	9.796406   
551.000000	9.749447   
551.500000	9.833656   
552.000000	9.978922   
552.500000	10.140781  
553.000000	10.238077  
553.500000	10.358751  
554.000000	10.502855  
554.500000	10.585493  
555.000000	10.659703  
555.500000	10.778111  
556.000000	10.918697  
556.500000	11.092113  
557.000000	11.276595  
557.500000	11.458328  
558.000000	11.587408  
558.500000	11.775745  
559.000000	11.932834  
559.500000	12.138326  
560.000000	12.381558  
560.500000	12.670042  
561.000000	13.004038  
561.500000	13.331990  
562.000000	13.775285  
562.500000	14.234619  
563.000000	14.708439  
563.500000	15.199836  
564.000000	15.716129  
564.500000	16.336525  
565.000000	16.949235  
565.500000	17.610081  
566.000000	18.297877  
566.500000	19.067231  
567.000000	19.784972  
567.500000	20.347213  
568.000000	20.833243  
568.500000	21.296159  
569.000000	21.707250  
569.500000	22.050649  
570.000000	22.573914  
570.500000	23.279424  
571.000000	24.054764  
571.500000	24.796005  
572.000000	25.561716  
572.500000	26.340185  
573.000000	26.837007  
573.500000	27.334476  
574.000000	27.952666  
574.500000	28.604346  
575.000000	29.333456  
575.500000	30.207326  
576.000000	31.290098  
576.500000	32.150053  
577.000000	32.891491  
577.500000	33.572332  
578.000000	34.025627  
578.500000	34.332077  
579.000000	34.679803  
579.500000	35.301873  
580.000000	35.993784  
580.500000	36.767751  
581.000000	37.819597  
581.500000	38.843923  
582.000000	39.764981  
582.500000	40.489736  
583.000000	41.393530  
583.500000	42.343024  
584.000000	43.340029  
584.500000	44.585374  
585.000000	46.148487  
585.500000	47.802146  
586.000000	49.146306  
586.500000	50.389901  
587.000000	51.466638  
587.500000	52.433426  
588.000000	53.207881  
588.500000	54.112254  
589.000000	55.279460  
589.500000	56.538404  
590.000000	57.835094  
590.500000	59.236061  
591.000000	60.915178  
591.500000	62.484109  
592.000000	64.050703  
592.500000	65.661677  
593.000000	67.413840  
593.500000	69.016181  
594.000000	70.581155  
594.500000	72.174949  
595.000000	73.717953  
595.500000	75.062669  
596.000000	76.337495  
596.500000	77.856291  
597.000000	79.279903  
597.500000	81.019539  
598.000000	82.989187  
598.500000	85.162289  
599.000000	87.415602  
599.500000	89.656142  
600.000000	92.086064  
600.500000	94.128612  
601.000000	96.001903  
601.500000	97.820282  
602.000000	99.519525  
602.500000	101.298487 
603.000000	103.152790 
603.500000	105.390684 
604.000000	107.777033 
604.500000	110.088935 
605.000000	112.777712 
605.500000	115.436782 
606.000000	118.290150 
606.500000	121.124367 
607.000000	124.032395 
607.500000	127.124549 
608.000000	129.800397 
608.500000	132.481120 
609.000000	135.119270 
609.500000	137.932836 
610.000000	140.662602 
610.500000	143.527170 
611.000000	146.857192 
611.500000	149.937074 
612.000000	153.062022 
612.500000	156.065879 
613.000000	159.522597 
613.500000	162.845994 
614.000000	166.116820 
614.500000	169.419053 
615.000000	172.483860 
615.500000	175.570651 
616.000000	178.214690 
616.500000	180.881699 
617.000000	183.728675 
617.500000	187.004658 
618.000000	190.342179 
618.500000	193.926870 
619.000000	198.030938 
619.500000	202.103992 
620.000000	205.984990 
620.500000	209.570092 
621.000000	213.365463 
621.500000	216.880163 
622.000000	220.160046 
622.500000	223.504499 
623.000000	226.735424 
623.500000	229.803781 
624.000000	232.770280 
624.500000	236.028319 
625.000000	239.663482 
625.500000	243.301927 
626.000000	247.547059 
626.500000	251.934484 
627.000000	256.106263 
627.500000	260.081812 
628.000000	263.544486 
628.500000	266.965161 
629.000000	269.737523 
629.500000	272.584627 
630.000000	275.909445 
630.500000	279.282456 
631.000000	282.877025 
631.500000	286.453907 
632.000000	290.037855 
632.500000	293.239187 
633.000000	295.889202 
633.500000	298.369044 
634.000000	300.644797 
634.500000	302.757144 
635.000000	304.900348 
635.500000	307.116699 
636.000000	309.625821 
636.500000	312.313714 
637.000000	315.064994 
637.500000	317.612551 
638.000000	319.514083 
638.500000	320.859220 
639.000000	321.624556 
639.500000	322.258450 
640.000000	323.456359 
640.500000	324.553671 
641.000000	325.788044 
641.500000	327.019944 
642.000000	327.987207 
642.500000	328.482280 
643.000000	328.611580 
643.500000	328.845456 
644.000000	328.361025 
644.500000	327.267012 
645.000000	325.689361 
645.500000	323.969853 
646.000000	322.028640 
646.500000	320.654736 
647.000000	320.693779 
647.500000	321.554647 
648.000000	322.717408 
648.500000	323.327578 
649.000000	323.130044 
649.500000	321.628317 
650.000000	319.309135 
650.500000	316.406808 
651.000000	313.846589 
651.500000	311.719951 
652.000000	309.592302 
652.500000	307.338717 
653.000000	304.965886 
653.500000	302.467894 
654.000000	299.719230 
654.500000	297.192716 
655.000000	294.812554 
655.500000	292.408649 
656.000000	289.432545 
656.500000	285.918756 
657.000000	282.631089 
657.500000	279.285291 
658.000000	276.040489 
658.500000	272.758567 
659.000000	269.734352 
659.500000	266.470541 
660.000000	262.380307 
660.500000	258.163825 
661.000000	254.049985 
661.500000	250.022896 
662.000000	245.893148 
662.500000	241.879033 
663.000000	238.015521 
663.500000	233.530680 
664.000000	229.055252 
664.500000	224.685532 
665.000000	220.109669 
665.500000	215.526998 
666.000000	211.156901 
666.500000	206.879601 
667.000000	202.426109 
667.500000	198.204538 
668.000000	194.366706 
668.500000	190.183706 
669.000000	185.995831 
669.500000	181.907124 
670.000000	177.802768 
670.500000	173.390944 
671.000000	169.067508 
671.500000	165.180755 
672.000000	161.037235 
672.500000	156.746595 
673.000000	152.683144 
673.500000	148.763775 
674.000000	145.132653 
674.500000	141.857807 
675.000000	138.821766 
675.500000	135.375315 
676.000000	131.420755 
676.500000	127.383567 
677.000000	122.890630 
677.500000	118.606482 
678.000000	114.949460 
678.500000	111.878549 
679.000000	108.892345 
679.500000	105.900372 
680.000000	103.228910 
680.500000	100.240313 
681.000000	97.178389  
681.500000	94.245519  
682.000000	91.578083  
682.500000	88.867627  
683.000000	86.213940  
683.500000	83.777519  
684.000000	81.358866  
684.500000	79.173174  
685.000000	77.112484  
685.500000	75.056185  
686.000000	72.928415  
686.500000	70.710632  
687.000000	68.369602  
687.500000	65.877159  
688.000000	63.625823  
688.500000	61.860749  
689.000000	60.181126  
689.500000	58.710742  
690.000000	57.417738  
690.500000	56.238424  
691.000000	54.981204  
691.500000	53.669586  
692.000000	52.498070  
692.500000	51.255307  
693.000000	49.860612  
693.500000	48.396491  
694.000000	46.842636  
694.500000	45.194688  
695.000000	43.691729  
695.500000	42.404693  
696.000000	41.438474  
696.500000	40.384777  
697.000000	39.552426  
697.500000	38.718781  
698.000000	37.749875  
698.500000	36.806998  
699.000000	35.703293  
699.500000	34.668400  
700.000000	33.320248  
700.500000	32.099410  
701.000000	30.943495  
701.500000	29.961805  
702.000000	29.136100  
702.500000	28.334304  
703.000000	27.776525  
703.500000	27.199834  
704.000000	26.635411  
704.500000	25.927367  
705.000000	25.264738  
705.500000	24.640834  
706.000000	23.994306  
706.500000	23.448241  
707.000000	23.069257  
707.500000	22.812337  
708.000000	22.598157  
708.500000	22.415768  
709.000000	22.225352  
709.500000	21.926931  
710.000000	21.400916  
710.500000	20.867376  
711.000000	20.207217  
711.500000	19.550784  
712.000000	18.902745  
712.500000	18.172929  
713.000000	17.576597  
713.500000	17.000105  
714.000000	16.658243  
714.500000	16.388226  
715.000000	16.176538  
715.500000	16.041070  
716.000000	15.830153  
716.500000	15.672371  
717.000000	15.411716  
717.500000	15.247497  
718.000000	15.051222  
718.500000	14.758886  
719.000000	14.460226  
719.500000	14.098738  
720.000000	13.768768  
720.500000	13.426504  
721.000000	13.177391  
721.500000	13.007547  
722.000000	12.819489  
722.500000	12.574723  
723.000000	12.364918  
723.500000	12.214270  
724.000000	12.006593  
724.500000	11.774346  
725.000000	11.453406  
725.500000	11.072007  
726.000000	10.634098  
726.500000	10.288085  
727.000000	10.158897  
727.500000	10.135619  
728.000000	10.231280  
728.500000	10.318727  
729.000000	10.319749  
729.500000	10.196849  
730.000000	9.934001   
730.500000	9.736105   
731.000000	9.568289   
731.500000	9.435649   
732.000000	9.329944   
732.500000	9.179261   
733.000000	9.003530   
733.500000	8.723207   
734.000000	8.462857   
734.500000	8.260048   
735.000000	8.114246   
735.500000	8.014382   
736.000000	7.898512   
736.500000	7.867231   
737.000000	7.825773   
737.500000	7.791944   
738.000000	7.733543   
738.500000	7.746096   
739.000000	7.715172   
739.500000	7.585721   
740.000000	7.480909   
740.500000	7.354625   
741.000000	7.174484   
741.500000	6.902812   
742.000000	6.682441   
742.500000	6.502517   
743.000000	6.303435   
743.500000	6.196942   
744.000000	6.135128   
744.500000	6.085909   
745.000000	6.043862   
745.500000	6.019122   
746.000000	6.023714   
746.500000	6.027675   
747.000000	6.048380   
747.500000	6.021985   
748.000000	5.921738   
748.500000	5.793269   
749.000000	5.644118   
749.500000	5.582573   
750.000000	5.586851   
750.500000	5.607560   
751.000000	5.618450   
751.500000	5.603890   
752.000000	5.567627   
752.500000	5.469211   
753.000000	5.400315   
753.500000	5.391634   
754.000000	5.335263   
754.500000	5.271669   
755.000000	5.240651   
755.500000	5.247378   
756.000000	5.201998   
756.500000	5.217536   
757.000000	5.252031   
757.500000	5.218382   
758.000000	5.123432   
758.500000	4.995782   
759.000000	4.824545   
759.500000	4.589769   
760.000000	4.425346   
760.500000	4.291589   
761.000000	4.215949   
761.500000	4.194547   
762.000000	4.255380   
762.500000	4.373315   
763.000000	4.439135   
763.500000	4.528445   
764.000000	4.525586   
764.500000	4.435278   
765.000000	4.291224   
765.500000	4.167142   
766.000000	4.107515   
766.500000	4.061730   
767.000000	4.094129   
767.500000	4.147274   
768.000000	4.170562   
768.500000	4.163139   
769.000000	4.130077   
769.500000	4.115148   
770.000000	4.074020   
770.500000	4.034378   
771.000000	3.940374   
771.500000	3.848758   
772.000000	3.745098   
772.500000	3.681100   
773.000000	3.663467   
773.500000	3.700098   
774.000000	3.751944   
774.500000	3.669467   
775.000000	3.603769   
775.500000	3.537671   
776.000000	3.486521   
776.500000	3.455113   
777.000000	3.480560   
777.500000	3.562975   
778.000000	3.537764   
778.500000	3.515389   
779.000000	3.466686   
779.500000	3.392525   
780.000000	3.310411   
780.500000	3.245333   
781.000000	3.199148   
781.500000	3.124142   
782.000000	3.041756   
782.500000	2.986666   
783.000000	2.918408   
783.500000	2.863552   
784.000000	2.863322   
784.500000	2.877547   
785.000000	2.920113   
785.500000	2.965914   
786.000000	3.031493   
786.500000	3.041512   
787.000000	3.020131   
787.500000	3.000222   
788.000000	2.953946   
788.500000	2.898356   
789.000000	2.852111   
789.500000	2.863014   
790.000000	2.871738   
790.500000	2.867411   
791.000000	2.897814   
791.500000	2.908482   
792.000000	2.874007   
792.500000	2.833693   
793.000000	2.806628   
793.500000	2.770538   
794.000000	2.726586   
794.500000	2.739000   
795.000000	2.731102   
795.500000	2.687962   
796.000000	2.663623   
796.500000	2.632883   
797.000000	2.538573   
797.500000	2.392703   
798.000000	2.295482   
798.500000	2.200269   
799.000000	2.171931   
799.500000	2.253460   
800.000000	2.400632   
800.500000	2.484079   
801.000000	2.505851   
801.500000	2.474161   
802.000000	2.350124   
802.500000	2.225866   
803.000000	2.176562   
803.500000	2.177846   
804.000000	2.204294   
804.500000	2.279935   
805.000000	2.336686   
805.500000	2.348513   
806.000000	2.357645   
806.500000	2.376857   
807.000000	2.401179   
807.500000	2.382803   
808.000000	2.338717   
808.500000	2.254248   
809.000000	2.212606   
809.500000	2.141526   
810.000000	2.012634   
810.500000	1.928827   
811.000000	1.857118   
811.500000	1.779758   
812.000000	1.709382   
812.500000	1.746211   
813.000000	1.747736   
813.500000	1.637311   
814.000000	1.534293   
814.500000	1.447400   
815.000000	1.367391   
815.500000	1.340519   
816.000000	1.474578   
816.500000	1.684879   
817.000000	1.839699   
817.500000	1.928847   
818.000000	1.971966   
818.500000	1.963035   
819.000000	1.938510   
819.500000	1.981588   
820.000000	2.116812   
820.500000	2.257675   
821.000000	2.346586   
821.500000	2.434016   
822.000000	2.526207   
822.500000	2.568643   
823.000000	2.582871   
823.500000	2.624788   
824.000000	2.643226   
824.500000	2.620738   
825.000000	2.599012   
825.500000	2.595606   
826.000000	2.521944   
826.500000	2.473654   
827.000000	2.406899   
827.500000	2.257996   
828.000000	2.068538   
828.500000	1.881504   
829.000000	1.711387   
829.500000	1.503092   
830.000000	1.383033   
830.500000	1.362699   
831.000000	1.333641   
831.500000	1.316851   
832.000000	1.330087   
832.500000	1.337141   
833.000000	1.224074   
833.500000	1.088463   
834.000000	1.002831   
834.500000	0.919582   
835.000000	0.867851   
835.500000	0.887688   
836.000000	0.975699   
836.500000	1.053775   
837.000000	1.076621   
837.500000	1.073499   
838.000000	1.016955   
838.500000	0.929977   
839.000000	0.871367   
839.500000	0.865690   
840.000000	0.911183   
840.500000	0.937736   
841.000000	0.953230   
841.500000	0.907289   
842.000000	0.815319   
842.500000	0.690209   
843.000000	0.562367   
843.500000	0.506816   
844.000000	0.489450   
844.500000	0.522990   
845.000000	0.547029   
845.500000	0.588617   
846.000000	0.601569   
846.500000	0.579628   
847.000000	0.537146   
847.500000	0.477011   
848.000000	0.432048   
848.500000	0.357189   
849.000000	0.343677   
849.500000	0.355226   
850.000000	0.364571   
850.500000	0.333198   
851.000000	0.275319   
851.500000	0.223068   
852.000000	0.130589   
852.500000	0.036883   
853.000000	-0.009003  
853.500000	0.011710   
854.000000	0.055358   
854.500000	0.111667   
855.000000	0.180051   
855.500000	0.240228   
856.000000	0.245118   
856.500000	0.210341   
857.000000	0.161883   
857.500000	0.092146   
858.000000	0.037118   
858.500000	-0.012903  
859.000000	-0.014873  
859.500000	-0.010263  
860.000000	-0.005456  
860.500000	-0.015745  
861.000000	-0.020975  
861.500000	0.024465   
862.000000	0.069371   
862.500000	0.105469   
863.000000	0.141369   
863.500000	0.178653   
864.000000	0.160246   
864.500000	0.098857   
865.000000	0.032621   
865.500000	-0.031374  
866.000000	-0.111732  
866.500000	-0.185391  
867.000000	-0.212569  
867.500000	-0.230083  
868.000000	-0.217897  
868.500000	-0.188285  
869.000000	-0.139063  
869.500000	-0.095606  
870.000000	-0.073191  
870.500000	-0.055723  
871.000000	-0.036871  
871.500000	-0.013276  
872.000000	0.007079   
872.500000	0.031916   
873.000000	0.049571   
873.500000	0.045751   
874.000000	0.036682   
874.500000	0.007024   
875.000000	-0.032792  
875.500000	-0.057341  
876.000000	-0.052760  
876.500000	-0.035460  
877.000000	-0.001636  
877.500000	0.076858   
878.000000	0.149367   
878.500000	0.206595   
879.000000	0.238562   
879.500000	0.244330   
880.000000	0.215842   
880.500000	0.134096   
881.000000	0.079697   
881.500000	0.030523   
882.000000	-0.009226  
882.500000	-0.027612  
883.000000	-0.056089  
883.500000	-0.066586  
884.000000	-0.100224  
884.500000	-0.104951  
885.000000	-0.091512  
885.500000	-0.073348  
886.000000	-0.037743  
886.500000	-0.016220  
887.000000	0.000862   
887.500000	-0.013834  
888.000000	-0.042406  
888.500000	-0.062762  
889.000000	-0.093192  
889.500000	-0.099285  
890.000000	-0.087975  
890.500000	-0.095617  
891.000000	-0.113957  
891.500000	-0.123165  
892.000000	-0.118675  
892.500000	-0.108875  
893.000000	-0.085578  
893.500000	-0.025365  
894.000000	0.000218   
894.500000	-0.009653  
895.000000	-0.056042  
895.500000	-0.101335  
896.000000	-0.121343  
896.500000	-0.118482  

