PE FL                   SPECTRUM    ASCII       PEDS        1.60        
  -1
S013C7~1.SP
24/04/11
17:26:02.00
24/04/11
17:26:02.00
Jan

896.500000
1









LS55
405.00
5.00
5.00
SCAN
1
20
100
100
0
400
0
1
0
1
5
ON
736 405 
1 0 0
#HDR
-1
-1
#GR
NM

0.00002384185791015625
0.0
450.000000
0.500000
894
8
299.202560
-0.327601
#DATA
450.000000	0.131000   
450.500000	0.005790   
451.000000	-0.105246  
451.500000	-0.117009  
452.000000	-0.077261  
452.500000	0.004282   
453.000000	0.040751   
453.500000	0.082215   
454.000000	0.117447   
454.500000	0.128677   
455.000000	0.151545   
455.500000	0.184040   
456.000000	0.205621   
456.500000	0.147369   
457.000000	0.079840   
457.500000	0.018257   
458.000000	-0.065777  
458.500000	-0.110541  
459.000000	-0.070634  
459.500000	0.028508   
460.000000	0.092458   
460.500000	0.127532   
461.000000	0.121012   
461.500000	0.045410   
462.000000	-0.036120  
462.500000	-0.046421  
463.000000	0.001877   
463.500000	0.069873   
464.000000	0.186597   
464.500000	0.274775   
465.000000	0.277942   
465.500000	0.235506   
466.000000	0.196935   
466.500000	0.147148   
467.000000	0.099794   
467.500000	0.102257   
468.000000	0.098315   
468.500000	0.071148   
469.000000	-0.006478  
469.500000	-0.071526  
470.000000	-0.125651  
470.500000	-0.132894  
471.000000	-0.107591  
471.500000	-0.033037  
472.000000	0.055220   
472.500000	0.126883   
473.000000	0.144623   
473.500000	0.121730   
474.000000	0.126215   
474.500000	0.109397   
475.000000	0.077003   
475.500000	0.032152   
476.000000	0.020076   
476.500000	-0.002820  
477.000000	-0.043656  
477.500000	-0.032951  
478.000000	0.009666   
478.500000	0.048473   
479.000000	0.080376   
479.500000	0.128276   
480.000000	0.168985   
480.500000	0.168719   
481.000000	0.149640   
481.500000	0.147057   
482.000000	0.093942   
482.500000	0.062807   
483.000000	0.047120   
483.500000	0.065248   
484.000000	0.076853   
484.500000	0.114115   
485.000000	0.140113   
485.500000	0.131081   
486.000000	0.131736   
486.500000	0.096474   
487.000000	0.057864   
487.500000	-0.000038  
488.000000	-0.038586  
488.500000	-0.052200  
489.000000	-0.084465  
489.500000	-0.079061  
490.000000	-0.082085  
490.500000	-0.064539  
491.000000	-0.039922  
491.500000	0.026241   
492.000000	0.161929   
492.500000	0.293346   
493.000000	0.432573   
493.500000	0.519565   
494.000000	0.570031   
494.500000	0.554884   
495.000000	0.487890   
495.500000	0.412922   
496.000000	0.306536   
496.500000	0.225100   
497.000000	0.165411   
497.500000	0.162014   
498.000000	0.187884   
498.500000	0.298740   
499.000000	0.437899   
499.500000	0.567126   
500.000000	0.698897   
500.500000	0.790538   
501.000000	0.805092   
501.500000	0.751027   
502.000000	0.693944   
502.500000	0.643894   
503.000000	0.621827   
503.500000	0.657404   
504.000000	0.747645   
504.500000	0.812883   
505.000000	0.879983   
505.500000	0.906051   
506.000000	0.875545   
506.500000	0.837374   
507.000000	0.847452   
507.500000	0.875339   
508.000000	0.881632   
508.500000	0.901833   
509.000000	0.966666   
509.500000	1.009576   
510.000000	1.049241   
510.500000	1.178365   
511.000000	1.322591   
511.500000	1.455487   
512.000000	1.549178   
512.500000	1.672808   
513.000000	1.783152   
513.500000	1.841584   
514.000000	1.898656   
514.500000	1.902421   
515.000000	1.899116   
515.500000	1.860406   
516.000000	1.849936   
516.500000	1.907365   
517.000000	2.074810   
517.500000	2.301300   
518.000000	2.531994   
518.500000	2.720317   
519.000000	2.868578   
519.500000	2.923552   
520.000000	2.882977   
520.500000	2.871979   
521.000000	2.850343   
521.500000	2.840473   
522.000000	2.821237   
522.500000	2.835864   
523.000000	2.881189   
523.500000	2.890359   
524.000000	2.983868   
524.500000	3.178163   
525.000000	3.445204   
525.500000	3.699452   
526.000000	3.953124   
526.500000	4.171838   
527.000000	4.325935   
527.500000	4.457372   
528.000000	4.677914   
528.500000	4.932291   
529.000000	5.169530   
529.500000	5.374083   
530.000000	5.493278   
530.500000	5.607055   
531.000000	5.710278   
531.500000	5.936278   
532.000000	6.267840   
532.500000	6.643682   
533.000000	7.003614   
533.500000	7.191499   
534.000000	7.281903   
534.500000	7.334879   
535.000000	7.498133   
535.500000	7.741736   
536.000000	8.110682   
536.500000	8.564938   
537.000000	8.981482   
537.500000	9.334333   
538.000000	9.655421   
538.500000	10.051141  
539.000000	10.487148  
539.500000	10.977046  
540.000000	11.527528  
540.500000	11.988985  
541.000000	12.322222  
541.500000	12.540807  
542.000000	12.670896  
542.500000	12.721335  
543.000000	12.708384  
543.500000	12.730606  
544.000000	12.602962  
544.500000	12.398899  
545.000000	12.204925  
545.500000	11.954333  
546.000000	11.644178  
546.500000	11.307413  
547.000000	11.140306  
547.500000	10.924575  
548.000000	10.656469  
548.500000	10.423333  
549.000000	10.270248  
549.500000	10.115818  
550.000000	9.983183   
550.500000	10.075473  
551.000000	10.192146  
551.500000	10.245102  
552.000000	10.228402  
552.500000	10.253044  
553.000000	10.188131  
553.500000	10.094673  
554.000000	10.165150  
554.500000	10.385549  
555.000000	10.671385  
555.500000	10.958283  
556.000000	11.211246  
556.500000	11.404827  
557.000000	11.499747  
557.500000	11.595844  
558.000000	11.765315  
558.500000	12.071818  
559.000000	12.607825  
559.500000	13.194539  
560.000000	13.805653  
560.500000	14.263860  
561.000000	14.624743  
561.500000	14.845602  
562.000000	15.039929  
562.500000	15.407307  
563.000000	15.843821  
563.500000	16.429226  
564.000000	16.965296  
564.500000	17.617966  
565.000000	18.162178  
565.500000	18.672564  
566.000000	19.209183  
566.500000	19.722625  
567.000000	20.189769  
567.500000	20.491606  
568.000000	20.890029  
568.500000	21.354602  
569.000000	21.977846  
569.500000	22.797923  
570.000000	23.748231  
570.500000	24.744447  
571.000000	25.531354  
571.500000	26.085784  
572.000000	26.500792  
572.500000	26.862534  
573.000000	27.188679  
573.500000	27.551500  
574.000000	28.145604  
574.500000	28.922692  
575.000000	29.767567  
575.500000	30.599339  
576.000000	31.527172  
576.500000	32.352330  
577.000000	32.987725  
577.500000	33.533794  
578.000000	34.088807  
578.500000	34.794638  
579.000000	35.635252  
579.500000	36.758575  
580.000000	38.010007  
580.500000	39.323059  
581.000000	40.469912  
581.500000	41.406070  
582.000000	42.145200  
582.500000	42.781829  
583.000000	43.401332  
583.500000	44.133560  
584.000000	45.002532  
584.500000	46.060283  
585.000000	47.315089  
585.500000	48.582705  
586.000000	49.850426  
586.500000	51.082241  
587.000000	52.526656  
587.500000	53.971628  
588.000000	55.451877  
588.500000	56.979211  
589.000000	58.578330  
589.500000	60.110545  
590.000000	61.472949  
590.500000	62.918630  
591.000000	64.217218  
591.500000	65.539105  
592.000000	66.843814  
592.500000	68.262931  
593.000000	69.753899  
593.500000	71.360224  
594.000000	73.082896  
594.500000	74.647172  
595.000000	76.125003  
595.500000	77.565307  
596.000000	79.034411  
596.500000	80.438879  
597.000000	82.024658  
597.500000	83.839517  
598.000000	85.755250  
598.500000	87.778857  
599.000000	89.897747  
599.500000	92.267684  
600.000000	94.571920  
600.500000	97.035962  
601.000000	99.422372  
601.500000	101.809157 
602.000000	104.218786 
602.500000	106.341964 
603.000000	108.377521 
603.500000	110.115482 
604.000000	112.150465 
604.500000	114.273274 
605.000000	116.594124 
605.500000	119.347510 
606.000000	122.355254 
606.500000	125.333207 
607.000000	127.908825 
607.500000	130.745302 
608.000000	133.625697 
608.500000	136.540103 
609.000000	139.536179 
609.500000	142.809235 
610.000000	146.102157 
610.500000	148.987094 
611.000000	151.778031 
611.500000	154.582786 
612.000000	157.340580 
612.500000	159.933621 
613.000000	162.894576 
613.500000	166.369985 
614.000000	170.197408 
614.500000	174.266923 
615.000000	178.454586 
615.500000	182.423192 
616.000000	185.708636 
616.500000	188.438413 
617.000000	190.843539 
617.500000	193.103972 
618.000000	195.500484 
618.500000	198.157228 
619.000000	201.231638 
619.500000	204.569742 
620.000000	208.238046 
620.500000	212.010434 
621.000000	215.665141 
621.500000	219.155070 
622.000000	222.193562 
622.500000	225.065656 
623.000000	227.841619 
623.500000	230.716619 
624.000000	233.899020 
624.500000	237.388970 
625.000000	240.923636 
625.500000	244.065077 
626.000000	246.867812 
626.500000	249.247797 
627.000000	251.339400 
627.500000	253.498165 
628.000000	256.160871 
628.500000	259.360690 
629.000000	262.494638 
629.500000	265.818864 
630.000000	269.189487 
630.500000	272.052888 
631.000000	274.848333 
631.500000	277.434929 
632.000000	280.037064 
632.500000	281.875435 
633.000000	283.589113 
633.500000	285.397476 
634.000000	286.551077 
634.500000	288.098024 
635.000000	289.477782 
635.500000	291.146769 
636.000000	292.249252 
636.500000	293.219502 
637.000000	294.187532 
637.500000	294.387812 
638.000000	295.036285 
638.500000	295.597508 
639.000000	296.360762 
639.500000	297.077868 
640.000000	298.038680 
640.500000	298.711949 
641.000000	298.924274 
641.500000	299.202560 
642.000000	299.081578 
642.500000	298.637408 
643.000000	298.010105 
643.500000	297.514415 
644.000000	296.495163 
644.500000	294.646591 
645.000000	292.674847 
645.500000	290.665558 
646.000000	288.777168 
646.500000	287.454035 
647.000000	286.839552 
647.500000	286.703838 
648.000000	286.041602 
648.500000	284.803441 
649.000000	283.172782 
649.500000	281.022552 
650.000000	278.588692 
650.500000	275.970087 
651.000000	273.686220 
651.500000	271.174133 
652.000000	268.197877 
652.500000	265.081098 
653.000000	262.160239 
653.500000	259.826738 
654.000000	257.653278 
654.500000	255.505532 
655.000000	253.529988 
655.500000	250.848326 
656.000000	247.270604 
656.500000	243.147343 
657.000000	239.058538 
657.500000	234.732992 
658.000000	230.195415 
658.500000	226.025536 
659.000000	221.929899 
659.500000	217.676421 
660.000000	213.541784 
660.500000	209.884838 
661.000000	206.314476 
661.500000	202.480146 
662.000000	198.782983 
662.500000	194.888987 
663.000000	190.676693 
663.500000	186.581259 
664.000000	182.608419 
664.500000	178.499695 
665.000000	174.159779 
665.500000	169.730886 
666.000000	165.450261 
666.500000	160.990435 
667.000000	156.897410 
667.500000	153.179894 
668.000000	149.693888 
668.500000	146.316185 
669.000000	142.799677 
669.500000	139.596983 
670.000000	136.315617 
670.500000	132.905597 
671.000000	129.399795 
671.500000	125.802552 
672.000000	122.038092 
672.500000	117.879027 
673.000000	113.895128 
673.500000	110.224233 
674.000000	106.687666 
674.500000	103.233972 
675.000000	100.230263 
675.500000	97.540513  
676.000000	94.908573  
676.500000	92.497992  
677.000000	90.342395  
677.500000	88.186289  
678.000000	85.861395  
678.500000	83.390905  
679.000000	80.709146  
679.500000	77.890000  
680.000000	75.221883  
680.500000	72.810161  
681.000000	70.547269  
681.500000	68.679252  
682.000000	67.049573  
682.500000	65.521504  
683.000000	63.883619  
683.500000	62.211801  
684.000000	60.499170  
684.500000	58.498009  
685.000000	56.713359  
685.500000	55.002829  
686.000000	53.414990  
686.500000	51.964936  
687.000000	50.665775  
687.500000	49.477163  
688.000000	48.099654  
688.500000	46.769853  
689.000000	45.314962  
689.500000	43.806662  
690.000000	42.292525  
690.500000	40.980740  
691.000000	39.913834  
691.500000	38.826315  
692.000000	37.837931  
692.500000	36.803851  
693.000000	35.750608  
693.500000	34.629148  
694.000000	33.523068  
694.500000	32.651818  
695.000000	32.111562  
695.500000	31.755372  
696.000000	31.295725  
696.500000	30.645487  
697.000000	29.717439  
697.500000	28.549543  
698.000000	27.196840  
698.500000	26.136879  
699.000000	25.476014  
699.500000	24.969480  
700.000000	24.488788  
700.500000	23.910712  
701.000000	23.362664  
701.500000	22.480460  
702.000000	21.605925  
702.500000	20.901011  
703.000000	20.498658  
703.500000	20.238517  
704.000000	19.954384  
704.500000	19.795115  
705.000000	19.546820  
705.500000	19.227333  
706.000000	18.807738  
706.500000	18.407730  
707.000000	18.015385  
707.500000	17.595755  
708.000000	17.279250  
708.500000	16.949272  
709.000000	16.613547  
709.500000	16.220536  
710.000000	15.888228  
710.500000	15.530369  
711.000000	15.195089  
711.500000	14.913647  
712.000000	14.673012  
712.500000	14.447129  
713.000000	14.183191  
713.500000	13.977452  
714.000000	13.705048  
714.500000	13.398393  
715.000000	13.065549  
715.500000	12.765901  
716.000000	12.504595  
716.500000	12.205647  
717.000000	12.026729  
717.500000	11.895332  
718.000000	11.860712  
718.500000	11.795267  
719.000000	11.675051  
719.500000	11.541196  
720.000000	11.328894  
720.500000	10.969196  
721.000000	10.548582  
721.500000	10.220378  
722.000000	10.024103  
722.500000	9.914380   
723.000000	9.915439   
723.500000	9.999627   
724.000000	10.039621  
724.500000	9.998812   
725.000000	9.872437   
725.500000	9.712437   
726.000000	9.456825   
726.500000	9.211011   
727.000000	8.960426   
727.500000	8.706790   
728.000000	8.478801   
728.500000	8.264508   
729.000000	8.094656   
729.500000	7.925632   
730.000000	7.796558   
730.500000	7.631812   
731.000000	7.423610   
731.500000	7.191569   
732.000000	7.039189   
732.500000	6.950337   
733.000000	6.915400   
733.500000	6.946768   
734.000000	7.000769   
734.500000	7.038282   
735.000000	6.954933   
735.500000	6.857001   
736.000000	6.696495   
736.500000	6.562994   
737.000000	6.472669   
737.500000	6.459307   
738.000000	6.537680   
738.500000	6.626330   
739.000000	6.709497   
739.500000	6.722857   
740.000000	6.696300   
740.500000	6.641287   
741.000000	6.591263   
741.500000	6.530064   
742.000000	6.482100   
742.500000	6.341274   
743.000000	6.149291   
743.500000	5.930977   
744.000000	5.664769   
744.500000	5.488679   
745.000000	5.348515   
745.500000	5.355421   
746.000000	5.390992   
746.500000	5.494974   
747.000000	5.572916   
747.500000	5.538029   
748.000000	5.487979   
748.500000	5.304081   
749.000000	5.137018   
749.500000	4.966135   
750.000000	4.926599   
750.500000	4.961638   
751.000000	5.064356   
751.500000	5.175315   
752.000000	5.172781   
752.500000	5.094717   
753.000000	4.959202   
753.500000	4.855827   
754.000000	4.761204   
754.500000	4.754716   
755.000000	4.768705   
755.500000	4.700259   
756.000000	4.597923   
756.500000	4.492395   
757.000000	4.364408   
757.500000	4.249708   
758.000000	4.170584   
758.500000	4.078699   
759.000000	3.950602   
759.500000	3.857291   
760.000000	3.843192   
760.500000	3.881391   
761.000000	4.057823   
761.500000	4.286339   
762.000000	4.458884   
762.500000	4.504493   
763.000000	4.439979   
763.500000	4.287434   
764.000000	4.044011   
764.500000	3.818539   
765.000000	3.761029   
765.500000	3.750747   
766.000000	3.813011   
766.500000	3.870654   
767.000000	3.956326   
767.500000	3.998853   
768.000000	3.966582   
768.500000	3.963677   
769.000000	3.904977   
769.500000	3.865359   
770.000000	3.776055   
770.500000	3.680435   
771.000000	3.619795   
771.500000	3.580326   
772.000000	3.598263   
772.500000	3.623057   
773.000000	3.672354   
773.500000	3.677912   
774.000000	3.580315   
774.500000	3.418892   
775.000000	3.243781   
775.500000	3.074100   
776.000000	2.958602   
776.500000	2.933547   
777.000000	2.994532   
777.500000	3.086317   
778.000000	3.171981   
778.500000	3.215213   
779.000000	3.186352   
779.500000	3.094439   
780.000000	3.016994   
780.500000	2.949011   
781.000000	2.939658   
781.500000	2.965204   
782.000000	2.997298   
782.500000	3.009705   
783.000000	2.991729   
783.500000	2.975573   
784.000000	2.958595   
784.500000	2.993608   
785.000000	3.016066   
785.500000	3.007307   
786.000000	2.979181   
786.500000	2.945684   
787.000000	2.921144   
787.500000	2.886827   
788.000000	2.913499   
788.500000	2.945170   
789.000000	2.931990   
789.500000	2.899458   
790.000000	2.839760   
790.500000	2.763029   
791.000000	2.651389   
791.500000	2.591517   
792.000000	2.574333   
792.500000	2.543610   
793.000000	2.567389   
793.500000	2.614207   
794.000000	2.643057   
794.500000	2.644606   
795.000000	2.650634   
795.500000	2.692174   
796.000000	2.672831   
796.500000	2.633651   
797.000000	2.589732   
797.500000	2.507795   
798.000000	2.409068   
798.500000	2.322573   
799.000000	2.328378   
799.500000	2.397042   
800.000000	2.455773   
800.500000	2.549933   
801.000000	2.619487   
801.500000	2.607055   
802.000000	2.505740   
802.500000	2.399434   
803.000000	2.309474   
803.500000	2.174476   
804.000000	2.074233   
804.500000	2.021192   
805.000000	1.998883   
805.500000	1.990007   
806.000000	2.043910   
806.500000	2.151710   
807.000000	2.178712   
807.500000	2.183580   
808.000000	2.151046   
808.500000	2.068415   
809.000000	1.877302   
809.500000	1.709649   
810.000000	1.635283   
810.500000	1.608899   
811.000000	1.636085   
811.500000	1.675673   
812.000000	1.745231   
812.500000	1.763838   
813.000000	1.748866   
813.500000	1.760120   
814.000000	1.786909   
814.500000	1.822564   
815.000000	1.832354   
815.500000	1.842309   
816.000000	1.828512   
816.500000	1.798734   
817.000000	1.750599   
817.500000	1.757226   
818.000000	1.808679   
818.500000	1.865150   
819.000000	1.938153   
819.500000	1.980044   
820.000000	2.026725   
820.500000	2.031053   
821.000000	2.055445   
821.500000	2.082408   
822.000000	2.114153   
822.500000	2.234795   
823.000000	2.330020   
823.500000	2.439001   
824.000000	2.482586   
824.500000	2.483766   
825.000000	2.408421   
825.500000	2.266903   
826.000000	2.213313   
826.500000	2.142224   
827.000000	2.132680   
827.500000	2.140411   
828.000000	2.129382   
828.500000	2.075523   
829.000000	1.922686   
829.500000	1.762920   
830.000000	1.554612   
830.500000	1.422000   
831.000000	1.372374   
831.500000	1.355085   
832.000000	1.378460   
832.500000	1.380335   
833.000000	1.357564   
833.500000	1.273636   
834.000000	1.209838   
834.500000	1.163712   
835.000000	1.119233   
835.500000	1.097504   
836.000000	1.101682   
836.500000	1.088194   
837.000000	1.048918   
837.500000	1.021083   
838.000000	0.973673   
838.500000	0.933419   
839.000000	0.900064   
839.500000	0.878077   
840.000000	0.849181   
840.500000	0.824725   
841.000000	0.821749   
841.500000	0.794109   
842.000000	0.761795   
842.500000	0.716920   
843.000000	0.694358   
843.500000	0.687525   
844.000000	0.703580   
844.500000	0.736630   
845.000000	0.717656   
845.500000	0.674606   
846.000000	0.563150   
846.500000	0.459723   
847.000000	0.348688   
847.500000	0.291393   
848.000000	0.299178   
848.500000	0.336064   
849.000000	0.430035   
849.500000	0.452009   
850.000000	0.473424   
850.500000	0.389957   
851.000000	0.283341   
851.500000	0.162970   
852.000000	0.065567   
852.500000	0.066953   
853.000000	0.081237   
853.500000	0.186068   
854.000000	0.247256   
854.500000	0.300397   
855.000000	0.314521   
855.500000	0.308621   
856.000000	0.313513   
856.500000	0.274985   
857.000000	0.265933   
857.500000	0.197927   
858.000000	0.084814   
858.500000	-0.023109  
859.000000	-0.122679  
859.500000	-0.171860  
860.000000	-0.182962  
860.500000	-0.138979  
861.000000	-0.079241  
861.500000	-0.048634  
862.000000	-0.010901  
862.500000	0.002892   
863.000000	-0.004048  
863.500000	-0.031881  
864.000000	-0.067150  
864.500000	-0.110087  
865.000000	-0.161122  
865.500000	-0.173040  
866.000000	-0.170755  
866.500000	-0.162814  
867.000000	-0.110500  
867.500000	-0.033551  
868.000000	0.042209   
868.500000	0.105738   
869.000000	0.144345   
869.500000	0.160230   
870.000000	0.122107   
870.500000	0.057936   
871.000000	0.022376   
871.500000	0.006831   
872.000000	0.019471   
872.500000	0.056719   
873.000000	0.124656   
873.500000	0.163330   
874.000000	0.150209   
874.500000	0.113333   
875.000000	0.055443   
875.500000	-0.014686  
876.000000	-0.081228  
876.500000	-0.119586  
877.000000	-0.112528  
877.500000	-0.065222  
878.000000	-0.002810  
878.500000	0.070270   
879.000000	0.097155   
879.500000	0.075042   
880.000000	-0.006486  
880.500000	-0.141348  
881.000000	-0.250038  
881.500000	-0.327601  
882.000000	-0.325909  
882.500000	-0.258810  
883.000000	-0.164326  
883.500000	-0.078061  
884.000000	-0.040656  
884.500000	-0.046443  
885.000000	-0.105155  
885.500000	-0.158820  
886.000000	-0.173946  
886.500000	-0.150552  
887.000000	-0.102692  
887.500000	-0.020328  
888.000000	0.079866   
888.500000	0.137506   
889.000000	0.150690   
889.500000	0.125491   
890.000000	0.077231   
890.500000	-0.015014  
891.000000	-0.101131  
891.500000	-0.133769  
892.000000	-0.143085  
892.500000	-0.138116  
893.000000	-0.134799  
893.500000	-0.123163  
894.000000	-0.123172  
894.500000	-0.125358  
895.000000	-0.112517  
895.500000	-0.070565  
896.000000	-0.033261  
896.500000	-0.012142  

