PE FL                   SPECTRUM    ASCII       PEDS        1.60        
  -1
S003A3~1.SP
24/04/11
16:37:33.00
24/04/11
16:37:33.00
Jan

896.500000
1









LS55
405.00
5.00
5.00
SCAN
1
20
100
100
0
400
0
1
0
1
5
ON
736 405 
1 0 0
#HDR
-1
-1
#GR
NM

0.00002384185791015625
0.0
450.000000
0.500000
894
8
336.058777
-0.258074
#DATA
450.000000	-0.065000  
450.500000	0.004187   
451.000000	0.018719   
451.500000	-0.038512  
452.000000	-0.105640  
452.500000	-0.191254  
453.000000	-0.249215  
453.500000	-0.258074  
454.000000	-0.216756  
454.500000	-0.151974  
455.000000	-0.109764  
455.500000	-0.072641  
456.000000	-0.043196  
456.500000	-0.016246  
457.000000	0.009988   
457.500000	0.039751   
458.000000	0.060925   
458.500000	0.073946   
459.000000	0.083204   
459.500000	0.052128   
460.000000	0.018148   
460.500000	0.009901   
461.000000	0.020408   
461.500000	0.031539   
462.000000	0.036044   
462.500000	0.053838   
463.000000	0.077814   
463.500000	0.077955   
464.000000	0.056588   
464.500000	0.033666   
465.000000	0.035602   
465.500000	0.036736   
466.000000	0.019753   
466.500000	0.045651   
467.000000	0.058257   
467.500000	0.046231   
468.000000	0.019686   
468.500000	-0.005929  
469.000000	0.000666   
469.500000	-0.017146  
470.000000	0.017992   
470.500000	0.066706   
471.000000	0.080250   
471.500000	0.061001   
472.000000	0.008027   
472.500000	-0.038257  
473.000000	-0.045987  
473.500000	0.012758   
474.000000	0.119734   
474.500000	0.224805   
475.000000	0.258855   
475.500000	0.247484   
476.000000	0.162944   
476.500000	0.024152   
477.000000	-0.120680  
477.500000	-0.172751  
478.000000	-0.129170  
478.500000	-0.066564  
479.000000	0.039897   
479.500000	0.148107   
480.000000	0.181853   
480.500000	0.155385   
481.000000	0.144035   
481.500000	0.143025   
482.000000	0.140397   
482.500000	0.147185   
483.000000	0.162315   
483.500000	0.122846   
484.000000	0.060185   
484.500000	0.029987   
485.000000	0.025469   
485.500000	0.060519   
486.000000	0.127252   
486.500000	0.208280   
487.000000	0.256358   
487.500000	0.271768   
488.000000	0.283289   
488.500000	0.289736   
489.000000	0.233115   
489.500000	0.135402   
490.000000	0.029280   
490.500000	-0.079927  
491.000000	-0.147280  
491.500000	-0.132990  
492.000000	-0.023128  
492.500000	0.119109   
493.000000	0.213721   
493.500000	0.283178   
494.000000	0.290371   
494.500000	0.224565   
495.000000	0.144294   
495.500000	0.103805   
496.000000	0.127610   
496.500000	0.140745   
497.000000	0.210977   
497.500000	0.295985   
498.000000	0.369888   
498.500000	0.422690   
499.000000	0.462064   
499.500000	0.512261   
500.000000	0.503141   
500.500000	0.506545   
501.000000	0.520218   
501.500000	0.559764   
502.000000	0.613966   
502.500000	0.682135   
503.000000	0.746773   
503.500000	0.757827   
504.000000	0.778474   
504.500000	0.781092   
505.000000	0.769638   
505.500000	0.797274   
506.000000	0.875187   
506.500000	0.927899   
507.000000	0.971274   
507.500000	1.030055   
508.000000	1.060406   
508.500000	1.051992   
509.000000	1.039862   
509.500000	1.065016   
510.000000	1.046432   
510.500000	1.079554   
511.000000	1.141029   
511.500000	1.226150   
512.000000	1.324688   
512.500000	1.459057   
513.000000	1.625818   
513.500000	1.742022   
514.000000	1.879356   
514.500000	2.006378   
515.000000	2.069712   
515.500000	2.116309   
516.000000	2.168669   
516.500000	2.219085   
517.000000	2.266512   
517.500000	2.357983   
518.000000	2.487660   
518.500000	2.625825   
519.000000	2.729846   
519.500000	2.805070   
520.000000	2.835194   
520.500000	2.793786   
521.000000	2.699346   
521.500000	2.621886   
522.000000	2.606252   
522.500000	2.639617   
523.000000	2.733695   
523.500000	2.904931   
524.000000	3.041847   
524.500000	3.162254   
525.000000	3.230228   
525.500000	3.288834   
526.000000	3.317647   
526.500000	3.323771   
527.000000	3.412556   
527.500000	3.533929   
528.000000	3.728730   
528.500000	3.922102   
529.000000	4.157332   
529.500000	4.421560   
530.000000	4.655786   
530.500000	4.951675   
531.000000	5.231671   
531.500000	5.498111   
532.000000	5.645324   
532.500000	5.729782   
533.000000	5.845020   
533.500000	5.919293   
534.000000	6.095521   
534.500000	6.374610   
535.000000	6.727539   
535.500000	7.054341   
536.000000	7.325562   
536.500000	7.606259   
537.000000	7.874001   
537.500000	8.209526   
538.000000	8.607990   
538.500000	9.101656   
539.000000	9.680589   
539.500000	10.235515  
540.000000	10.711309  
540.500000	11.121361  
541.000000	11.403929  
541.500000	11.532525  
542.000000	11.516983  
542.500000	11.446584  
543.000000	11.428230  
543.500000	11.403935  
544.000000	11.399972  
544.500000	11.445586  
545.000000	11.392215  
545.500000	11.242471  
546.000000	11.002638  
546.500000	10.809005  
547.000000	10.647343  
547.500000	10.480745  
548.000000	10.395076  
548.500000	10.166740  
549.000000	9.976708   
549.500000	9.759024   
550.000000	9.627426   
550.500000	9.635641   
551.000000	9.707148   
551.500000	9.931116   
552.000000	9.981816   
552.500000	10.003712  
553.000000	9.999458   
553.500000	10.041601  
554.000000	10.166751  
554.500000	10.345732  
555.000000	10.567215  
555.500000	10.646311  
556.000000	10.645660  
556.500000	10.622697  
557.000000	10.623803  
557.500000	10.714591  
558.000000	10.915183  
558.500000	11.214068  
559.000000	11.573801  
559.500000	11.924940  
560.000000	12.268374  
560.500000	12.612165  
561.000000	12.943166  
561.500000	13.284762  
562.000000	13.719135  
562.500000	14.298411  
563.000000	14.888100  
563.500000	15.490794  
564.000000	16.055801  
564.500000	16.538118  
565.000000	16.878723  
565.500000	17.126536  
566.000000	17.545905  
566.500000	18.107820  
567.000000	18.727176  
567.500000	19.409252  
568.000000	20.148423  
568.500000	20.813122  
569.000000	21.417109  
569.500000	22.047545  
570.000000	22.744753  
570.500000	23.502664  
571.000000	24.335267  
571.500000	25.234591  
572.000000	26.144042  
572.500000	27.226222  
573.000000	28.213408  
573.500000	29.123855  
574.000000	29.805539  
574.500000	30.343319  
575.000000	30.695634  
575.500000	30.803443  
576.000000	31.072209  
576.500000	31.531128  
577.000000	32.267816  
577.500000	33.095198  
578.000000	34.046857  
578.500000	35.034693  
579.000000	35.949467  
579.500000	36.700953  
580.000000	37.379311  
580.500000	38.130352  
581.000000	38.783567  
581.500000	39.325142  
582.000000	39.935116  
582.500000	40.837474  
583.000000	41.878619  
583.500000	43.031089  
584.000000	44.314083  
584.500000	45.653443  
585.000000	46.723489  
585.500000	47.452582  
586.000000	48.176615  
586.500000	49.066762  
587.000000	50.198179  
587.500000	51.556272  
588.000000	53.154651  
588.500000	54.849769  
589.000000	56.359092  
589.500000	57.625801  
590.000000	58.684018  
590.500000	59.813419  
591.000000	60.947567  
591.500000	62.039363  
592.000000	63.314949  
592.500000	64.796378  
593.000000	66.461769  
593.500000	68.038541  
594.000000	69.718152  
594.500000	71.496374  
595.000000	73.110393  
595.500000	74.577426  
596.000000	75.911654  
596.500000	77.622925  
597.000000	79.456847  
597.500000	81.305337  
598.000000	83.217610  
598.500000	85.147515  
599.000000	87.182515  
599.500000	88.907211  
600.000000	90.755178  
600.500000	92.779354  
601.000000	94.758128  
601.500000	96.712046  
602.000000	98.638775  
602.500000	100.950283 
603.000000	103.242751 
603.500000	105.790250 
604.000000	108.550938 
604.500000	111.137419 
605.000000	113.720081 
605.500000	115.997703 
606.000000	118.386393 
606.500000	120.651628 
607.000000	122.985528 
607.500000	125.694651 
608.000000	128.343012 
608.500000	131.173278 
609.000000	134.157148 
609.500000	137.372578 
610.000000	140.324328 
610.500000	142.992324 
611.000000	145.605204 
611.500000	147.888959 
612.000000	150.224200 
612.500000	152.885294 
613.000000	156.070098 
613.500000	159.623261 
614.000000	163.363513 
614.500000	167.389332 
615.000000	171.447270 
615.500000	175.466948 
616.000000	179.554693 
616.500000	183.570899 
617.000000	187.238484 
617.500000	190.344222 
618.000000	192.882137 
618.500000	195.206020 
619.000000	197.481896 
619.500000	200.068204 
620.000000	203.205209 
620.500000	207.120736 
621.000000	211.419562 
621.500000	215.467799 
622.000000	219.541144 
622.500000	223.617224 
623.000000	227.358703 
623.500000	230.705309 
624.000000	233.923938 
624.500000	237.542200 
625.000000	240.997855 
625.500000	244.487382 
626.000000	248.285365 
626.500000	252.117148 
627.000000	255.579300 
627.500000	259.016703 
628.000000	262.892306 
628.500000	266.906695 
629.000000	270.702131 
629.500000	274.528710 
630.000000	278.323593 
630.500000	281.647170 
631.000000	284.565146 
631.500000	287.647855 
632.000000	291.022662 
632.500000	294.757491 
633.000000	298.304749 
633.500000	301.700877 
634.000000	304.426359 
634.500000	306.412808 
635.000000	308.112768 
635.500000	309.549530 
636.000000	311.311899 
636.500000	312.964745 
637.000000	315.140116 
637.500000	318.017892 
638.000000	320.952087 
638.500000	324.215231 
639.000000	326.963669 
639.500000	329.346146 
640.000000	330.658682 
640.500000	331.628747 
641.000000	332.610569 
641.500000	333.230443 
642.000000	333.896209 
642.500000	334.716471 
643.000000	335.718083 
643.500000	336.058777 
644.000000	336.012246 
644.500000	335.842369 
645.000000	335.168810 
645.500000	334.007226 
646.000000	332.788766 
646.500000	331.535363 
647.000000	330.592536 
647.500000	330.265896 
648.000000	330.442016 
648.500000	330.854146 
649.000000	330.897146 
649.500000	330.639153 
650.000000	329.554456 
650.500000	327.882591 
651.000000	325.996526 
651.500000	324.004165 
652.000000	322.047534 
652.500000	319.864129 
653.000000	317.825688 
653.500000	315.793597 
654.000000	313.461048 
654.500000	310.496842 
655.000000	307.521163 
655.500000	304.695792 
656.000000	301.681755 
656.500000	298.367382 
657.000000	295.448066 
657.500000	292.598424 
658.000000	289.146461 
658.500000	285.612805 
659.000000	281.976487 
659.500000	277.970024 
660.000000	273.577892 
660.500000	269.553115 
661.000000	265.530172 
661.500000	261.088821 
662.000000	257.050615 
662.500000	253.479801 
663.000000	249.804153 
663.500000	246.052287 
664.000000	242.649769 
664.500000	239.152315 
665.000000	234.821450 
665.500000	230.140775 
666.000000	225.516061 
666.500000	220.448896 
667.000000	215.245693 
667.500000	210.358141 
668.000000	206.236157 
668.500000	202.234962 
669.000000	198.295235 
669.500000	194.605133 
670.000000	190.851293 
670.500000	186.972146 
671.000000	182.440165 
671.500000	177.760474 
672.000000	173.005155 
672.500000	168.115582 
673.000000	163.241922 
673.500000	158.599899 
674.000000	154.517454 
674.500000	150.549166 
675.000000	146.720656 
675.500000	143.167061 
676.000000	139.703782 
676.500000	135.941447 
677.000000	132.148276 
677.500000	128.549037 
678.000000	124.862007 
678.500000	121.422955 
679.000000	118.197988 
679.500000	115.309821 
680.000000	112.391350 
680.500000	109.486027 
681.000000	106.429666 
681.500000	103.060525 
682.000000	99.751048  
682.500000	96.403526  
683.000000	93.467185  
683.500000	90.635758  
684.000000	88.039649  
684.500000	85.539098  
685.000000	83.114326  
685.500000	80.994794  
686.000000	78.914816  
686.500000	77.045398  
687.000000	75.172858  
687.500000	73.255146  
688.000000	71.080762  
688.500000	68.801024  
689.000000	66.746588  
689.500000	64.606454  
690.000000	62.655489  
690.500000	60.795278  
691.000000	58.983502  
691.500000	57.209384  
692.000000	55.499981  
692.500000	53.985760  
693.000000	52.530966  
693.500000	51.148781  
694.000000	49.731834  
694.500000	48.180727  
695.000000	46.637076  
695.500000	45.116972  
696.000000	43.791283  
696.500000	42.534584  
697.000000	41.408482  
697.500000	40.461871  
698.000000	39.505168  
698.500000	38.514220  
699.000000	37.527552  
699.500000	36.418998  
700.000000	35.309480  
700.500000	34.212014  
701.000000	33.248432  
701.500000	32.435831  
702.000000	31.727799  
702.500000	31.101215  
703.000000	30.354515  
703.500000	29.536269  
704.000000	28.610619  
704.500000	27.736686  
705.000000	26.946476  
705.500000	26.250209  
706.000000	25.750157  
706.500000	25.327719  
707.000000	24.953402  
707.500000	24.547871  
708.000000	24.165358  
708.500000	23.807346  
709.000000	23.388729  
709.500000	22.855584  
710.000000	22.284799  
710.500000	21.699204  
711.000000	21.058487  
711.500000	20.451565  
712.000000	19.953634  
712.500000	19.540016  
713.000000	19.197525  
713.500000	18.843176  
714.000000	18.511389  
714.500000	18.217398  
715.000000	17.881341  
715.500000	17.496705  
716.000000	16.957209  
716.500000	16.435376  
717.000000	15.882760  
717.500000	15.400352  
718.000000	15.093571  
718.500000	14.933239  
719.000000	14.753742  
719.500000	14.474714  
720.000000	14.145972  
720.500000	13.769079  
721.000000	13.317233  
721.500000	12.917467  
722.000000	12.624371  
722.500000	12.375705  
723.000000	12.265723  
723.500000	12.272823  
724.000000	12.379940  
724.500000	12.463886  
725.000000	12.379955  
725.500000	12.153363  
726.000000	11.702361  
726.500000	11.224868  
727.000000	10.821217  
727.500000	10.570699  
728.000000	10.566439  
728.500000	10.646435  
729.000000	10.763389  
729.500000	10.739352  
730.000000	10.546684  
730.500000	10.268302  
731.000000	9.835024   
731.500000	9.444612   
732.000000	9.059155   
732.500000	8.891016   
733.000000	8.776760   
733.500000	8.721215   
734.000000	8.711927   
734.500000	8.627148   
735.000000	8.533126   
735.500000	8.355888   
736.000000	8.317961   
736.500000	8.252651   
737.000000	8.230456   
737.500000	8.174636   
738.000000	8.084176   
738.500000	8.007812   
739.000000	7.870838   
739.500000	7.807543   
740.000000	7.650551   
740.500000	7.569066   
741.000000	7.411784   
741.500000	7.196135   
742.000000	7.021786   
742.500000	6.911749   
743.000000	6.866500   
743.500000	6.757430   
744.000000	6.733124   
744.500000	6.721144   
745.000000	6.653506   
745.500000	6.558500   
746.000000	6.514799   
746.500000	6.564617   
747.000000	6.579345   
747.500000	6.581152   
748.000000	6.564350   
748.500000	6.443018   
749.000000	6.213814   
749.500000	5.913185   
750.000000	5.635027   
750.500000	5.373732   
751.000000	5.141161   
751.500000	5.007647   
752.000000	4.978456   
752.500000	5.044558   
753.000000	5.129235   
753.500000	5.258877   
754.000000	5.386172   
754.500000	5.387870   
755.000000	5.306703   
755.500000	5.205564   
756.000000	5.130087   
756.500000	5.050243   
757.000000	4.991437   
757.500000	4.984951   
758.000000	4.880185   
758.500000	4.742302   
759.000000	4.621304   
759.500000	4.547397   
760.000000	4.515679   
760.500000	4.497458   
761.000000	4.518966   
761.500000	4.489482   
762.000000	4.464883   
762.500000	4.423359   
763.000000	4.413654   
763.500000	4.483324   
764.000000	4.574940   
764.500000	4.594393   
765.000000	4.590758   
765.500000	4.574699   
766.000000	4.529762   
766.500000	4.508931   
767.000000	4.521450   
767.500000	4.591450   
768.000000	4.557365   
768.500000	4.499020   
769.000000	4.367476   
769.500000	4.169333   
770.000000	4.024465   
770.500000	3.908886   
771.000000	3.902654   
771.500000	3.899658   
772.000000	3.927467   
772.500000	3.932077   
773.000000	3.840137   
773.500000	3.767087   
774.000000	3.629243   
774.500000	3.490178   
775.000000	3.354513   
775.500000	3.263879   
776.000000	3.245116   
776.500000	3.232335   
777.000000	3.292003   
777.500000	3.352651   
778.000000	3.379393   
778.500000	3.395406   
779.000000	3.329571   
779.500000	3.285966   
780.000000	3.212729   
780.500000	3.189662   
781.000000	3.185458   
781.500000	3.202755   
782.000000	3.279803   
782.500000	3.289582   
783.000000	3.291625   
783.500000	3.255192   
784.000000	3.222530   
784.500000	3.150014   
785.000000	3.080499   
785.500000	3.066096   
786.000000	3.031228   
786.500000	3.013667   
787.000000	3.013122   
787.500000	3.027153   
788.000000	2.960302   
788.500000	2.911662   
789.000000	2.861439   
789.500000	2.817966   
790.000000	2.774404   
790.500000	2.767523   
791.000000	2.832564   
791.500000	2.850979   
792.000000	2.858910   
792.500000	2.838185   
793.000000	2.778734   
793.500000	2.704786   
794.000000	2.652851   
794.500000	2.702278   
795.000000	2.736280   
795.500000	2.785285   
796.000000	2.815768   
796.500000	2.777636   
797.000000	2.710352   
797.500000	2.571847   
798.000000	2.500955   
798.500000	2.429502   
799.000000	2.427701   
799.500000	2.490335   
800.000000	2.539063   
800.500000	2.598838   
801.000000	2.581820   
801.500000	2.576610   
802.000000	2.506606   
802.500000	2.440441   
803.000000	2.387723   
803.500000	2.335053   
804.000000	2.315933   
804.500000	2.275139   
805.000000	2.249530   
805.500000	2.227771   
806.000000	2.200432   
806.500000	2.161684   
807.000000	2.107473   
807.500000	2.059706   
808.000000	2.032974   
808.500000	2.021317   
809.000000	2.085322   
809.500000	2.148899   
810.000000	2.194723   
810.500000	2.171400   
811.000000	2.106410   
811.500000	2.016324   
812.000000	1.879141   
812.500000	1.842139   
813.000000	1.810155   
813.500000	1.805918   
814.000000	1.732500   
814.500000	1.626847   
815.000000	1.563274   
815.500000	1.484723   
816.000000	1.533439   
816.500000	1.646883   
817.000000	1.763174   
817.500000	1.818161   
818.000000	1.802189   
818.500000	1.789326   
819.000000	1.767536   
819.500000	1.824332   
820.000000	1.982066   
820.500000	2.150912   
821.000000	2.319328   
821.500000	2.418248   
822.000000	2.462528   
822.500000	2.461500   
823.000000	2.484176   
823.500000	2.578369   
824.000000	2.666320   
824.500000	2.732814   
825.000000	2.739755   
825.500000	2.674536   
826.000000	2.508833   
826.500000	2.356291   
827.000000	2.220907   
827.500000	2.115894   
828.000000	2.054076   
828.500000	1.965732   
829.000000	1.912356   
829.500000	1.800987   
830.000000	1.721066   
830.500000	1.652779   
831.000000	1.589265   
831.500000	1.570152   
832.000000	1.493439   
832.500000	1.451792   
833.000000	1.349410   
833.500000	1.286128   
834.000000	1.256823   
834.500000	1.214794   
835.000000	1.207476   
835.500000	1.172402   
836.000000	1.172834   
836.500000	1.122434   
837.000000	1.102115   
837.500000	1.096129   
838.000000	1.059508   
838.500000	1.016493   
839.000000	0.971413   
839.500000	0.962332   
840.000000	0.938825   
840.500000	0.965970   
841.000000	1.002712   
841.500000	1.005619   
842.000000	0.977053   
842.500000	0.928565   
843.000000	0.862365   
843.500000	0.773723   
844.000000	0.729712   
844.500000	0.720833   
845.000000	0.677176   
845.500000	0.631311   
846.000000	0.591797   
846.500000	0.513918   
847.000000	0.419760   
847.500000	0.341667   
848.000000	0.297267   
848.500000	0.269337   
849.000000	0.256133   
849.500000	0.288506   
850.000000	0.308155   
850.500000	0.326369   
851.000000	0.305139   
851.500000	0.236981   
852.000000	0.154961   
852.500000	0.097237   
853.000000	0.056717   
853.500000	0.034079   
854.000000	0.051001   
854.500000	0.085458   
855.000000	0.094894   
855.500000	0.091693   
856.000000	0.103732   
856.500000	0.087061   
857.000000	0.073957   
857.500000	0.071066   
858.000000	0.073513   
858.500000	0.103243   
859.000000	0.112385   
859.500000	0.151066   
860.000000	0.175803   
860.500000	0.209654   
861.000000	0.198595   
861.500000	0.160790   
862.000000	0.127053   
862.500000	0.088818   
863.000000	0.047218   
863.500000	0.001959   
864.000000	-0.024703  
864.500000	-0.056486  
865.000000	-0.064686  
865.500000	-0.056042  
866.000000	-0.035788  
866.500000	0.008222   
867.000000	0.043107   
867.500000	0.069359   
868.000000	0.094760   
868.500000	0.136183   
869.000000	0.116857   
869.500000	0.054935   
870.000000	0.005912   
870.500000	-0.035287  
871.000000	-0.081263  
871.500000	-0.106029  
872.000000	-0.064085  
872.500000	-0.011515  
873.000000	-0.014834  
873.500000	-0.020742  
874.000000	-0.033231  
874.500000	-0.043812  
875.000000	-0.054076  
875.500000	-0.042836  
876.000000	-0.009692  
876.500000	-0.008144  
877.000000	-0.003276  
877.500000	-0.018012  
878.000000	-0.005627  
878.500000	0.014610   
879.000000	0.026372   
879.500000	0.028231   
880.000000	-0.014374  
880.500000	-0.056500  
881.000000	-0.101200  
881.500000	-0.115204  
882.000000	-0.103302  
882.500000	-0.064582  
883.000000	-0.028942  
883.500000	-0.009827  
884.000000	-0.008241  
884.500000	-0.041118  
885.000000	-0.051981  
885.500000	-0.047391  
886.000000	-0.019387  
886.500000	0.000317   
887.000000	0.036176   
887.500000	0.068348   
888.000000	0.060319   
888.500000	0.041198   
889.000000	0.053974   
889.500000	0.086975   
890.000000	0.092333   
890.500000	0.118562   
891.000000	0.176777   
891.500000	0.213423   
892.000000	0.205959   
892.500000	0.211135   
893.000000	0.183860   
893.500000	0.110909   
894.000000	0.012814   
894.500000	-0.058532  
895.000000	-0.108855  
895.500000	-0.144547  
896.000000	-0.107306  
896.500000	-0.055640  

