PE FL                   SPECTRUM    ASCII       PEDS        1.60        
  -1
S00BAF~1.SP
24/04/11
16:53:14.00
24/04/11
16:53:14.00
Jan

896.500000
1









LS55
405.00
5.00
5.00
SCAN
1
20
100
100
0
400
0
1
0
1
5
ON
736 405 
1 0 0
#HDR
-1
-1
#GR
NM

0.00002384185791015625
0.0
450.000000
0.500000
894
8
323.186048
-0.173434
#DATA
450.000000	0.170000   
450.500000	0.136293   
451.000000	0.114306   
451.500000	0.135285   
452.000000	0.152680   
452.500000	0.170808   
453.000000	0.126846   
453.500000	0.045150   
454.000000	-0.012602  
454.500000	-0.073072  
455.000000	-0.096037  
455.500000	-0.107636  
456.000000	-0.113055  
456.500000	-0.081756  
457.000000	-0.060499  
457.500000	0.025551   
458.000000	0.136048   
458.500000	0.227675   
459.000000	0.302248   
459.500000	0.313463   
460.000000	0.297423   
460.500000	0.225022   
461.000000	0.156042   
461.500000	0.108910   
462.000000	0.071632   
462.500000	0.043022   
463.000000	0.042228   
463.500000	0.076920   
464.000000	0.126129   
464.500000	0.173940   
465.000000	0.198842   
465.500000	0.200450   
466.000000	0.166220   
466.500000	0.158033   
467.000000	0.176949   
467.500000	0.212942   
468.000000	0.256710   
468.500000	0.252953   
469.000000	0.213871   
469.500000	0.137834   
470.000000	0.081044   
470.500000	0.054148   
471.000000	0.044328   
471.500000	0.089076   
472.000000	0.162172   
472.500000	0.223716   
473.000000	0.230476   
473.500000	0.223734   
474.000000	0.175582   
474.500000	0.041892   
475.000000	-0.088478  
475.500000	-0.154397  
476.000000	-0.137397  
476.500000	-0.091909  
477.000000	0.036289   
477.500000	0.171584   
478.000000	0.228838   
478.500000	0.249126   
479.000000	0.273397   
479.500000	0.270231   
480.000000	0.241801   
480.500000	0.227894   
481.000000	0.231372   
481.500000	0.203259   
482.000000	0.157230   
482.500000	0.172703   
483.000000	0.201263   
483.500000	0.251489   
484.000000	0.312799   
484.500000	0.393385   
485.000000	0.453322   
485.500000	0.455528   
486.000000	0.443734   
486.500000	0.401974   
487.000000	0.341222   
487.500000	0.259296   
488.000000	0.205474   
488.500000	0.192137   
489.000000	0.230500   
489.500000	0.277263   
490.000000	0.343771   
490.500000	0.387339   
491.000000	0.374749   
491.500000	0.320619   
492.000000	0.234942   
492.500000	0.176395   
493.000000	0.148762   
493.500000	0.162430   
494.000000	0.198005   
494.500000	0.258463   
495.000000	0.304623   
495.500000	0.301385   
496.000000	0.275348   
496.500000	0.252717   
497.000000	0.226348   
497.500000	0.196688   
498.000000	0.207656   
498.500000	0.247000   
499.000000	0.295461   
499.500000	0.347009   
500.000000	0.424890   
500.500000	0.510337   
501.000000	0.548951   
501.500000	0.599647   
502.000000	0.646927   
502.500000	0.670651   
503.000000	0.677024   
503.500000	0.671818   
504.000000	0.677448   
504.500000	0.682317   
505.000000	0.740714   
505.500000	0.835048   
506.000000	0.915998   
506.500000	0.992228   
507.000000	1.032578   
507.500000	1.021894   
508.000000	1.012328   
508.500000	1.015066   
509.000000	1.067432   
509.500000	1.146243   
510.000000	1.259070   
510.500000	1.380582   
511.000000	1.471558   
511.500000	1.575111   
512.000000	1.627296   
512.500000	1.689948   
513.000000	1.718504   
513.500000	1.716853   
514.000000	1.720525   
514.500000	1.743061   
515.000000	1.874079   
515.500000	1.984977   
516.000000	2.145552   
516.500000	2.292515   
517.000000	2.358853   
517.500000	2.362782   
518.000000	2.341183   
518.500000	2.385732   
519.000000	2.431586   
519.500000	2.539968   
520.000000	2.658237   
520.500000	2.742035   
521.000000	2.787990   
521.500000	2.783063   
522.000000	2.790369   
522.500000	2.790977   
523.000000	2.797456   
523.500000	2.839102   
524.000000	2.897157   
524.500000	2.947615   
525.000000	3.050504   
525.500000	3.251502   
526.000000	3.537491   
526.500000	3.820205   
527.000000	4.148447   
527.500000	4.428599   
528.000000	4.589538   
528.500000	4.669589   
529.000000	4.735025   
529.500000	4.794018   
530.000000	4.809907   
530.500000	4.912335   
531.000000	5.100120   
531.500000	5.300035   
532.000000	5.519330   
532.500000	5.743699   
533.000000	5.898582   
533.500000	5.968716   
534.000000	6.097046   
534.500000	6.320860   
535.000000	6.609256   
535.500000	7.007617   
536.000000	7.482903   
536.500000	7.913539   
537.000000	8.326643   
537.500000	8.807886   
538.000000	9.369445   
538.500000	9.922855   
539.000000	10.513569  
539.500000	11.073647  
540.000000	11.418291  
540.500000	11.593294  
541.000000	11.681432  
541.500000	11.780807  
542.000000	11.830434  
542.500000	11.919025  
543.000000	11.970732  
543.500000	11.836541  
544.000000	11.615506  
544.500000	11.307207  
545.000000	11.038207  
545.500000	10.746547  
546.000000	10.566298  
546.500000	10.512719  
547.000000	10.433198  
547.500000	10.386272  
548.000000	10.314126  
548.500000	10.288840  
549.000000	10.251820  
549.500000	10.282185  
550.000000	10.370992  
550.500000	10.374940  
551.000000	10.316165  
551.500000	10.190346  
552.000000	10.069881  
552.500000	9.978332   
553.000000	9.943254   
553.500000	9.963571   
554.000000	9.969617   
554.500000	9.991875   
555.000000	10.119669  
555.500000	10.271625  
556.000000	10.459847  
556.500000	10.750545  
557.000000	11.093849  
557.500000	11.386411  
558.000000	11.570050  
558.500000	11.855319  
559.000000	12.086703  
559.500000	12.298875  
560.000000	12.594000  
560.500000	12.926200  
561.000000	13.237274  
561.500000	13.420241  
562.000000	13.714387  
562.500000	14.032402  
563.000000	14.366499  
563.500000	14.863343  
564.000000	15.489324  
564.500000	16.178901  
565.000000	16.872423  
565.500000	17.602306  
566.000000	18.374237  
566.500000	19.087001  
567.000000	19.895528  
567.500000	20.713686  
568.000000	21.396085  
568.500000	21.937560  
569.000000	22.282901  
569.500000	22.563727  
570.000000	22.785786  
570.500000	23.292128  
571.000000	24.004339  
571.500000	24.828018  
572.000000	25.726306  
572.500000	26.548174  
573.000000	27.339231  
573.500000	27.914582  
574.000000	28.591894  
574.500000	29.225474  
575.000000	30.004517  
575.500000	30.849879  
576.000000	31.653717  
576.500000	32.421966  
577.000000	32.982625  
577.500000	33.507768  
578.000000	33.762467  
578.500000	34.055161  
579.000000	34.559829  
579.500000	35.157601  
580.000000	35.962812  
580.500000	36.993645  
581.000000	38.199781  
581.500000	39.270237  
582.000000	40.181326  
582.500000	41.104584  
583.000000	41.905148  
583.500000	42.476298  
584.000000	43.086174  
584.500000	43.764964  
585.000000	44.503564  
585.500000	45.424283  
586.000000	46.688146  
586.500000	48.128074  
587.000000	49.626087  
587.500000	51.259734  
588.000000	52.909038  
588.500000	54.304124  
589.000000	55.613864  
589.500000	56.900152  
590.000000	58.027745  
590.500000	59.143803  
591.000000	60.387962  
591.500000	61.871376  
592.000000	63.388434  
592.500000	65.170680  
593.000000	67.045254  
593.500000	68.751606  
594.000000	70.356784  
594.500000	71.776179  
595.000000	73.121664  
595.500000	74.524415  
596.000000	76.299283  
596.500000	78.301632  
597.000000	80.370252  
597.500000	82.388358  
598.000000	84.263333  
598.500000	85.904949  
599.000000	87.427879  
599.500000	89.114588  
600.000000	90.833298  
600.500000	92.651643  
601.000000	94.604827  
601.500000	96.562220  
602.000000	98.317011  
602.500000	100.155632 
603.000000	102.274940 
603.500000	104.489024 
604.000000	106.875946 
604.500000	109.440814 
605.000000	112.022408 
605.500000	114.525740 
606.000000	117.040300 
606.500000	119.769705 
607.000000	122.649846 
607.500000	125.588576 
608.000000	128.523708 
608.500000	131.282313 
609.000000	133.961166 
609.500000	136.433588 
610.000000	138.835834 
610.500000	141.620432 
611.000000	144.894066 
611.500000	148.443608 
612.000000	152.023547 
612.500000	155.634962 
613.000000	159.132779 
613.500000	162.154521 
614.000000	165.060304 
614.500000	167.978128 
615.000000	170.950658 
615.500000	173.979263 
616.000000	176.909786 
616.500000	179.779046 
617.000000	182.967710 
617.500000	186.398717 
618.000000	190.038660 
618.500000	194.166532 
619.000000	198.696168 
619.500000	203.257790 
620.000000	207.168142 
620.500000	210.890905 
621.000000	214.235695 
621.500000	217.355369 
622.000000	220.541758 
622.500000	224.062547 
623.000000	228.023506 
623.500000	231.453317 
624.000000	234.698408 
624.500000	237.589543 
625.000000	240.348836 
625.500000	243.124896 
626.000000	246.332868 
626.500000	250.313107 
627.000000	254.311508 
627.500000	258.323517 
628.000000	262.067254 
628.500000	265.705053 
629.000000	269.021962 
629.500000	272.400257 
630.000000	276.230452 
630.500000	279.713860 
631.000000	282.903042 
631.500000	285.794346 
632.000000	288.255330 
632.500000	290.863129 
633.000000	292.972903 
633.500000	295.015348 
634.000000	297.008430 
634.500000	298.896679 
635.000000	300.574035 
635.500000	302.063077 
636.000000	304.691087 
636.500000	307.573105 
637.000000	310.058576 
637.500000	312.367359 
638.000000	314.431987 
638.500000	315.723430 
639.000000	316.155178 
639.500000	317.146666 
640.000000	318.721771 
640.500000	320.086374 
641.000000	321.206855 
641.500000	322.458586 
642.000000	323.186048 
642.500000	323.181040 
643.000000	322.959589 
643.500000	322.712174 
644.000000	322.605948 
644.500000	321.863936 
645.000000	321.351654 
645.500000	321.167756 
646.000000	320.872625 
646.500000	320.432710 
647.000000	319.749178 
647.500000	319.344063 
648.000000	318.182320 
648.500000	316.536606 
649.000000	315.409808 
649.500000	314.398606 
650.000000	313.124497 
650.500000	311.464432 
651.000000	310.138979 
651.500000	308.452656 
652.000000	306.123211 
652.500000	303.920307 
653.000000	301.648506 
653.500000	298.786656 
654.000000	295.536183 
654.500000	292.268946 
655.000000	289.132573 
655.500000	285.879649 
656.000000	282.789847 
656.500000	279.610491 
657.000000	276.164035 
657.500000	272.412491 
658.000000	268.537777 
658.500000	264.790695 
659.000000	261.747794 
659.500000	259.142105 
660.000000	256.648228 
660.500000	253.944155 
661.000000	250.929356 
661.500000	247.040000 
662.000000	242.419480 
662.500000	237.656207 
663.000000	232.586640 
663.500000	227.276467 
664.000000	222.149510 
664.500000	217.477491 
665.000000	213.025478 
665.500000	208.775228 
666.000000	204.905395 
666.500000	201.402170 
667.000000	197.448499 
667.500000	193.300870 
668.000000	189.239072 
668.500000	185.019278 
669.000000	180.989461 
669.500000	176.889673 
670.000000	173.128508 
670.500000	168.865118 
671.000000	164.316278 
671.500000	159.706899 
672.000000	155.096630 
672.500000	150.930651 
673.000000	146.600332 
673.500000	142.562139 
674.000000	138.524905 
674.500000	134.595669 
675.000000	130.778187 
675.500000	127.177539 
676.000000	124.274645 
676.500000	121.408723 
677.000000	118.388909 
677.500000	115.255155 
678.000000	112.027191 
678.500000	108.626858 
679.000000	105.409235 
679.500000	102.674970 
680.000000	100.151916 
680.500000	97.765133  
681.000000	95.316367  
681.500000	92.691571  
682.000000	89.714003  
682.500000	86.622740  
683.000000	83.570231  
683.500000	80.677486  
684.000000	78.273012  
684.500000	76.280833  
685.000000	74.545539  
685.500000	72.714662  
686.000000	70.799519  
686.500000	68.533703  
687.000000	66.026951  
687.500000	63.660094  
688.000000	61.532667  
688.500000	59.820087  
689.000000	58.331745  
689.500000	57.178302  
690.000000	55.944857  
690.500000	54.485183  
691.000000	52.939040  
691.500000	51.366582  
692.000000	49.873298  
692.500000	48.229705  
693.000000	46.783768  
693.500000	45.390322  
694.000000	44.028567  
694.500000	42.853820  
695.000000	41.813526  
695.500000	40.934267  
696.000000	39.960395  
696.500000	38.958525  
697.000000	37.825241  
697.500000	36.568313  
698.000000	35.499003  
698.500000	34.503840  
699.000000	33.679873  
699.500000	32.899248  
700.000000	32.180153  
700.500000	31.403270  
701.000000	30.549326  
701.500000	29.835335  
702.000000	29.207903  
702.500000	28.679909  
703.000000	28.106434  
703.500000	27.429107  
704.000000	26.672897  
704.500000	25.730237  
705.000000	24.700044  
705.500000	23.761985  
706.000000	23.105296  
706.500000	22.636977  
707.000000	22.265571  
707.500000	22.016888  
708.000000	21.712313  
708.500000	21.218554  
709.000000	20.566291  
709.500000	19.948411  
710.000000	19.416703  
710.500000	18.968706  
711.000000	18.725423  
711.500000	18.619734  
712.000000	18.489916  
712.500000	18.239367  
713.000000	17.880025  
713.500000	17.382009  
714.000000	16.711703  
714.500000	16.033228  
715.000000	15.418743  
715.500000	14.942608  
716.000000	14.607712  
716.500000	14.372519  
717.000000	14.197072  
717.500000	14.001044  
718.000000	13.801211  
718.500000	13.547374  
719.000000	13.306322  
719.500000	13.072695  
720.000000	12.832740  
720.500000	12.559716  
721.000000	12.313656  
721.500000	12.093259  
722.000000	11.896601  
722.500000	11.766432  
723.000000	11.744103  
723.500000	11.721051  
724.000000	11.639567  
724.500000	11.585348  
725.000000	11.434554  
725.500000	11.171077  
726.000000	10.840439  
726.500000	10.558966  
727.000000	10.316931  
727.500000	10.037842  
728.000000	9.890510   
728.500000	9.676354   
729.000000	9.432007   
729.500000	9.162740   
730.000000	8.955510   
730.500000	8.877935   
731.000000	8.791532   
731.500000	8.876120   
732.000000	8.920176   
732.500000	8.864847   
733.000000	8.683024   
733.500000	8.422029   
734.000000	8.244302   
734.500000	8.035547   
735.000000	7.996888   
735.500000	7.976525   
736.000000	7.947946   
736.500000	7.896087   
737.000000	7.708576   
737.500000	7.542359   
738.000000	7.274723   
738.500000	7.072063   
739.000000	6.957348   
739.500000	6.874977   
740.000000	6.880539   
740.500000	6.916814   
741.000000	6.985135   
741.500000	6.932016   
742.000000	6.852547   
742.500000	6.741714   
743.000000	6.566343   
743.500000	6.432705   
744.000000	6.394133   
744.500000	6.389601   
745.000000	6.298738   
745.500000	6.166064   
746.000000	5.984402   
746.500000	5.785393   
747.000000	5.564699   
747.500000	5.488630   
748.000000	5.524046   
748.500000	5.569085   
749.000000	5.645578   
749.500000	5.693619   
750.000000	5.742153   
750.500000	5.785293   
751.000000	5.804226   
751.500000	5.812775   
752.000000	5.726317   
752.500000	5.603558   
753.000000	5.413810   
753.500000	5.206066   
754.000000	5.064363   
754.500000	4.968621   
755.000000	4.886007   
755.500000	4.801365   
756.000000	4.733038   
756.500000	4.664981   
757.000000	4.575102   
757.500000	4.484339   
758.000000	4.448196   
758.500000	4.407614   
759.000000	4.367808   
759.500000	4.359202   
760.000000	4.433844   
760.500000	4.525499   
761.000000	4.535293   
761.500000	4.530573   
762.000000	4.501452   
762.500000	4.460853   
763.000000	4.392406   
763.500000	4.358326   
764.000000	4.336456   
764.500000	4.324215   
765.000000	4.269558   
765.500000	4.187621   
766.000000	4.141786   
766.500000	4.082159   
767.000000	4.063354   
767.500000	4.012051   
768.000000	4.001461   
768.500000	3.958851   
769.000000	3.843693   
769.500000	3.783378   
770.000000	3.732575   
770.500000	3.698250   
771.000000	3.648426   
771.500000	3.632717   
772.000000	3.644927   
772.500000	3.611493   
773.000000	3.606779   
773.500000	3.567361   
774.000000	3.505515   
774.500000	3.474688   
775.000000	3.471131   
775.500000	3.480337   
776.000000	3.517875   
776.500000	3.564742   
777.000000	3.604332   
777.500000	3.564671   
778.000000	3.519703   
778.500000	3.469148   
779.000000	3.388539   
779.500000	3.338246   
780.000000	3.299282   
780.500000	3.291551   
781.000000	3.245144   
781.500000	3.220343   
782.000000	3.228042   
782.500000	3.219521   
783.000000	3.217282   
783.500000	3.174536   
784.000000	3.122309   
784.500000	3.017192   
785.000000	2.949851   
785.500000	2.917048   
786.000000	2.910751   
786.500000	2.945777   
787.000000	2.980278   
787.500000	3.009558   
788.000000	2.981107   
788.500000	2.968384   
789.000000	2.968359   
789.500000	2.953615   
790.000000	2.952710   
790.500000	2.929532   
791.000000	2.906183   
791.500000	2.847194   
792.000000	2.801749   
792.500000	2.798129   
793.000000	2.778202   
793.500000	2.771996   
794.000000	2.731855   
794.500000	2.672359   
795.000000	2.612502   
795.500000	2.560938   
796.000000	2.587725   
796.500000	2.633144   
797.000000	2.704636   
797.500000	2.745324   
798.000000	2.725077   
798.500000	2.661307   
799.000000	2.564302   
799.500000	2.498389   
800.000000	2.408163   
800.500000	2.333526   
801.000000	2.262348   
801.500000	2.172723   
802.000000	2.095105   
802.500000	2.099640   
803.000000	2.135654   
803.500000	2.169788   
804.000000	2.204640   
804.500000	2.241673   
805.000000	2.199671   
805.500000	2.102181   
806.000000	2.082870   
806.500000	2.124111   
807.000000	2.150226   
807.500000	2.149487   
808.000000	2.181309   
808.500000	2.177834   
809.000000	2.111510   
809.500000	2.056009   
810.000000	2.033432   
810.500000	2.005769   
811.000000	1.937732   
811.500000	1.878992   
812.000000	1.860128   
812.500000	1.820820   
813.000000	1.804213   
813.500000	1.800257   
814.000000	1.780784   
814.500000	1.775322   
815.000000	1.767307   
815.500000	1.767749   
816.000000	1.730729   
816.500000	1.745434   
817.000000	1.755471   
817.500000	1.734024   
818.000000	1.735578   
818.500000	1.811970   
819.000000	1.931530   
819.500000	2.044198   
820.000000	2.177359   
820.500000	2.312760   
821.000000	2.434638   
821.500000	2.487541   
822.000000	2.537923   
822.500000	2.560022   
823.000000	2.610289   
823.500000	2.661628   
824.000000	2.688129   
824.500000	2.784862   
825.000000	2.838836   
825.500000	2.829051   
826.000000	2.731211   
826.500000	2.580985   
827.000000	2.409569   
827.500000	2.222621   
828.000000	2.107640   
828.500000	2.060207   
829.000000	2.057899   
829.500000	2.005313   
830.000000	1.876716   
830.500000	1.726502   
831.000000	1.554589   
831.500000	1.383434   
832.000000	1.271113   
832.500000	1.251625   
833.000000	1.245699   
833.500000	1.217884   
834.000000	1.190671   
834.500000	1.154749   
835.000000	1.065083   
835.500000	0.969358   
836.000000	0.933628   
836.500000	0.910230   
837.000000	0.910087   
837.500000	0.935992   
838.000000	0.964645   
838.500000	0.969799   
839.000000	0.955280   
839.500000	0.945933   
840.000000	0.909293   
840.500000	0.905159   
841.000000	0.926391   
841.500000	0.932987   
842.000000	0.926719   
842.500000	0.865864   
843.000000	0.797359   
843.500000	0.680124   
844.000000	0.574523   
844.500000	0.516693   
845.000000	0.425057   
845.500000	0.371883   
846.000000	0.334218   
846.500000	0.338523   
847.000000	0.360708   
847.500000	0.398163   
848.000000	0.516745   
848.500000	0.568996   
849.000000	0.600890   
849.500000	0.588487   
850.000000	0.515395   
850.500000	0.403363   
851.000000	0.254641   
851.500000	0.180641   
852.000000	0.092055   
852.500000	0.024853   
853.000000	-0.014884  
853.500000	-0.051790  
854.000000	-0.050506  
854.500000	-0.029257  
855.000000	0.045495   
855.500000	0.118256   
856.000000	0.203337   
856.500000	0.257391   
857.000000	0.245846   
857.500000	0.204285   
858.000000	0.158666   
858.500000	0.109597   
859.000000	0.036307   
859.500000	-0.011148  
860.000000	-0.035272  
860.500000	-0.064064  
861.000000	-0.070469  
861.500000	-0.044827  
862.000000	-0.002289  
862.500000	0.011536   
863.000000	0.010946   
863.500000	0.009697   
864.000000	-0.024788  
864.500000	-0.029048  
865.000000	-0.010345  
865.500000	0.034873   
866.000000	0.065552   
866.500000	0.105781   
867.000000	0.120844   
867.500000	0.073328   
868.000000	0.031864   
868.500000	-0.026460  
869.000000	-0.071612  
869.500000	-0.102564  
870.000000	-0.081356  
870.500000	-0.061959  
871.000000	-0.072935  
871.500000	-0.079469  
872.000000	-0.095395  
872.500000	-0.117096  
873.000000	-0.134018  
873.500000	-0.110751  
874.000000	-0.080333  
874.500000	-0.057506  
875.000000	-0.015074  
875.500000	0.028256   
876.000000	0.044159   
876.500000	0.054487   
877.000000	0.069450   
877.500000	0.060538   
878.000000	0.008350   
878.500000	-0.042601  
879.000000	-0.067463  
879.500000	-0.091721  
880.000000	-0.088447  
880.500000	-0.036339  
881.000000	0.006717   
881.500000	-0.003074  
882.000000	-0.031339  
882.500000	-0.066660  
883.000000	-0.131372  
883.500000	-0.173434  
884.000000	-0.149113  
884.500000	-0.095679  
885.000000	-0.047554  
885.500000	-0.011712  
886.000000	0.004940   
886.500000	-0.004751  
887.000000	-0.016448  
887.500000	0.000148   
888.000000	0.028382   
888.500000	0.057434   
889.000000	0.069833   
889.500000	0.057146   
890.000000	0.049230   
890.500000	0.040788   
891.000000	0.034315   
891.500000	0.038766   
892.000000	0.070287   
892.500000	0.072567   
893.000000	0.041721   
893.500000	0.040888   
894.000000	0.042949   
894.500000	0.038801   
895.000000	0.015602   
895.500000	0.022736   
896.000000	0.013410   
896.500000	-0.014437  

