PE FL                   SPECTRUM    ASCII       PEDS        1.60        
  -1
S01B87~1.SP
24/04/11
17:16:03.00
24/04/11
17:16:03.00
Jan

896.500000
1









LS55
405.00
5.00
5.00
SCAN
1
20
100
100
0
400
0
1
0
1
5
ON
736 405 
1 0 0
#HDR
-1
-1
#GR
NM

0.00002384185791015625
0.0
450.000000
0.500000
894
8
317.906057
-0.313723
#DATA
450.000000	0.270000   
450.500000	0.180317   
451.000000	0.105079   
451.500000	0.076753   
452.000000	0.034157   
452.500000	0.049857   
453.000000	0.093847   
453.500000	0.117693   
454.000000	0.117961   
454.500000	0.072814   
455.000000	0.034890   
455.500000	-0.028179  
456.000000	-0.082278  
456.500000	-0.093350  
457.000000	-0.048959  
457.500000	0.026901   
458.000000	0.078586   
458.500000	0.149671   
459.000000	0.185628   
459.500000	0.187233   
460.000000	0.175359   
460.500000	0.195272   
461.000000	0.217983   
461.500000	0.214228   
462.000000	0.218710   
462.500000	0.178035   
463.000000	0.104278   
463.500000	0.006289   
464.000000	-0.055243  
464.500000	-0.031758  
465.000000	0.001009   
465.500000	0.083482   
466.000000	0.144708   
466.500000	0.173434   
467.000000	0.143435   
467.500000	0.063241   
468.000000	0.038970   
468.500000	0.010604   
469.000000	0.036938   
469.500000	0.125172   
470.000000	0.273536   
470.500000	0.380567   
471.000000	0.417959   
471.500000	0.455940   
472.000000	0.397333   
472.500000	0.269042   
473.000000	0.140664   
473.500000	0.068497   
474.000000	-0.003124  
474.500000	-0.008697  
475.000000	0.062515   
475.500000	0.155619   
476.000000	0.200870   
476.500000	0.250981   
477.000000	0.250962   
477.500000	0.148766   
478.000000	0.037489   
478.500000	-0.037797  
479.000000	-0.075126  
479.500000	-0.096324  
480.000000	-0.007135  
480.500000	0.060356   
481.000000	0.054083   
481.500000	0.002059   
482.000000	-0.055467  
482.500000	-0.118703  
483.000000	-0.172571  
483.500000	-0.134296  
484.000000	-0.064126  
484.500000	0.013205   
485.000000	0.098528   
485.500000	0.180833   
486.000000	0.205905   
486.500000	0.205200   
487.000000	0.158443   
487.500000	0.103285   
488.000000	0.068428   
488.500000	0.107391   
489.000000	0.202732   
489.500000	0.303105   
490.000000	0.417061   
490.500000	0.448775   
491.000000	0.397237   
491.500000	0.288042   
492.000000	0.181243   
492.500000	0.107905   
493.000000	0.060513   
493.500000	0.058547   
494.000000	0.059356   
494.500000	0.066716   
495.000000	0.110141   
495.500000	0.166133   
496.000000	0.238051   
496.500000	0.315721   
497.000000	0.403478   
497.500000	0.432690   
498.000000	0.446424   
498.500000	0.463404   
499.000000	0.478057   
499.500000	0.484252   
500.000000	0.496181   
500.500000	0.560888   
501.000000	0.566461   
501.500000	0.575335   
502.000000	0.594324   
502.500000	0.618990   
503.000000	0.640736   
503.500000	0.643641   
504.000000	0.696497   
504.500000	0.758717   
505.000000	0.861721   
505.500000	0.961564   
506.000000	1.037014   
506.500000	1.099033   
507.000000	1.142747   
507.500000	1.163489   
508.000000	1.177925   
508.500000	1.235009   
509.000000	1.296870   
509.500000	1.331886   
510.000000	1.354369   
510.500000	1.369608   
511.000000	1.373857   
511.500000	1.383988   
512.000000	1.462289   
512.500000	1.502847   
513.000000	1.566068   
513.500000	1.638243   
514.000000	1.725037   
514.500000	1.871918   
515.000000	2.014944   
515.500000	2.225771   
516.000000	2.358723   
516.500000	2.454736   
517.000000	2.495294   
517.500000	2.487421   
518.000000	2.514089   
518.500000	2.535641   
519.000000	2.575610   
519.500000	2.592517   
520.000000	2.633495   
520.500000	2.678742   
521.000000	2.700461   
521.500000	2.766280   
522.000000	2.866037   
522.500000	2.894855   
523.000000	2.927719   
523.500000	2.993176   
524.000000	3.126653   
524.500000	3.241209   
525.000000	3.363786   
525.500000	3.590615   
526.000000	3.805604   
526.500000	3.948107   
527.000000	4.096265   
527.500000	4.325083   
528.000000	4.518654   
528.500000	4.704619   
529.000000	4.905504   
529.500000	5.107085   
530.000000	5.226170   
530.500000	5.329408   
531.000000	5.481493   
531.500000	5.592719   
532.000000	5.757241   
532.500000	5.929933   
533.000000	6.238714   
533.500000	6.535038   
534.000000	6.830643   
534.500000	7.081931   
535.000000	7.223000   
535.500000	7.414651   
536.000000	7.611304   
536.500000	7.908428   
537.000000	8.338808   
537.500000	8.919419   
538.000000	9.549389   
538.500000	10.137870  
539.000000	10.615658  
539.500000	10.987493  
540.000000	11.279922  
540.500000	11.457619  
541.000000	11.646031  
541.500000	11.886688  
542.000000	12.164322  
542.500000	12.332053  
543.000000	12.462838  
543.500000	12.506087  
544.000000	12.364966  
544.500000	12.061903  
545.000000	11.719558  
545.500000	11.461248  
546.000000	11.230630  
546.500000	11.070612  
547.000000	11.007157  
547.500000	11.007736  
548.000000	10.943664  
548.500000	10.808608  
549.000000	10.611359  
549.500000	10.402506  
550.000000	10.189504  
550.500000	9.900552   
551.000000	9.766009   
551.500000	9.779179   
552.000000	9.882884   
552.500000	9.977656   
553.000000	10.174827  
553.500000	10.380402  
554.000000	10.435998  
554.500000	10.506658  
555.000000	10.650808  
555.500000	10.869717  
556.000000	10.979853  
556.500000	11.053367  
557.000000	11.191851  
557.500000	11.301083  
558.000000	11.511035  
558.500000	11.906461  
559.000000	12.510317  
559.500000	13.179506  
560.000000	13.735456  
560.500000	14.229820  
561.000000	14.550940  
561.500000	14.772168  
562.000000	14.971144  
562.500000	15.277593  
563.000000	15.665489  
563.500000	16.049207  
564.000000	16.584730  
564.500000	17.150332  
565.000000	17.834094  
565.500000	18.597098  
566.000000	19.450912  
566.500000	20.148137  
567.000000	20.633222  
567.500000	21.111224  
568.000000	21.497788  
568.500000	21.939979  
569.000000	22.479224  
569.500000	23.326660  
570.000000	24.181408  
570.500000	24.935222  
571.000000	25.621510  
571.500000	26.125463  
572.000000	26.579320  
572.500000	26.957654  
573.000000	27.455987  
573.500000	28.130463  
574.000000	28.904218  
574.500000	29.776996  
575.000000	30.595847  
575.500000	31.372146  
576.000000	31.922920  
576.500000	32.295608  
577.000000	32.577556  
577.500000	32.845230  
578.000000	33.232218  
578.500000	33.801985  
579.000000	34.590821  
579.500000	35.599252  
580.000000	36.712380  
580.500000	37.787623  
581.000000	38.919781  
581.500000	40.066051  
582.000000	41.149929  
582.500000	42.181621  
583.000000	43.277647  
583.500000	44.344461  
584.000000	45.176358  
584.500000	45.998564  
585.000000	46.946758  
585.500000	47.861090  
586.000000	48.921042  
586.500000	50.379328  
587.000000	51.975250  
587.500000	53.662294  
588.000000	55.309556  
588.500000	57.128615  
589.000000	58.609269  
589.500000	59.879888  
590.000000	61.231428  
590.500000	62.414100  
591.000000	63.957591  
591.500000	65.465000  
592.000000	67.164456  
592.500000	68.547510  
593.000000	69.863614  
593.500000	71.237679  
594.000000	72.593356  
594.500000	74.334259  
595.000000	76.107870  
595.500000	78.111601  
596.000000	79.780009  
596.500000	81.270844  
597.000000	82.648781  
597.500000	84.191192  
598.000000	86.100612  
598.500000	88.219805  
599.000000	90.966710  
599.500000	93.687970  
600.000000	96.365161  
600.500000	98.988751  
601.000000	101.590153 
601.500000	103.912339 
602.000000	105.719768 
602.500000	107.519337 
603.000000	109.359083 
603.500000	111.183677 
604.000000	113.481231 
604.500000	116.154519 
605.000000	119.111673 
605.500000	121.758051 
606.000000	124.250525 
606.500000	126.919866 
607.000000	129.246860 
607.500000	131.724228 
608.000000	134.429851 
608.500000	137.417580 
609.000000	140.595929 
609.500000	143.494280 
610.000000	146.779196 
610.500000	149.921614 
611.000000	153.029497 
611.500000	155.947517 
612.000000	158.749975 
612.500000	161.733406 
613.000000	164.523903 
613.500000	167.573756 
614.000000	170.873215 
614.500000	174.630476 
615.000000	178.897805 
615.500000	183.118094 
616.000000	187.453489 
616.500000	191.330098 
617.000000	194.909721 
617.500000	198.215278 
618.000000	201.306408 
618.500000	204.395094 
619.000000	207.209474 
619.500000	210.072632 
620.000000	212.836896 
620.500000	215.587157 
621.000000	219.053621 
621.500000	222.686549 
622.000000	227.054974 
622.500000	231.481621 
623.000000	235.621879 
623.500000	239.417593 
624.000000	242.350380 
624.500000	245.431755 
625.000000	248.311128 
625.500000	251.582769 
626.000000	255.145044 
626.500000	258.658129 
627.000000	262.469126 
627.500000	265.771103 
628.000000	269.153987 
628.500000	272.208846 
629.000000	275.382966 
629.500000	278.709107 
630.000000	282.006749 
630.500000	285.240907 
631.000000	288.094022 
631.500000	290.583781 
632.000000	292.835677 
632.500000	294.918751 
633.000000	297.212250 
633.500000	299.738909 
634.000000	302.372586 
634.500000	305.127543 
635.000000	307.459369 
635.500000	309.147636 
636.000000	310.226430 
636.500000	311.219877 
637.000000	312.172359 
637.500000	313.056365 
638.000000	314.278207 
638.500000	315.457055 
639.000000	316.733044 
639.500000	317.430589 
640.000000	317.906057 
640.500000	317.889938 
641.000000	317.633398 
641.500000	317.530016 
642.000000	317.336840 
642.500000	317.628307 
643.000000	317.590094 
643.500000	317.213435 
644.000000	316.144708 
644.500000	314.765782 
645.000000	313.051274 
645.500000	311.256766 
646.000000	310.439024 
646.500000	310.193087 
647.000000	310.370137 
647.500000	310.247871 
648.000000	309.680280 
648.500000	308.254671 
649.000000	306.050192 
649.500000	303.464415 
650.000000	300.960478 
650.500000	298.707530 
651.000000	296.611423 
651.500000	294.655421 
652.000000	292.307743 
652.500000	289.977122 
653.000000	287.029109 
653.500000	283.620825 
654.000000	279.996053 
654.500000	276.470612 
655.000000	272.938638 
655.500000	269.358916 
656.000000	266.414857 
656.500000	263.696803 
657.000000	261.105326 
657.500000	258.465710 
658.000000	255.717029 
658.500000	252.467519 
659.000000	248.179855 
659.500000	243.626107 
660.000000	238.843666 
660.500000	233.877979 
661.000000	229.312369 
661.500000	225.309586 
662.000000	221.461675 
662.500000	217.383456 
663.000000	213.389456 
663.500000	209.146703 
664.000000	204.237098 
664.500000	199.666330 
665.000000	195.126653 
665.500000	190.537122 
666.000000	185.786146 
666.500000	181.252460 
667.000000	176.838706 
667.500000	171.964165 
668.000000	167.735653 
668.500000	163.614402 
669.000000	159.639445 
669.500000	155.878289 
670.000000	152.509944 
670.500000	149.273389 
671.000000	145.756072 
671.500000	142.587089 
672.000000	138.977545 
672.500000	135.039500 
673.000000	131.118354 
673.500000	127.204918 
674.000000	123.231699 
674.500000	119.434591 
675.000000	116.198679 
675.500000	112.957411 
676.000000	109.589480 
676.500000	106.252862 
677.000000	102.800755 
677.500000	99.148311  
678.000000	95.662133  
678.500000	92.772961  
679.000000	90.486413  
679.500000	88.471560  
680.000000	86.636654  
680.500000	84.717599  
681.000000	82.476706  
681.500000	79.871343  
682.000000	77.197589  
682.500000	74.865738  
683.000000	72.777137  
683.500000	70.943703  
684.000000	69.177576  
684.500000	67.404439  
685.000000	65.467597  
685.500000	63.348252  
686.000000	61.214567  
686.500000	58.971903  
687.000000	56.846467  
687.500000	54.998888  
688.000000	53.437009  
688.500000	52.106695  
689.000000	50.956951  
689.500000	49.845962  
690.000000	48.461141  
690.500000	46.921306  
691.000000	45.567038  
691.500000	44.398591  
692.000000	43.370209  
692.500000	42.564860  
693.000000	41.831044  
693.500000	40.816415  
694.000000	39.458048  
694.500000	38.056615  
695.000000	36.752194  
695.500000	35.514727  
696.000000	34.452966  
696.500000	33.632614  
697.000000	32.718630  
697.500000	31.731747  
698.000000	30.753654  
698.500000	29.917165  
699.000000	29.136768  
699.500000	28.416975  
700.000000	27.807447  
700.500000	27.052090  
701.000000	26.278897  
701.500000	25.521089  
702.000000	24.871890  
702.500000	24.383716  
703.000000	23.918935  
703.500000	23.510376  
704.000000	23.037578  
704.500000	22.448625  
705.000000	21.721966  
705.500000	21.046122  
706.000000	20.604962  
706.500000	20.327977  
707.000000	20.110519  
707.500000	19.913862  
708.000000	19.636666  
708.500000	19.249196  
709.000000	18.695985  
709.500000	18.169168  
710.000000	17.673727  
710.500000	17.231519  
711.000000	16.838781  
711.500000	16.514283  
712.000000	16.250766  
712.500000	15.906024  
713.000000	15.509784  
713.500000	15.029690  
714.000000	14.498886  
714.500000	13.913988  
715.000000	13.442801  
715.500000	13.234189  
716.000000	13.142148  
716.500000	13.178363  
717.000000	13.217309  
717.500000	13.155163  
718.000000	12.814606  
718.500000	12.454066  
719.000000	12.137274  
719.500000	11.884782  
720.000000	11.687821  
720.500000	11.562239  
721.000000	11.458011  
721.500000	11.149296  
722.000000	10.817706  
722.500000	10.411280  
723.000000	10.094356  
723.500000	9.854166   
724.000000	9.753794   
724.500000	9.751432   
725.000000	9.685423   
725.500000	9.709408   
726.000000	9.564571   
726.500000	9.359909   
727.000000	9.091762   
727.500000	8.831831   
728.000000	8.550818   
728.500000	8.269122   
729.000000	8.215614   
729.500000	8.245302   
730.000000	8.351352   
730.500000	8.522814   
731.000000	8.727617   
731.500000	8.777901   
732.000000	8.624597   
732.500000	8.372847   
733.000000	8.117048   
733.500000	7.881018   
734.000000	7.757131   
734.500000	7.786823   
735.000000	7.835669   
735.500000	7.830176   
736.000000	7.710135   
736.500000	7.593975   
737.000000	7.446619   
737.500000	7.299610   
738.000000	7.201235   
738.500000	7.102847   
739.000000	6.986345   
739.500000	6.808988   
740.000000	6.674382   
740.500000	6.595090   
741.000000	6.549508   
741.500000	6.551669   
742.000000	6.559697   
742.500000	6.516966   
743.000000	6.443905   
743.500000	6.384723   
744.000000	6.342432   
744.500000	6.322526   
745.000000	6.276679   
745.500000	6.185402   
746.000000	6.018057   
746.500000	5.787834   
747.000000	5.580493   
747.500000	5.411974   
748.000000	5.295257   
748.500000	5.227098   
749.000000	5.189705   
749.500000	5.195005   
750.000000	5.196818   
750.500000	5.238209   
751.000000	5.292079   
751.500000	5.327465   
752.000000	5.327254   
752.500000	5.311886   
753.000000	5.268410   
753.500000	5.163552   
754.000000	5.026866   
754.500000	4.863562   
755.000000	4.719356   
755.500000	4.585536   
756.000000	4.536410   
756.500000	4.572606   
757.000000	4.594003   
757.500000	4.570922   
758.000000	4.475794   
758.500000	4.384582   
759.000000	4.273066   
759.500000	4.203278   
760.000000	4.237476   
760.500000	4.290202   
761.000000	4.326723   
761.500000	4.349697   
762.000000	4.375517   
762.500000	4.350664   
763.000000	4.363111   
763.500000	4.437014   
764.000000	4.554089   
764.500000	4.597404   
765.000000	4.615270   
765.500000	4.623458   
766.000000	4.503640   
766.500000	4.382046   
767.000000	4.242378   
767.500000	4.168272   
768.000000	4.099515   
768.500000	4.076545   
769.000000	4.103345   
769.500000	4.041226   
770.000000	3.962441   
770.500000	3.834447   
771.000000	3.738599   
771.500000	3.637858   
772.000000	3.574272   
772.500000	3.563445   
773.000000	3.548218   
773.500000	3.548419   
774.000000	3.530669   
774.500000	3.505385   
775.000000	3.409528   
775.500000	3.306074   
776.000000	3.222864   
776.500000	3.135330   
777.000000	3.088346   
777.500000	3.092384   
778.000000	3.153604   
778.500000	3.228233   
779.000000	3.291115   
779.500000	3.365107   
780.000000	3.410426   
780.500000	3.419656   
781.000000	3.414209   
781.500000	3.376987   
782.000000	3.283549   
782.500000	3.128447   
783.000000	2.993066   
783.500000	2.889254   
784.000000	2.809710   
784.500000	2.794424   
785.000000	2.801246   
785.500000	2.822187   
786.000000	2.839914   
786.500000	2.865727   
787.000000	2.894565   
787.500000	2.919565   
788.000000	2.954283   
788.500000	2.955265   
789.000000	2.922905   
789.500000	2.889530   
790.000000	2.835059   
790.500000	2.767831   
791.000000	2.742521   
791.500000	2.751582   
792.000000	2.734165   
792.500000	2.702736   
793.000000	2.715766   
793.500000	2.740389   
794.000000	2.698465   
794.500000	2.691614   
795.000000	2.693220   
795.500000	2.636198   
796.000000	2.536278   
796.500000	2.462877   
797.000000	2.420115   
797.500000	2.346246   
798.000000	2.320788   
798.500000	2.347159   
799.000000	2.421337   
799.500000	2.467998   
800.000000	2.523074   
800.500000	2.578844   
801.000000	2.525525   
801.500000	2.435814   
802.000000	2.284935   
802.500000	2.142667   
803.000000	2.029909   
803.500000	1.983977   
804.000000	2.002551   
804.500000	1.992740   
805.000000	2.032463   
805.500000	2.035775   
806.000000	1.990146   
806.500000	1.980089   
807.000000	1.984471   
807.500000	2.015057   
808.000000	1.944797   
808.500000	1.853259   
809.000000	1.763975   
809.500000	1.615076   
810.000000	1.552894   
810.500000	1.586148   
811.000000	1.738072   
811.500000	1.901254   
812.000000	2.004294   
812.500000	2.094602   
813.000000	2.102513   
813.500000	2.083623   
814.000000	2.022007   
814.500000	2.034447   
815.000000	2.070411   
815.500000	2.079456   
816.000000	2.095935   
816.500000	2.097413   
817.000000	2.045810   
817.500000	1.906628   
818.000000	1.800022   
818.500000	1.744038   
819.000000	1.713601   
819.500000	1.759330   
820.000000	1.887389   
820.500000	2.050048   
821.000000	2.185259   
821.500000	2.309610   
822.000000	2.407734   
822.500000	2.420354   
823.000000	2.377925   
823.500000	2.324910   
824.000000	2.267452   
824.500000	2.230324   
825.000000	2.253593   
825.500000	2.352543   
826.000000	2.441827   
826.500000	2.484476   
827.000000	2.464398   
827.500000	2.352847   
828.000000	2.126499   
828.500000	1.941120   
829.000000	1.795701   
829.500000	1.706981   
830.000000	1.644897   
830.500000	1.643094   
831.000000	1.625879   
831.500000	1.496384   
832.000000	1.367599   
832.500000	1.222326   
833.000000	1.087699   
833.500000	0.974348   
834.000000	0.938597   
834.500000	0.960884   
835.000000	0.996790   
835.500000	1.056083   
836.000000	1.093769   
836.500000	1.112257   
837.000000	1.109291   
837.500000	1.088001   
838.000000	1.034690   
838.500000	1.003196   
839.000000	0.980951   
839.500000	0.936810   
840.000000	0.882395   
840.500000	0.848105   
841.000000	0.831601   
841.500000	0.809218   
842.000000	0.793343   
842.500000	0.830766   
843.000000	0.816001   
843.500000	0.771241   
844.000000	0.691337   
844.500000	0.611686   
845.000000	0.522460   
845.500000	0.407968   
846.000000	0.368571   
846.500000	0.357736   
847.000000	0.413378   
847.500000	0.456181   
848.000000	0.485586   
848.500000	0.479003   
849.000000	0.396857   
849.500000	0.277256   
850.000000	0.111753   
850.500000	0.036289   
851.000000	0.010315   
851.500000	0.040569   
852.000000	0.085508   
852.500000	0.133218   
853.000000	0.159111   
853.500000	0.124782   
854.000000	0.126745   
854.500000	0.135191   
855.000000	0.152545   
855.500000	0.151161   
856.000000	0.145300   
856.500000	0.145031   
857.000000	0.108849   
857.500000	0.084205   
858.000000	0.082272   
858.500000	0.079187   
859.000000	0.092756   
859.500000	0.115178   
860.000000	0.142948   
860.500000	0.145790   
861.000000	0.124116   
861.500000	0.099315   
862.000000	0.027439   
862.500000	-0.060990  
863.000000	-0.159335  
863.500000	-0.243684  
864.000000	-0.300948  
864.500000	-0.313723  
865.000000	-0.258410  
865.500000	-0.173606  
866.000000	-0.064961  
866.500000	0.034298   
867.000000	0.075445   
867.500000	0.058630   
868.000000	0.013779   
868.500000	-0.030723  
869.000000	-0.079081  
869.500000	-0.105515  
870.000000	-0.084183  
870.500000	-0.073111  
871.000000	-0.082957  
871.500000	-0.100157  
872.000000	-0.085354  
872.500000	-0.065536  
873.000000	-0.048183  
873.500000	0.004981   
874.000000	0.062294   
874.500000	0.102363   
875.000000	0.096141   
875.500000	0.086981   
876.000000	0.057825   
876.500000	0.014222   
877.000000	-0.018410  
877.500000	-0.037586  
878.000000	-0.037753  
878.500000	-0.043955  
879.000000	-0.015606  
879.500000	0.033599   
880.000000	0.096359   
880.500000	0.148424   
881.000000	0.168220   
881.500000	0.157697   
882.000000	0.101443   
882.500000	0.047777   
883.000000	0.006576   
883.500000	-0.005215  
884.000000	0.006027   
884.500000	0.022964   
885.000000	0.044528   
885.500000	0.039764   
886.000000	0.019894   
886.500000	0.003701   
887.000000	-0.011931  
887.500000	-0.050628  
888.000000	-0.105684  
888.500000	-0.145597  
889.000000	-0.160844  
889.500000	-0.171254  
890.000000	-0.153068  
890.500000	-0.117821  
891.000000	-0.098341  
891.500000	-0.108391  
892.000000	-0.111172  
892.500000	-0.109165  
893.000000	-0.131666  
893.500000	-0.150057  
894.000000	-0.157239  
894.500000	-0.151575  
895.000000	-0.149530  
895.500000	-0.117263  
896.000000	-0.063617  
896.500000	-0.019972  

