PE FL                   SPECTRUM    ASCII       PEDS        1.60        
  -1
S013BB~1.SP
24/04/11
17:08:55.00
24/04/11
17:08:55.00
Jan

896.500000
1









LS55
405.00
5.00
5.00
SCAN
1
20
100
100
0
400
0
1
0
1
5
ON
736 405 
1 0 0
#HDR
-1
-1
#GR
NM

0.00002384185791015625
0.0
450.000000
0.500000
894
8
322.838883
-0.276923
#DATA
450.000000	-0.066000  
450.500000	0.077803   
451.000000	0.176356   
451.500000	0.247428   
452.000000	0.254363   
452.500000	0.211432   
453.000000	0.147022   
453.500000	0.096515   
454.000000	0.071098   
454.500000	0.054940   
455.000000	0.087053   
455.500000	0.115627   
456.000000	0.119679   
456.500000	0.122573   
457.000000	0.146439   
457.500000	0.143803   
458.000000	0.113204   
458.500000	0.109474   
459.000000	0.105692   
459.500000	0.073628   
460.000000	0.044985   
460.500000	0.099398   
461.000000	0.146992   
461.500000	0.157510   
462.000000	0.153558   
462.500000	0.111840   
463.000000	0.072161   
463.500000	0.018126   
464.000000	0.029951   
464.500000	0.085428   
465.000000	0.163536   
465.500000	0.251315   
466.000000	0.288241   
466.500000	0.303510   
467.000000	0.304276   
467.500000	0.297256   
468.000000	0.284380   
468.500000	0.314437   
469.000000	0.368244   
469.500000	0.392205   
470.000000	0.372597   
470.500000	0.380319   
471.000000	0.354417   
471.500000	0.289064   
472.000000	0.233476   
472.500000	0.184634   
473.000000	0.174120   
473.500000	0.094204   
474.000000	0.051497   
474.500000	0.037198   
475.000000	0.028855   
475.500000	0.007315   
476.000000	-0.012463  
476.500000	0.028864   
477.000000	0.039057   
477.500000	0.044493   
478.000000	0.061207   
478.500000	0.102183   
479.000000	0.133510   
479.500000	0.149439   
480.000000	0.177447   
480.500000	0.199137   
481.000000	0.216981   
481.500000	0.243129   
482.000000	0.285888   
482.500000	0.335977   
483.000000	0.386805   
483.500000	0.399504   
484.000000	0.375328   
484.500000	0.346833   
485.000000	0.284782   
485.500000	0.225684   
486.000000	0.195510   
486.500000	0.242602   
487.000000	0.312153   
487.500000	0.371452   
488.000000	0.423311   
488.500000	0.421139   
489.000000	0.375649   
489.500000	0.283126   
490.000000	0.206133   
490.500000	0.121617   
491.000000	0.077721   
491.500000	0.081931   
492.000000	0.116257   
492.500000	0.186356   
493.000000	0.247630   
493.500000	0.332768   
494.000000	0.351287   
494.500000	0.369141   
495.000000	0.380105   
495.500000	0.403699   
496.000000	0.442435   
496.500000	0.481166   
497.000000	0.562113   
497.500000	0.562439   
498.000000	0.540623   
498.500000	0.531322   
499.000000	0.540411   
499.500000	0.561679   
500.000000	0.570552   
500.500000	0.616385   
501.000000	0.626217   
501.500000	0.605929   
502.000000	0.580614   
502.500000	0.567346   
503.000000	0.591128   
503.500000	0.603805   
504.000000	0.650077   
504.500000	0.734499   
505.000000	0.853408   
505.500000	0.991302   
506.000000	1.110289   
506.500000	1.228565   
507.000000	1.269178   
507.500000	1.215187   
508.000000	1.092172   
508.500000	0.950272   
509.000000	0.851888   
509.500000	0.802983   
510.000000	0.875675   
510.500000	1.036461   
511.000000	1.247938   
511.500000	1.461871   
512.000000	1.633038   
512.500000	1.823660   
513.000000	1.907807   
513.500000	1.959730   
514.000000	2.007675   
514.500000	2.048372   
515.000000	2.065614   
515.500000	2.055881   
516.000000	2.143953   
516.500000	2.217027   
517.000000	2.312328   
517.500000	2.436797   
518.000000	2.569170   
518.500000	2.689523   
519.000000	2.730391   
519.500000	2.777042   
520.000000	2.771118   
520.500000	2.752959   
521.000000	2.714595   
521.500000	2.695135   
522.000000	2.733506   
522.500000	2.776935   
523.000000	2.856829   
523.500000	2.922296   
524.000000	3.019538   
524.500000	3.128768   
525.000000	3.275185   
525.500000	3.519263   
526.000000	3.780684   
526.500000	4.091654   
527.000000	4.338838   
527.500000	4.537530   
528.000000	4.622168   
528.500000	4.688679   
529.000000	4.767858   
529.500000	4.889359   
530.000000	5.084261   
530.500000	5.344779   
531.000000	5.675296   
531.500000	5.943276   
532.000000	6.182899   
532.500000	6.401703   
533.000000	6.575289   
533.500000	6.713261   
534.000000	6.870207   
534.500000	7.126697   
535.000000	7.432567   
535.500000	7.773415   
536.000000	8.183161   
536.500000	8.537831   
537.000000	8.962955   
537.500000	9.380905   
538.000000	9.756194   
538.500000	10.198565  
539.000000	10.542450  
539.500000	10.841024  
540.000000	10.979649  
540.500000	11.110502  
541.000000	11.312404  
541.500000	11.498883  
542.000000	11.817842  
542.500000	12.193372  
543.000000	12.542812  
543.500000	12.716217  
544.000000	12.668897  
544.500000	12.425018  
545.000000	12.102623  
545.500000	11.768103  
546.000000	11.527068  
546.500000	11.405512  
547.000000	11.400022  
547.500000	11.414092  
548.000000	11.270478  
548.500000	11.121647  
549.000000	10.943141  
549.500000	10.783513  
550.000000	10.631226  
550.500000	10.484575  
551.000000	10.476988  
551.500000	10.399936  
552.000000	10.301437  
552.500000	10.270107  
553.000000	10.302020  
553.500000	10.340495  
554.000000	10.354348  
554.500000	10.405988  
555.000000	10.486641  
555.500000	10.560792  
556.000000	10.712738  
556.500000	10.989187  
557.000000	11.298363  
557.500000	11.613055  
558.000000	11.914016  
558.500000	12.167884  
559.000000	12.433966  
559.500000	12.721450  
560.000000	12.949191  
560.500000	13.230547  
561.000000	13.634079  
561.500000	14.093430  
562.000000	14.548326  
562.500000	15.128881  
563.000000	15.832235  
563.500000	16.477797  
564.000000	17.110907  
564.500000	17.783094  
565.000000	18.384799  
565.500000	18.762421  
566.000000	19.092716  
566.500000	19.420146  
567.000000	19.752050  
567.500000	20.206027  
568.000000	20.850703  
568.500000	21.735782  
569.000000	22.608556  
569.500000	23.532528  
570.000000	24.266443  
570.500000	24.726393  
571.000000	25.168113  
571.500000	25.500564  
572.000000	25.980419  
572.500000	26.578128  
573.000000	27.366649  
573.500000	28.308128  
574.000000	29.048037  
574.500000	29.828098  
575.000000	30.443530  
575.500000	31.010534  
576.000000	31.575469  
576.500000	32.183892  
577.000000	32.960307  
577.500000	33.670884  
578.000000	34.496291  
578.500000	35.379977  
579.000000	36.254512  
579.500000	37.093884  
580.000000	37.898805  
580.500000	38.832962  
581.000000	39.616467  
581.500000	40.398153  
582.000000	41.291103  
582.500000	42.244517  
583.000000	43.145335  
583.500000	44.019098  
584.000000	45.057237  
584.500000	45.981456  
585.000000	46.907990  
585.500000	47.962552  
586.000000	49.165434  
586.500000	50.524716  
587.000000	51.886218  
587.500000	53.492168  
588.000000	55.128480  
588.500000	56.665871  
589.000000	58.042463  
589.500000	59.222606  
590.000000	60.269990  
590.500000	61.039955  
591.000000	61.843985  
591.500000	62.866742  
592.000000	64.247461  
592.500000	65.980287  
593.000000	68.246933  
593.500000	70.827716  
594.000000	73.293756  
594.500000	75.554608  
595.000000	77.567025  
595.500000	79.178371  
596.000000	80.454192  
596.500000	81.741018  
597.000000	83.133591  
597.500000	84.660539  
598.000000	86.438441  
598.500000	88.299779  
599.000000	90.245499  
599.500000	92.091141  
600.000000	93.910324  
600.500000	95.753636  
601.000000	97.843764  
601.500000	100.398016 
602.000000	103.001951 
602.500000	105.743653 
603.000000	108.546751 
603.500000	111.184384 
604.000000	113.616337 
604.500000	115.972552 
605.000000	118.482534 
605.500000	121.094946 
606.000000	123.878276 
606.500000	126.590634 
607.000000	129.514161 
607.500000	132.493341 
608.000000	135.597805 
608.500000	138.574074 
609.000000	141.584209 
609.500000	144.358066 
610.000000	146.673871 
610.500000	149.195717 
611.000000	151.882680 
611.500000	155.004779 
612.000000	158.166116 
612.500000	161.808580 
613.000000	165.521063 
613.500000	168.685259 
614.000000	171.796901 
614.500000	175.068239 
615.000000	178.451782 
615.500000	181.939107 
616.000000	185.878957 
616.500000	190.251855 
617.000000	194.207866 
617.500000	197.692183 
618.000000	200.871220 
618.500000	203.981682 
619.000000	206.699853 
619.500000	209.299387 
620.000000	212.756283 
620.500000	216.738187 
621.000000	220.786226 
621.500000	225.007115 
622.000000	229.556398 
622.500000	233.605627 
623.000000	237.226423 
623.500000	240.780324 
624.000000	244.205009 
624.500000	246.910467 
625.000000	249.641448 
625.500000	253.355762 
626.000000	256.998148 
626.500000	260.946525 
627.000000	265.135150 
627.500000	269.204545 
628.000000	272.219792 
628.500000	274.690747 
629.000000	277.525415 
629.500000	280.137842 
630.000000	283.010929 
630.500000	286.393400 
631.000000	290.022727 
631.500000	293.225573 
632.000000	295.635909 
632.500000	298.216955 
633.000000	300.451131 
633.500000	302.462278 
634.000000	304.586866 
634.500000	306.417985 
635.000000	308.227641 
635.500000	309.773712 
636.000000	311.654866 
636.500000	313.493319 
637.000000	315.333727 
637.500000	317.092972 
638.000000	318.404410 
638.500000	319.543478 
639.000000	319.964285 
639.500000	320.270833 
640.000000	320.218853 
640.500000	320.090617 
641.000000	320.223788 
641.500000	320.427539 
642.000000	320.975799 
642.500000	321.523372 
643.000000	322.406948 
643.500000	322.838883 
644.000000	322.645886 
644.500000	321.738827 
645.000000	320.416027 
645.500000	319.134317 
646.000000	317.570532 
646.500000	316.565758 
647.000000	315.823306 
647.500000	314.944439 
648.000000	313.746306 
648.500000	312.361925 
649.000000	310.618320 
649.500000	308.641651 
650.000000	306.843306 
650.500000	305.156146 
651.000000	303.387152 
651.500000	301.371551 
652.000000	299.037562 
652.500000	296.330573 
653.000000	293.164423 
653.500000	289.745350 
654.000000	286.609562 
654.500000	283.598582 
655.000000	280.840166 
655.500000	278.441345 
656.000000	276.407460 
656.500000	274.209228 
657.000000	271.391743 
657.500000	268.027192 
658.000000	264.308146 
658.500000	259.850981 
659.000000	254.844040 
659.500000	250.170358 
660.000000	245.941608 
660.500000	241.846998 
661.000000	237.785109 
661.500000	233.868486 
662.000000	229.564955 
662.500000	224.827141 
663.000000	220.136660 
663.500000	215.798732 
664.000000	211.686821 
664.500000	207.703371 
665.000000	203.649064 
665.500000	199.338717 
666.000000	194.666736 
666.500000	189.904343 
667.000000	185.240786 
667.500000	180.521987 
668.000000	176.211508 
668.500000	171.980831 
669.000000	168.048090 
669.500000	164.413187 
670.000000	160.838426 
670.500000	157.181326 
671.000000	153.168402 
671.500000	148.828005 
672.000000	143.988317 
672.500000	139.121371 
673.000000	134.898523 
673.500000	131.317243 
674.000000	128.241597 
674.500000	125.476591 
675.000000	122.732001 
675.500000	119.503571 
676.000000	115.878944 
676.500000	112.275280 
677.000000	108.921415 
677.500000	105.714738 
678.000000	102.669426 
678.500000	99.924525  
679.000000	97.255486  
679.500000	94.494257  
680.000000	91.732782  
680.500000	89.416775  
681.000000	87.133929  
681.500000	84.828556  
682.000000	82.558536  
682.500000	80.156307  
683.000000	77.672285  
683.500000	74.849324  
684.000000	72.313096  
684.500000	69.749523  
685.000000	67.381538  
685.500000	65.202879  
686.000000	63.098287  
686.500000	61.176064  
687.000000	59.474645  
687.500000	58.198042  
688.000000	56.912554  
688.500000	55.813116  
689.000000	54.804001  
689.500000	53.567879  
690.000000	51.960699  
690.500000	50.256465  
691.000000	48.605046  
691.500000	46.883400  
692.000000	45.390239  
692.500000	44.122319  
693.000000	43.059651  
693.500000	41.846291  
694.000000	40.394931  
694.500000	38.946814  
695.000000	37.592725  
695.500000	36.483766  
696.000000	35.617972  
696.500000	35.012100  
697.000000	34.573402  
697.500000	33.922239  
698.000000	33.012476  
698.500000	32.038486  
699.000000	30.968812  
699.500000	29.947914  
700.000000	29.077172  
700.500000	28.316328  
701.000000	27.602055  
701.500000	26.804469  
702.000000	26.129133  
702.500000	25.485469  
703.000000	24.951708  
703.500000	24.564217  
704.000000	24.185903  
704.500000	23.886755  
705.000000	23.424987  
705.500000	22.843922  
706.000000	22.224716  
706.500000	21.524304  
707.000000	20.952771  
707.500000	20.409363  
708.000000	20.053161  
708.500000	19.823632  
709.000000	19.567020  
709.500000	19.395708  
710.000000	19.040625  
710.500000	18.619504  
711.000000	17.986794  
711.500000	17.296504  
712.000000	16.738829  
712.500000	16.189729  
713.000000	15.923165  
713.500000	15.728218  
714.000000	15.643881  
714.500000	15.532825  
715.000000	15.270200  
715.500000	15.027035  
716.000000	14.592307  
716.500000	14.240474  
717.000000	13.896220  
717.500000	13.642693  
718.000000	13.439109  
718.500000	13.146923  
719.000000	12.991797  
719.500000	12.721337  
720.000000	12.516844  
720.500000	12.286705  
721.000000	12.093055  
721.500000	11.967975  
722.000000	11.722701  
722.500000	11.540204  
723.000000	11.339267  
723.500000	11.177883  
724.000000	10.996350  
724.500000	10.875820  
725.000000	10.778324  
725.500000	10.594564  
726.000000	10.366732  
726.500000	10.133922  
727.000000	9.881866   
727.500000	9.581697   
728.000000	9.354382   
728.500000	9.105705   
729.000000	8.985816   
729.500000	8.903842   
730.000000	8.917747   
730.500000	8.955701   
731.000000	8.950736   
731.500000	8.964825   
732.000000	8.808257   
732.500000	8.617905   
733.000000	8.362894   
733.500000	8.143990   
734.000000	7.939883   
734.500000	7.742551   
735.000000	7.561293   
735.500000	7.382873   
736.000000	7.189504   
736.500000	6.980239   
737.000000	6.887549   
737.500000	6.865576   
738.000000	6.915163   
738.500000	6.994641   
739.000000	7.096207   
739.500000	7.119690   
740.000000	7.021662   
740.500000	6.896656   
741.000000	6.742434   
741.500000	6.583769   
742.000000	6.472077   
742.500000	6.397502   
743.000000	6.402361   
743.500000	6.453599   
744.000000	6.511309   
744.500000	6.481192   
745.000000	6.372740   
745.500000	6.171766   
746.000000	5.864217   
746.500000	5.546122   
747.000000	5.376890   
747.500000	5.366456   
748.000000	5.438547   
748.500000	5.619254   
749.000000	5.775552   
749.500000	5.825408   
750.000000	5.708647   
750.500000	5.595944   
751.000000	5.509003   
751.500000	5.429460   
752.000000	5.359797   
752.500000	5.359812   
753.000000	5.372784   
753.500000	5.255424   
754.000000	5.122940   
754.500000	5.003532   
755.000000	4.879007   
755.500000	4.684576   
756.000000	4.574682   
756.500000	4.504109   
757.000000	4.418027   
757.500000	4.377424   
758.000000	4.441595   
758.500000	4.491094   
759.000000	4.469283   
759.500000	4.488814   
760.000000	4.471651   
760.500000	4.449617   
761.000000	4.435538   
761.500000	4.547640   
762.000000	4.670849   
762.500000	4.737974   
763.000000	4.831953   
763.500000	4.834538   
764.000000	4.783430   
764.500000	4.650894   
765.000000	4.549378   
765.500000	4.470387   
766.000000	4.361194   
766.500000	4.294480   
767.000000	4.210502   
767.500000	4.151571   
768.000000	4.069623   
768.500000	3.974209   
769.000000	3.866866   
769.500000	3.729116   
770.000000	3.598612   
770.500000	3.491102   
771.000000	3.449833   
771.500000	3.476981   
772.000000	3.541667   
772.500000	3.614165   
773.000000	3.650896   
773.500000	3.615942   
774.000000	3.523304   
774.500000	3.401434   
775.000000	3.287534   
775.500000	3.160953   
776.000000	3.098502   
776.500000	3.072152   
777.000000	3.051391   
777.500000	3.052087   
778.000000	3.083844   
778.500000	3.152064   
779.000000	3.171287   
779.500000	3.198380   
780.000000	3.216200   
780.500000	3.221547   
781.000000	3.212048   
781.500000	3.214435   
782.000000	3.248391   
782.500000	3.235732   
783.000000	3.206198   
783.500000	3.154419   
784.000000	3.071567   
784.500000	2.961946   
785.000000	2.880267   
785.500000	2.866415   
786.000000	2.851758   
786.500000	2.861608   
787.000000	2.857246   
787.500000	2.847345   
788.000000	2.793309   
788.500000	2.745363   
789.000000	2.735528   
789.500000	2.717515   
790.000000	2.738667   
790.500000	2.757820   
791.000000	2.770241   
791.500000	2.769085   
792.000000	2.783239   
792.500000	2.788176   
793.000000	2.771914   
793.500000	2.760361   
794.000000	2.759508   
794.500000	2.732085   
795.000000	2.683094   
795.500000	2.659749   
796.000000	2.657879   
796.500000	2.642367   
797.000000	2.628519   
797.500000	2.661534   
798.000000	2.665589   
798.500000	2.621335   
799.000000	2.542228   
799.500000	2.448846   
800.000000	2.325608   
800.500000	2.196575   
801.000000	2.149979   
801.500000	2.139756   
802.000000	2.176949   
802.500000	2.246087   
803.000000	2.345224   
803.500000	2.393040   
804.000000	2.342998   
804.500000	2.301892   
805.000000	2.194124   
805.500000	2.070128   
806.000000	1.991430   
806.500000	1.962693   
807.000000	1.986523   
807.500000	1.976773   
808.000000	2.008860   
808.500000	2.012111   
809.000000	2.020133   
809.500000	2.036602   
810.000000	2.062697   
810.500000	2.112703   
811.000000	2.138116   
811.500000	2.118760   
812.000000	2.043597   
812.500000	1.994417   
813.000000	1.934606   
813.500000	1.867666   
814.000000	1.859009   
814.500000	1.919730   
815.000000	1.943996   
815.500000	1.918851   
816.000000	1.943278   
816.500000	1.916018   
817.000000	1.827369   
817.500000	1.762294   
818.000000	1.771538   
818.500000	1.803356   
819.000000	1.814467   
819.500000	1.890871   
820.000000	1.971762   
820.500000	2.020799   
821.000000	2.061688   
821.500000	2.138040   
822.000000	2.257324   
822.500000	2.338009   
823.000000	2.429541   
823.500000	2.517764   
824.000000	2.589777   
824.500000	2.654456   
825.000000	2.678714   
825.500000	2.676122   
826.000000	2.559554   
826.500000	2.411050   
827.000000	2.228766   
827.500000	2.001682   
828.000000	1.857758   
828.500000	1.793602   
829.000000	1.791146   
829.500000	1.750024   
830.000000	1.692564   
830.500000	1.598784   
831.000000	1.448356   
831.500000	1.346515   
832.000000	1.296684   
832.500000	1.338471   
833.000000	1.388209   
833.500000	1.426367   
834.000000	1.413471   
834.500000	1.351525   
835.000000	1.274432   
835.500000	1.149129   
836.000000	1.063766   
836.500000	1.008729   
837.000000	0.970847   
837.500000	0.921938   
838.000000	0.880666   
838.500000	0.866139   
839.000000	0.830593   
839.500000	0.844996   
840.000000	0.851217   
840.500000	0.838421   
841.000000	0.828350   
841.500000	0.822755   
842.000000	0.825519   
842.500000	0.808205   
843.000000	0.828139   
843.500000	0.847916   
844.000000	0.830439   
844.500000	0.777406   
845.000000	0.721174   
845.500000	0.631313   
846.000000	0.503094   
846.500000	0.406144   
847.000000	0.323172   
847.500000	0.272447   
848.000000	0.245608   
848.500000	0.270244   
849.000000	0.302536   
849.500000	0.309599   
850.000000	0.302491   
850.500000	0.241428   
851.000000	0.157098   
851.500000	0.081653   
852.000000	0.032179   
852.500000	0.022588   
853.000000	0.032254   
853.500000	0.088506   
854.000000	0.130291   
854.500000	0.142044   
855.000000	0.145903   
855.500000	0.122139   
856.000000	0.100842   
856.500000	0.058497   
857.000000	0.055497   
857.500000	0.069634   
858.000000	0.074526   
858.500000	0.097337   
859.000000	0.091556   
859.500000	0.068358   
860.000000	-0.017166  
860.500000	-0.097862  
861.000000	-0.162538  
861.500000	-0.240833  
862.000000	-0.276923  
862.500000	-0.269627  
863.000000	-0.226940  
863.500000	-0.166129  
864.000000	-0.082794  
864.500000	0.039116   
865.000000	0.096211   
865.500000	0.127602   
866.000000	0.128795   
866.500000	0.112139   
867.000000	0.083161   
867.500000	0.052424   
868.000000	0.070957   
868.500000	0.086361   
869.000000	0.106847   
869.500000	0.124226   
870.000000	0.147500   
870.500000	0.139341   
871.000000	0.106228   
871.500000	0.087454   
872.000000	0.082395   
872.500000	0.082860   
873.000000	0.103324   
873.500000	0.145256   
874.000000	0.178029   
874.500000	0.170987   
875.000000	0.147549   
875.500000	0.126881   
876.000000	0.088467   
876.500000	0.058458   
877.000000	0.066742   
877.500000	0.091907   
878.000000	0.082831   
878.500000	0.046382   
879.000000	0.026656   
879.500000	-0.016922  
880.000000	-0.084280  
880.500000	-0.128230  
881.000000	-0.154096  
881.500000	-0.170437  
882.000000	-0.191076  
882.500000	-0.171897  
883.000000	-0.146098  
883.500000	-0.155007  
884.000000	-0.159666  
884.500000	-0.179243  
885.000000	-0.161274  
885.500000	-0.135873  
886.000000	-0.074927  
886.500000	-0.032174  
887.000000	0.020515   
887.500000	0.045586   
888.000000	0.008434   
888.500000	-0.024610  
889.000000	-0.093252  
889.500000	-0.154578  
890.000000	-0.231951  
890.500000	-0.253265  
891.000000	-0.255237  
891.500000	-0.259502  
892.000000	-0.187055  
892.500000	-0.103220  
893.000000	-0.028346  
893.500000	0.006576   
894.000000	0.046619   
894.500000	0.060849   
895.000000	0.016764   
895.500000	-0.011207  
896.000000	-0.035575  
896.500000	-0.075712  

