PE FL                   SPECTRUM    ASCII       PEDS        1.60        
  -1
S00BC3~1.SP
24/04/11
16:44:41.00
24/04/11
16:44:41.00
Jan

896.500000
1









LS55
405.00
5.00
5.00
SCAN
1
20
100
100
0
400
0
1
0
1
5
ON
736 405 
1 0 0
#HDR
-1
-1
#GR
NM

0.00002384185791015625
0.0
450.000000
0.500000
894
8
329.387090
-0.541000
#DATA
450.000000	-0.541000  
450.500000	-0.347779  
451.000000	-0.224417  
451.500000	-0.168179  
452.000000	-0.116341  
452.500000	-0.114782  
453.000000	-0.087025  
453.500000	-0.046168  
454.000000	0.008458   
454.500000	0.027823   
455.000000	0.007619   
455.500000	-0.010467  
456.000000	-0.054612  
456.500000	-0.007512  
457.000000	0.026571   
457.500000	0.057953   
458.000000	0.066942   
458.500000	0.050209   
459.000000	-0.000964  
459.500000	-0.103400  
460.000000	-0.106150  
460.500000	-0.060187  
461.000000	-0.005202  
461.500000	0.105990   
462.000000	0.204235   
462.500000	0.275677   
463.000000	0.257636   
463.500000	0.226667   
464.000000	0.185690   
464.500000	0.106628   
465.000000	0.066938   
465.500000	0.027458   
466.000000	0.028126   
466.500000	0.020424   
467.000000	0.030283   
467.500000	0.078671   
468.000000	0.097011   
468.500000	0.103378   
469.000000	0.067044   
469.500000	0.038905   
470.000000	-0.054445  
470.500000	-0.164981  
471.000000	-0.246352  
471.500000	-0.290810  
472.000000	-0.293571  
472.500000	-0.226545  
473.000000	-0.099192  
473.500000	0.045276   
474.000000	0.159588   
474.500000	0.258012   
475.000000	0.287705   
475.500000	0.245894   
476.000000	0.157964   
476.500000	0.041697   
477.000000	-0.017703  
477.500000	-0.041144  
478.000000	0.002788   
478.500000	0.072961   
479.000000	0.157072   
479.500000	0.215150   
480.000000	0.212267   
480.500000	0.208126   
481.000000	0.185322   
481.500000	0.160352   
482.000000	0.131944   
482.500000	0.141461   
483.000000	0.138263   
483.500000	0.117398   
484.000000	0.112102   
484.500000	0.091187   
485.000000	0.079679   
485.500000	0.068580   
486.000000	0.078595   
486.500000	0.113569   
487.000000	0.177556   
487.500000	0.243074   
488.000000	0.267012   
488.500000	0.278705   
489.000000	0.239860   
489.500000	0.151181   
490.000000	0.088560   
490.500000	0.070580   
491.000000	0.081040   
491.500000	0.078575   
492.000000	0.099645   
492.500000	0.135589   
493.000000	0.116564   
493.500000	0.109833   
494.000000	0.128294   
494.500000	0.160207   
495.000000	0.181669   
495.500000	0.210768   
496.000000	0.244730   
496.500000	0.252671   
497.000000	0.252834   
497.500000	0.262098   
498.000000	0.298612   
498.500000	0.354808   
499.000000	0.394020   
499.500000	0.405677   
500.000000	0.417510   
500.500000	0.391994   
501.000000	0.374096   
501.500000	0.379352   
502.000000	0.436910   
502.500000	0.515627   
503.000000	0.597903   
503.500000	0.690389   
504.000000	0.754751   
504.500000	0.797679   
505.000000	0.823317   
505.500000	0.866051   
506.000000	0.900372   
506.500000	0.947272   
507.000000	0.993040   
507.500000	1.056725   
508.000000	1.087333   
508.500000	1.104957   
509.000000	1.151640   
509.500000	1.197328   
510.000000	1.264376   
510.500000	1.317423   
511.000000	1.372042   
511.500000	1.434237   
512.000000	1.492677   
512.500000	1.576480   
513.000000	1.651246   
513.500000	1.731179   
514.000000	1.786504   
514.500000	1.810085   
515.000000	1.827578   
515.500000	1.875465   
516.000000	1.952243   
516.500000	1.974565   
517.000000	2.017341   
517.500000	2.083040   
518.000000	2.128512   
518.500000	2.185567   
519.000000	2.268100   
519.500000	2.400871   
520.000000	2.499892   
520.500000	2.591680   
521.000000	2.617858   
521.500000	2.622992   
522.000000	2.631866   
522.500000	2.699126   
523.000000	2.796935   
523.500000	2.898768   
524.000000	3.084560   
524.500000	3.193862   
525.000000	3.278322   
525.500000	3.393298   
526.000000	3.570495   
526.500000	3.708020   
527.000000	3.819183   
527.500000	4.017599   
528.000000	4.174343   
528.500000	4.304569   
529.000000	4.420063   
529.500000	4.594072   
530.000000	4.806072   
530.500000	5.032749   
531.000000	5.303354   
531.500000	5.552000   
532.000000	5.733803   
532.500000	5.913972   
533.000000	6.073107   
533.500000	6.243001   
534.000000	6.445526   
534.500000	6.661428   
535.000000	6.871708   
535.500000	7.042280   
536.000000	7.238679   
536.500000	7.428868   
537.000000	7.617050   
537.500000	7.864621   
538.000000	8.278814   
538.500000	8.741643   
539.000000	9.228556   
539.500000	9.784382   
540.000000	10.407719  
540.500000	10.940244  
541.000000	11.342695  
541.500000	11.704011  
542.000000	11.923927  
542.500000	12.075489  
543.000000	12.066309  
543.500000	12.018476  
544.000000	11.867595  
544.500000	11.672226  
545.000000	11.385337  
545.500000	11.077293  
546.000000	10.901653  
546.500000	10.704706  
547.000000	10.517962  
547.500000	10.320174  
548.000000	10.271755  
548.500000	10.105337  
549.000000	9.932530   
549.500000	9.918666   
550.000000	9.944985   
550.500000	9.962489   
551.000000	9.932912   
551.500000	10.023359  
552.000000	10.000115  
552.500000	9.963384   
553.000000	10.038621  
553.500000	10.127072  
554.000000	10.249664  
554.500000	10.322949  
555.000000	10.450565  
555.500000	10.497003  
556.000000	10.538653  
556.500000	10.744773  
557.000000	11.029027  
557.500000	11.439124  
558.000000	11.846220  
558.500000	12.233066  
559.000000	12.494050  
559.500000	12.594760  
560.000000	12.639061  
560.500000	12.767975  
561.000000	13.012723  
561.500000	13.338398  
562.000000	13.745157  
562.500000	14.217083  
563.000000	14.704033  
563.500000	15.058458  
564.000000	15.476638  
564.500000	15.982630  
565.000000	16.524803  
565.500000	17.088333  
566.000000	17.708398  
566.500000	18.436552  
567.000000	19.143461  
567.500000	19.844890  
568.000000	20.578378  
568.500000	21.206526  
569.000000	21.778805  
569.500000	22.188920  
570.000000	22.605593  
570.500000	23.218153  
571.000000	23.901782  
571.500000	24.751792  
572.000000	25.614018  
572.500000	26.535469  
573.000000	27.372191  
573.500000	28.053686  
574.000000	28.843762  
574.500000	29.715788  
575.000000	30.490983  
575.500000	31.081215  
576.000000	31.482406  
576.500000	31.916120  
577.000000	32.211766  
577.500000	32.604901  
578.000000	33.357773  
578.500000	34.319298  
579.000000	35.312116  
579.500000	36.167562  
580.000000	37.024426  
580.500000	37.712858  
581.000000	38.204141  
581.500000	38.844536  
582.000000	39.594773  
582.500000	40.436044  
583.000000	41.297454  
583.500000	42.181551  
584.000000	43.188423  
584.500000	44.212615  
585.000000	45.373153  
585.500000	46.529315  
586.000000	47.779690  
586.500000	49.177680  
587.000000	50.463936  
587.500000	51.676734  
588.000000	52.803257  
588.500000	53.908732  
589.000000	54.905948  
589.500000	55.995139  
590.000000	57.393319  
590.500000	59.201294  
591.000000	61.018996  
591.500000	62.951350  
592.000000	64.787393  
592.500000	66.353035  
593.000000	67.606064  
593.500000	68.606669  
594.000000	69.957319  
594.500000	71.101909  
595.000000	72.477617  
595.500000	74.027641  
596.000000	75.905074  
596.500000	77.937027  
597.000000	79.963797  
597.500000	82.421176  
598.000000	84.679410  
598.500000	86.709727  
599.000000	88.451894  
599.500000	90.092836  
600.000000	91.500081  
600.500000	92.790998  
601.000000	94.249172  
601.500000	95.960610  
602.000000	97.867805  
602.500000	100.059840 
603.000000	102.529189 
603.500000	104.856656 
604.000000	107.182113 
604.500000	109.373805 
605.000000	111.674350 
605.500000	114.293944 
606.000000	117.252697 
606.500000	120.425439 
607.000000	123.500602 
607.500000	126.414717 
608.000000	128.975209 
608.500000	131.109499 
609.000000	133.276905 
609.500000	135.520137 
610.000000	138.080050 
610.500000	140.908567 
611.000000	144.020172 
611.500000	147.701458 
612.000000	151.327183 
612.500000	154.972296 
613.000000	158.484623 
613.500000	162.061500 
614.000000	165.747972 
614.500000	169.204239 
615.000000	172.796467 
615.500000	176.391228 
616.000000	179.872217 
616.500000	183.014176 
617.000000	185.880113 
617.500000	188.815443 
618.000000	191.707897 
618.500000	194.643359 
619.000000	197.876899 
619.500000	201.269113 
620.000000	204.784040 
620.500000	208.148419 
621.000000	211.501139 
621.500000	215.062823 
622.000000	218.687992 
622.500000	222.581356 
623.000000	226.532708 
623.500000	230.619532 
624.000000	234.680209 
624.500000	238.264530 
625.000000	241.383721 
625.500000	244.473161 
626.000000	248.267879 
626.500000	252.249762 
627.000000	256.524063 
627.500000	261.312688 
628.000000	265.722166 
628.500000	269.247246 
629.000000	272.170946 
629.500000	275.092589 
630.000000	277.905573 
630.500000	280.658363 
631.000000	283.820532 
631.500000	287.111827 
632.000000	290.377753 
632.500000	293.321912 
633.000000	296.209367 
633.500000	299.125695 
634.000000	301.946797 
634.500000	304.686905 
635.000000	307.388940 
635.500000	310.133478 
636.000000	312.859886 
636.500000	315.115200 
637.000000	316.938031 
637.500000	318.560055 
638.000000	319.491397 
638.500000	320.337389 
639.000000	321.012159 
639.500000	321.944812 
640.000000	323.056352 
640.500000	324.149343 
641.000000	325.296248 
641.500000	325.963033 
642.000000	326.361306 
642.500000	326.790719 
643.000000	327.223736 
643.500000	327.625860 
644.000000	328.245799 
644.500000	328.867734 
645.000000	329.352562 
645.500000	329.234627 
646.000000	329.387090 
646.500000	329.118879 
647.000000	328.285936 
647.500000	327.354690 
648.000000	326.106263 
648.500000	324.916064 
649.000000	322.985254 
649.500000	321.429430 
650.000000	320.190178 
650.500000	318.770356 
651.000000	317.551037 
651.500000	316.428519 
652.000000	315.090118 
652.500000	313.073261 
653.000000	310.722588 
653.500000	308.438552 
654.000000	306.051174 
654.500000	303.663367 
655.000000	301.304428 
655.500000	298.925146 
656.000000	296.157465 
656.500000	292.802324 
657.000000	289.431371 
657.500000	285.730304 
658.000000	281.965627 
658.500000	278.348638 
659.000000	274.749333 
659.500000	271.220591 
660.000000	267.655189 
660.500000	264.127202 
661.000000	260.088098 
661.500000	255.957827 
662.000000	251.578267 
662.500000	247.099823 
663.000000	242.497983 
663.500000	237.923011 
664.000000	233.855654 
664.500000	229.753328 
665.000000	225.583448 
665.500000	221.373166 
666.000000	217.155116 
666.500000	212.496523 
667.000000	207.759426 
667.500000	203.195825 
668.000000	198.754450 
668.500000	194.485220 
669.000000	190.662311 
669.500000	187.128834 
670.000000	183.166523 
670.500000	179.027881 
671.000000	174.336384 
671.500000	169.621677 
672.000000	164.440615 
672.500000	159.764571 
673.000000	155.406155 
673.500000	151.033938 
674.000000	147.036679 
674.500000	143.067573 
675.000000	139.360656 
675.500000	135.670647 
676.000000	132.350890 
676.500000	129.050703 
677.000000	125.372909 
677.500000	121.647241 
678.000000	117.949098 
678.500000	114.292330 
679.000000	110.918753 
679.500000	108.043538 
680.000000	105.678378 
680.500000	103.439309 
681.000000	100.993903 
681.500000	98.472844  
682.000000	95.607873  
682.500000	92.453632  
683.000000	89.171760  
683.500000	86.299621  
684.000000	83.701378  
684.500000	81.189029  
685.000000	78.867901  
685.500000	76.712727  
686.000000	74.529350  
686.500000	72.134781  
687.000000	69.917437  
687.500000	68.029504  
688.000000	66.330098  
688.500000	64.756105  
689.000000	63.260658  
689.500000	61.720602  
690.000000	59.790747  
690.500000	57.718263  
691.000000	55.863868  
691.500000	54.130705  
692.000000	52.667103  
692.500000	51.315246  
693.000000	50.233901  
693.500000	49.134320  
694.000000	47.809118  
694.500000	46.486922  
695.000000	45.157211  
695.500000	43.791513  
696.000000	42.174994  
696.500000	40.625925  
697.000000	39.218855  
697.500000	37.803022  
698.000000	36.620679  
698.500000	35.632949  
699.000000	34.988141  
699.500000	34.256575  
700.000000	33.516792  
700.500000	32.814886  
701.000000	31.990968  
701.500000	31.156185  
702.000000	30.275569  
702.500000	29.521064  
703.000000	28.783135  
703.500000	28.101933  
704.000000	27.531361  
704.500000	26.955582  
705.000000	26.426777  
705.500000	25.839231  
706.000000	25.213706  
706.500000	24.475363  
707.000000	23.757196  
707.500000	23.155730  
708.000000	22.611163  
708.500000	22.132564  
709.000000	21.774046  
709.500000	21.421747  
710.000000	21.049617  
710.500000	20.692248  
711.000000	20.388066  
711.500000	20.073076  
712.000000	19.730955  
712.500000	19.320391  
713.000000	18.887434  
713.500000	18.417050  
714.000000	17.834883  
714.500000	17.272779  
715.000000	16.797282  
715.500000	16.390998  
716.000000	16.013133  
716.500000	15.646397  
717.000000	15.372280  
717.500000	15.136100  
718.000000	14.913063  
718.500000	14.731348  
719.000000	14.586792  
719.500000	14.410124  
720.000000	14.224009  
720.500000	13.988372  
721.000000	13.650382  
721.500000	13.256536  
722.000000	12.888256  
722.500000	12.556428  
723.000000	12.251224  
723.500000	12.025992  
724.000000	11.830358  
724.500000	11.646532  
725.000000	11.389825  
725.500000	11.161643  
726.000000	11.009526  
726.500000	10.824957  
727.000000	10.641142  
727.500000	10.447907  
728.000000	10.292641  
728.500000	9.957352   
729.000000	9.608630   
729.500000	9.357487   
730.000000	9.241474   
730.500000	9.255576   
731.000000	9.291233   
731.500000	9.394990   
732.000000	9.347320   
732.500000	9.177289   
733.000000	8.878853   
733.500000	8.567144   
734.000000	8.304948   
734.500000	8.173734   
735.000000	8.147458   
735.500000	8.137641   
736.000000	8.117860   
736.500000	8.089486   
737.000000	8.020116   
737.500000	7.891615   
738.000000	7.784738   
738.500000	7.680779   
739.000000	7.611693   
739.500000	7.483408   
740.000000	7.389823   
740.500000	7.315074   
741.000000	7.122367   
741.500000	6.969363   
742.000000	6.873448   
742.500000	6.853291   
743.000000	6.839749   
743.500000	6.811643   
744.000000	6.836098   
744.500000	6.754992   
745.000000	6.644940   
745.500000	6.517569   
746.000000	6.362588   
746.500000	6.269987   
747.000000	6.192504   
747.500000	6.193564   
748.000000	6.168426   
748.500000	6.129077   
749.000000	6.116729   
749.500000	6.036397   
750.000000	5.947252   
750.500000	5.851254   
751.000000	5.709484   
751.500000	5.619391   
752.000000	5.508423   
752.500000	5.422372   
753.000000	5.340664   
753.500000	5.236296   
754.000000	5.181131   
754.500000	5.101165   
755.000000	5.073243   
755.500000	5.023233   
756.000000	4.973270   
756.500000	4.945944   
757.000000	4.935914   
757.500000	4.925050   
758.000000	4.908654   
758.500000	4.908964   
759.000000	4.917615   
759.500000	4.915213   
760.000000	4.897957   
760.500000	4.918224   
761.000000	4.884706   
761.500000	4.837411   
762.000000	4.759009   
762.500000	4.693506   
763.000000	4.577834   
763.500000	4.417625   
764.000000	4.291139   
764.500000	4.181263   
765.000000	4.156671   
765.500000	4.210333   
766.000000	4.370829   
766.500000	4.511356   
767.000000	4.610302   
767.500000	4.570356   
768.000000	4.366988   
768.500000	4.091846   
769.000000	3.826666   
769.500000	3.674029   
770.000000	3.642265   
770.500000	3.751217   
771.000000	3.832089   
771.500000	3.829352   
772.000000	3.746803   
772.500000	3.659118   
773.000000	3.555076   
773.500000	3.518632   
774.000000	3.561215   
774.500000	3.639732   
775.000000	3.718894   
775.500000	3.738896   
776.000000	3.748647   
776.500000	3.676178   
777.000000	3.561877   
777.500000	3.451283   
778.000000	3.370317   
778.500000	3.301165   
779.000000	3.248155   
779.500000	3.268100   
780.000000	3.328256   
780.500000	3.368634   
781.000000	3.365341   
781.500000	3.349274   
782.000000	3.286792   
782.500000	3.206384   
783.000000	3.150443   
783.500000	3.122189   
784.000000	3.106623   
784.500000	3.076541   
785.000000	3.063961   
785.500000	3.031545   
786.000000	2.984009   
786.500000	2.940625   
787.000000	2.912558   
787.500000	2.940732   
788.000000	2.962487   
788.500000	3.034031   
789.000000	3.092810   
789.500000	3.098762   
790.000000	3.055710   
790.500000	2.969935   
791.000000	2.880760   
791.500000	2.780376   
792.000000	2.712397   
792.500000	2.659244   
793.000000	2.653378   
793.500000	2.656712   
794.000000	2.670196   
794.500000	2.702782   
795.000000	2.733586   
795.500000	2.751192   
796.000000	2.733495   
796.500000	2.684823   
797.000000	2.604512   
797.500000	2.492346   
798.000000	2.406291   
798.500000	2.361716   
799.000000	2.312428   
799.500000	2.294866   
800.000000	2.303554   
800.500000	2.306059   
801.000000	2.306808   
801.500000	2.336170   
802.000000	2.378107   
802.500000	2.401666   
803.000000	2.431636   
803.500000	2.478855   
804.000000	2.493636   
804.500000	2.500380   
805.000000	2.474163   
805.500000	2.435736   
806.000000	2.393044   
806.500000	2.302166   
807.000000	2.235808   
807.500000	2.172517   
808.000000	2.165367   
808.500000	2.169508   
809.000000	2.157614   
809.500000	2.147864   
810.000000	2.088673   
810.500000	2.005740   
811.000000	1.913426   
811.500000	1.877124   
812.000000	1.899788   
812.500000	1.992137   
813.000000	2.088244   
813.500000	2.172719   
814.000000	2.201890   
814.500000	2.154395   
815.000000	2.077812   
815.500000	1.970068   
816.000000	1.895896   
816.500000	1.780894   
817.000000	1.683710   
817.500000	1.640612   
818.000000	1.619829   
818.500000	1.660135   
819.000000	1.748040   
819.500000	1.887298   
820.000000	2.004046   
820.500000	2.128317   
821.000000	2.273215   
821.500000	2.352805   
822.000000	2.415257   
822.500000	2.492235   
823.000000	2.569298   
823.500000	2.612243   
824.000000	2.629139   
824.500000	2.675803   
825.000000	2.705359   
825.500000	2.693411   
826.000000	2.645554   
826.500000	2.557714   
827.000000	2.432293   
827.500000	2.304628   
828.000000	2.203256   
828.500000	2.102269   
829.000000	2.037625   
829.500000	1.938061   
830.000000	1.803541   
830.500000	1.655653   
831.000000	1.527228   
831.500000	1.406239   
832.000000	1.276556   
832.500000	1.243562   
833.000000	1.241241   
833.500000	1.241322   
834.000000	1.218063   
834.500000	1.205194   
835.000000	1.187923   
835.500000	1.124703   
836.000000	1.093439   
836.500000	1.058270   
837.000000	1.000176   
837.500000	0.938753   
838.000000	0.868647   
838.500000	0.794460   
839.000000	0.724441   
839.500000	0.700870   
840.000000	0.694723   
840.500000	0.704031   
841.000000	0.747426   
841.500000	0.790922   
842.000000	0.832551   
842.500000	0.851087   
843.000000	0.873729   
843.500000	0.863059   
844.000000	0.830606   
844.500000	0.794189   
845.000000	0.758688   
845.500000	0.750224   
846.000000	0.720166   
846.500000	0.707474   
847.000000	0.681410   
847.500000	0.643434   
848.000000	0.558840   
848.500000	0.462567   
849.000000	0.368269   
849.500000	0.267142   
850.000000	0.193920   
850.500000	0.157009   
851.000000	0.152014   
851.500000	0.128380   
852.000000	0.115205   
852.500000	0.101040   
853.000000	0.083447   
853.500000	0.089571   
854.000000	0.123341   
854.500000	0.197020   
855.000000	0.259901   
855.500000	0.312569   
856.000000	0.315727   
856.500000	0.265220   
857.000000	0.206287   
857.500000	0.112879   
858.000000	0.020346   
858.500000	-0.050087  
859.000000	-0.066597  
859.500000	-0.058113  
860.000000	-0.023319  
860.500000	0.077116   
861.000000	0.155102   
861.500000	0.177109   
862.000000	0.172153   
862.500000	0.161126   
863.000000	0.126495   
863.500000	0.075562   
864.000000	0.065562   
864.500000	0.083526   
865.000000	0.075339   
865.500000	0.045107   
866.000000	0.011248   
866.500000	-0.031966  
867.000000	-0.071675  
867.500000	-0.097424  
868.000000	-0.069831  
868.500000	-0.016680  
869.000000	0.031298   
869.500000	0.080695   
870.000000	0.106159   
870.500000	0.127983   
871.000000	0.070057   
871.500000	-0.002363  
872.000000	-0.058797  
872.500000	-0.131378  
873.000000	-0.179359  
873.500000	-0.205000  
874.000000	-0.173100  
874.500000	-0.152218  
875.000000	-0.134254  
875.500000	-0.101884  
876.000000	-0.075619  
876.500000	-0.051205  
877.000000	-0.046684  
877.500000	-0.030387  
878.000000	-0.030287  
878.500000	-0.042096  
879.000000	-0.036432  
879.500000	-0.015185  
880.000000	0.023484   
880.500000	0.048447   
881.000000	0.057747   
881.500000	0.047695   
882.000000	0.021641   
882.500000	-0.000551  
883.000000	-0.024402  
883.500000	-0.042384  
884.000000	-0.075207  
884.500000	-0.113601  
885.000000	-0.171935  
885.500000	-0.201302  
886.000000	-0.174992  
886.500000	-0.101051  
887.000000	-0.021159  
887.500000	0.040012   
888.000000	0.075601   
888.500000	0.031371   
889.000000	-0.035296  
889.500000	-0.089476  
890.000000	-0.081395  
890.500000	-0.062810  
891.000000	-0.056411  
891.500000	-0.045231  
892.000000	-0.077788  
892.500000	-0.157235  
893.000000	-0.222328  
893.500000	-0.200788  
894.000000	-0.127712  
894.500000	-0.036165  
895.000000	0.060044   
895.500000	0.123489   
896.000000	0.082627   
896.500000	-0.002593  

