PE FL                   SPECTRUM    ASCII       PEDS        1.60        
  -1
S01BBB~1.SP
24/04/11
17:10:21.00
24/04/11
17:10:21.00
Jan

896.500000
1









LS55
405.00
5.00
5.00
SCAN
1
20
100
100
0
400
0
1
0
1
5
ON
736 405 
1 0 0
#HDR
-1
-1
#GR
NM

0.00002384185791015625
0.0
450.000000
0.500000
894
8
322.124248
-0.598000
#DATA
450.000000	-0.598000  
450.500000	-0.309979  
451.000000	-0.116625  
451.500000	-0.001591  
452.000000	0.102135   
452.500000	0.104705   
453.000000	0.055447   
453.500000	0.013231   
454.000000	0.062552   
454.500000	0.091421   
455.000000	0.107855   
455.500000	0.138810   
456.000000	0.111296   
456.500000	0.031141   
457.000000	-0.068361  
457.500000	-0.083055  
458.000000	-0.068938  
458.500000	-0.008024  
459.000000	0.094339   
459.500000	0.174085   
460.000000	0.229983   
460.500000	0.247222   
461.000000	0.226471   
461.500000	0.172807   
462.000000	0.117816   
462.500000	0.068909   
463.000000	0.000391   
463.500000	-0.062920  
464.000000	-0.088526  
464.500000	-0.063727  
465.000000	0.005064   
465.500000	0.125450   
466.000000	0.259679   
466.500000	0.391677   
467.000000	0.460820   
467.500000	0.471933   
468.000000	0.460276   
468.500000	0.430645   
469.000000	0.393315   
469.500000	0.349020   
470.000000	0.349688   
470.500000	0.363059   
471.000000	0.352526   
471.500000	0.331148   
472.000000	0.324677   
472.500000	0.322128   
473.000000	0.258103   
473.500000	0.156369   
474.000000	0.052096   
474.500000	-0.020226  
475.000000	-0.082569  
475.500000	-0.119734  
476.000000	-0.112205  
476.500000	-0.116170  
477.000000	-0.088714  
477.500000	-0.097443  
478.000000	-0.083484  
478.500000	-0.027512  
479.000000	0.054864   
479.500000	0.139128   
480.000000	0.161784   
480.500000	0.229736   
481.000000	0.207337   
481.500000	0.137795   
482.000000	0.055814   
482.500000	0.016981   
483.000000	0.009836   
483.500000	-0.024291  
484.000000	0.033443   
484.500000	0.089463   
485.000000	0.124556   
485.500000	0.087729   
486.000000	-0.007892  
486.500000	-0.129851  
487.000000	-0.239576  
487.500000	-0.293387  
488.000000	-0.293910  
488.500000	-0.200001  
489.000000	-0.054218  
489.500000	0.098669   
490.000000	0.244382   
490.500000	0.344860   
491.000000	0.418844   
491.500000	0.464278   
492.000000	0.488079   
492.500000	0.488413   
493.000000	0.459948   
493.500000	0.426432   
494.000000	0.366677   
494.500000	0.307426   
495.000000	0.282426   
495.500000	0.250059   
496.000000	0.223315   
496.500000	0.173226   
497.000000	0.177669   
497.500000	0.194222   
498.000000	0.234285   
498.500000	0.349734   
499.000000	0.453897   
499.500000	0.548278   
500.000000	0.566567   
500.500000	0.552805   
501.000000	0.543539   
501.500000	0.542293   
502.000000	0.591666   
502.500000	0.659959   
503.000000	0.752040   
503.500000	0.791582   
504.000000	0.793389   
504.500000	0.765027   
505.000000	0.765391   
505.500000	0.795237   
506.000000	0.865825   
506.500000	0.974532   
507.000000	1.052591   
507.500000	1.105129   
508.000000	1.071148   
508.500000	1.041695   
509.000000	0.997181   
509.500000	0.976970   
510.000000	1.028293   
510.500000	1.086066   
511.000000	1.248931   
511.500000	1.390508   
512.000000	1.515998   
512.500000	1.590341   
513.000000	1.662692   
513.500000	1.745467   
514.000000	1.781068   
514.500000	1.888988   
515.000000	2.022552   
515.500000	2.135471   
516.000000	2.170953   
516.500000	2.182380   
517.000000	2.194662   
517.500000	2.151621   
518.000000	2.148122   
518.500000	2.231174   
519.000000	2.382358   
519.500000	2.522020   
520.000000	2.661452   
520.500000	2.846677   
521.000000	2.985551   
521.500000	3.071575   
522.000000	3.082940   
522.500000	3.059591   
523.000000	2.985977   
523.500000	2.840554   
524.000000	2.747807   
524.500000	2.700313   
525.000000	2.770638   
525.500000	2.957998   
526.000000	3.284541   
526.500000	3.701076   
527.000000	4.111313   
527.500000	4.465981   
528.000000	4.676320   
528.500000	4.734391   
529.000000	4.711807   
529.500000	4.655779   
530.000000	4.625191   
530.500000	4.746092   
531.000000	5.004808   
531.500000	5.337641   
532.000000	5.663879   
532.500000	6.021215   
533.000000	6.368352   
533.500000	6.627712   
534.000000	6.899556   
534.500000	7.180682   
535.000000	7.438944   
535.500000	7.639202   
536.000000	7.874892   
536.500000	8.181888   
537.000000	8.538931   
537.500000	8.986289   
538.000000	9.524345   
538.500000	10.135085  
539.000000	10.676810  
539.500000	11.130873  
540.000000	11.468131  
540.500000	11.771838  
541.000000	11.980929  
541.500000	12.104619  
542.000000	12.292890  
542.500000	12.414883  
543.000000	12.469346  
543.500000	12.403063  
544.000000	12.324662  
544.500000	12.166070  
545.000000	11.906161  
545.500000	11.656081  
546.000000	11.341410  
546.500000	11.087378  
547.000000	10.884200  
547.500000	10.776421  
548.000000	10.698018  
548.500000	10.615508  
549.000000	10.599168  
549.500000	10.544141  
550.000000	10.460083  
550.500000	10.418491  
551.000000	10.411654  
551.500000	10.388402  
552.000000	10.338159  
552.500000	10.303679  
553.000000	10.292575  
553.500000	10.271768  
554.000000	10.325896  
554.500000	10.441294  
555.000000	10.604027  
555.500000	10.749352  
556.000000	10.842734  
556.500000	10.996087  
557.000000	11.170031  
557.500000	11.421792  
558.000000	11.720571  
558.500000	12.084614  
559.000000	12.494367  
559.500000	12.839560  
560.000000	13.162135  
560.500000	13.521936  
561.000000	13.921018  
561.500000	14.309703  
562.000000	14.813602  
562.500000	15.407259  
563.000000	16.015241  
563.500000	16.673979  
564.000000	17.336384  
564.500000	17.996899  
565.000000	18.509985  
565.500000	18.976589  
566.000000	19.351879  
566.500000	19.769359  
567.000000	20.276419  
567.500000	20.815074  
568.000000	21.459439  
568.500000	22.152450  
569.000000	22.798105  
569.500000	23.292677  
570.000000	23.860886  
570.500000	24.510931  
571.000000	25.212432  
571.500000	25.990259  
572.000000	26.797992  
572.500000	27.525011  
573.000000	27.982634  
573.500000	28.414964  
574.000000	28.790634  
574.500000	29.183692  
575.000000	29.718564  
575.500000	30.456187  
576.000000	31.286435  
576.500000	32.178358  
577.000000	33.128022  
577.500000	33.956300  
578.000000	34.578128  
578.500000	35.080493  
579.000000	35.641962  
579.500000	36.251576  
580.000000	36.958777  
580.500000	37.747155  
581.000000	38.698506  
581.500000	39.761610  
582.000000	40.820150  
582.500000	41.812371  
583.000000	42.808755  
583.500000	43.875777  
584.000000	44.980560  
584.500000	46.126178  
585.000000	47.479461  
585.500000	48.991487  
586.000000	50.411267  
586.500000	51.945487  
587.000000	53.448961  
587.500000	54.843641  
588.000000	55.929719  
588.500000	56.946473  
589.000000	57.902378  
589.500000	58.781044  
590.000000	59.991825  
590.500000	61.511090  
591.000000	63.217538  
591.500000	65.024276  
592.000000	66.903666  
592.500000	68.556517  
593.000000	69.832107  
593.500000	71.034231  
594.000000	72.404970  
594.500000	73.905346  
595.000000	75.669662  
595.500000	77.591423  
596.000000	79.769610  
596.500000	81.857107  
597.000000	83.768920  
597.500000	85.604981  
598.000000	87.262679  
598.500000	88.950380  
599.000000	90.581519  
599.500000	92.578651  
600.000000	94.777779  
600.500000	97.012300  
601.000000	99.193604  
601.500000	101.463684 
602.000000	103.769736 
602.500000	106.041035 
603.000000	108.624892 
603.500000	111.480569 
604.000000	114.286341 
604.500000	116.938113 
605.000000	119.474838 
605.500000	121.809267 
606.000000	123.875723 
606.500000	125.939643 
607.000000	128.416547 
607.500000	131.262417 
608.000000	134.389076 
608.500000	138.066461 
609.000000	142.101673 
609.500000	145.995226 
610.000000	149.410461 
610.500000	152.292461 
611.000000	154.686237 
611.500000	156.897879 
612.000000	159.388816 
612.500000	162.168335 
613.000000	165.455580 
613.500000	169.010853 
614.000000	172.727838 
614.500000	176.343679 
615.000000	179.767261 
615.500000	183.527632 
616.000000	187.146059 
616.500000	190.756931 
617.000000	193.824461 
617.500000	196.390881 
618.000000	198.604894 
618.500000	200.791680 
619.000000	203.713330 
619.500000	207.183575 
620.000000	211.559179 
620.500000	216.040769 
621.000000	220.312899 
621.500000	224.111647 
622.000000	227.385799 
622.500000	230.495582 
623.000000	233.642272 
623.500000	237.478256 
624.000000	241.456821 
624.500000	245.404027 
625.000000	249.236512 
625.500000	252.951252 
626.000000	256.663194 
626.500000	260.446743 
627.000000	264.594352 
627.500000	268.709107 
628.000000	272.524586 
628.500000	276.165372 
629.000000	279.235126 
629.500000	281.838445 
630.000000	284.211526 
630.500000	286.527337 
631.000000	288.900254 
631.500000	291.038764 
632.000000	293.403124 
632.500000	295.897949 
633.000000	298.449987 
633.500000	301.244230 
634.000000	303.973606 
634.500000	306.611528 
635.000000	308.463350 
635.500000	309.982513 
636.000000	311.614376 
636.500000	313.363948 
637.000000	314.916066 
637.500000	316.448697 
638.000000	318.213024 
638.500000	319.263131 
639.000000	319.927064 
639.500000	320.465424 
640.000000	321.195270 
640.500000	321.627369 
641.000000	321.875141 
641.500000	322.124248 
642.000000	321.782217 
642.500000	321.862782 
643.000000	321.802094 
643.500000	321.939760 
644.000000	321.969938 
644.500000	321.732402 
645.000000	320.856519 
645.500000	318.744094 
646.000000	316.891977 
646.500000	315.323502 
647.000000	314.216133 
647.500000	313.646842 
648.000000	313.403046 
648.500000	313.312005 
649.000000	312.328423 
649.500000	310.691124 
650.000000	308.541534 
650.500000	306.148628 
651.000000	303.804395 
651.500000	301.164730 
652.000000	298.632087 
652.500000	296.051792 
653.000000	293.203215 
653.500000	290.195975 
654.000000	287.269554 
654.500000	284.279066 
655.000000	281.338747 
655.500000	278.379567 
656.000000	275.227192 
656.500000	271.865070 
657.000000	268.338176 
657.500000	264.933426 
658.000000	261.145207 
658.500000	257.454693 
659.000000	253.952588 
659.500000	250.292042 
660.000000	246.461432 
660.500000	242.444775 
661.000000	238.329747 
661.500000	233.751194 
662.000000	228.960890 
662.500000	224.135582 
663.000000	219.362721 
663.500000	214.956602 
664.000000	210.676964 
664.500000	206.356209 
665.000000	201.968358 
665.500000	197.717565 
666.000000	193.464866 
666.500000	189.133977 
667.000000	185.294256 
667.500000	181.430044 
668.000000	177.321343 
668.500000	172.984636 
669.000000	168.529170 
669.500000	163.932625 
670.000000	159.263150 
670.500000	154.993061 
671.000000	150.996434 
671.500000	147.089176 
672.000000	143.427439 
672.500000	139.843139 
673.000000	136.172083 
673.500000	132.386137 
674.000000	128.534619 
674.500000	124.602259 
675.000000	120.699005 
675.500000	116.934432 
676.000000	113.522222 
676.500000	110.213504 
677.000000	107.153053 
677.500000	104.090538 
678.000000	100.827541 
678.500000	97.840504  
679.000000	94.923575  
679.500000	92.338274  
680.000000	89.878131  
680.500000	87.600513  
681.000000	85.602636  
681.500000	83.382866  
682.000000	81.294150  
682.500000	79.151417  
683.000000	77.148699  
683.500000	74.972907  
684.000000	72.802912  
684.500000	70.640469  
685.000000	68.483454  
685.500000	66.315818  
686.000000	64.067124  
686.500000	62.082085  
687.000000	60.171896  
687.500000	58.323912  
688.000000	56.498200  
688.500000	54.750894  
689.000000	53.023276  
689.500000	51.258955  
690.000000	49.790933  
690.500000	48.444447  
691.000000	47.363675  
691.500000	46.469779  
692.000000	45.665217  
692.500000	44.757870  
693.000000	43.712656  
693.500000	42.682666  
694.000000	41.449474  
694.500000	40.122988  
695.000000	38.937743  
695.500000	37.721050  
696.000000	36.483857  
696.500000	35.333775  
697.000000	34.465979  
697.500000	33.667085  
698.000000	32.866693  
698.500000	32.300116  
699.000000	31.590992  
699.500000	30.696925  
700.000000	29.640803  
700.500000	28.533230  
701.000000	27.527150  
701.500000	26.629406  
702.000000	26.173608  
702.500000	25.854925  
703.000000	25.526497  
703.500000	25.032875  
704.000000	24.286864  
704.500000	23.509163  
705.000000	22.699649  
705.500000	22.108218  
706.000000	21.726525  
706.500000	21.494972  
707.000000	21.250586  
707.500000	20.880241  
708.000000	20.408961  
708.500000	19.903050  
709.000000	19.352094  
709.500000	18.852606  
710.000000	18.461846  
710.500000	17.992513  
711.000000	17.513552  
711.500000	17.034619  
712.000000	16.687324  
712.500000	16.321703  
713.000000	16.058662  
713.500000	15.894131  
714.000000	15.681992  
714.500000	15.481300  
715.000000	15.251599  
715.500000	15.035346  
716.000000	14.736155  
716.500000	14.334424  
717.000000	14.007523  
717.500000	13.671938  
718.000000	13.367660  
718.500000	13.088508  
719.000000	12.858966  
719.500000	12.606025  
720.000000	12.206166  
720.500000	11.830393  
721.000000	11.502836  
721.500000	11.295196  
722.000000	11.211896  
722.500000	11.214443  
723.000000	11.239740  
723.500000	11.117834  
724.000000	10.926666  
724.500000	10.633079  
725.000000	10.396363  
725.500000	10.233289  
726.000000	10.181276  
726.500000	10.094205  
727.000000	9.961233   
727.500000	9.817582   
728.000000	9.613239   
728.500000	9.458823   
729.000000	9.333497   
729.500000	9.262504   
730.000000	9.088736   
730.500000	8.789309   
731.000000	8.463161   
731.500000	8.070992   
732.000000	7.781712   
732.500000	7.583805   
733.000000	7.586586   
733.500000	7.705153   
734.000000	7.875981   
734.500000	7.978345   
735.000000	7.974424   
735.500000	7.892847   
736.000000	7.674077   
736.500000	7.432554   
737.000000	7.201877   
737.500000	7.101790   
738.000000	7.080116   
738.500000	7.122283   
739.000000	7.243519   
739.500000	7.267756   
740.000000	7.214794   
740.500000	7.071988   
741.000000	6.911387   
741.500000	6.664294   
742.000000	6.361918   
742.500000	6.143014   
743.000000	5.974988   
743.500000	5.888207   
744.000000	5.923406   
744.500000	6.015951   
745.000000	6.110829   
745.500000	6.147582   
746.000000	6.088103   
746.500000	5.945476   
747.000000	5.747051   
747.500000	5.619161   
748.000000	5.532426   
748.500000	5.485645   
749.000000	5.517430   
749.500000	5.538070   
750.000000	5.545395   
750.500000	5.497278   
751.000000	5.504107   
751.500000	5.462231   
752.000000	5.369174   
752.500000	5.251905   
753.000000	5.158012   
753.500000	5.027779   
754.000000	4.838717   
754.500000	4.723602   
755.000000	4.641083   
755.500000	4.632089   
756.000000	4.620025   
756.500000	4.669434   
757.000000	4.692972   
757.500000	4.621627   
758.000000	4.540315   
758.500000	4.403374   
759.000000	4.352233   
759.500000	4.288870   
760.000000	4.319146   
760.500000	4.329725   
761.000000	4.358623   
761.500000	4.403569   
762.000000	4.415014   
762.500000	4.446899   
763.000000	4.496510   
763.500000	4.618083   
764.000000	4.651048   
764.500000	4.598705   
765.000000	4.417682   
765.500000	4.184545   
766.000000	3.929159   
766.500000	3.700142   
767.000000	3.655276   
767.500000	3.710897   
768.000000	3.859782   
768.500000	3.894372   
769.000000	3.941883   
769.500000	3.942923   
770.000000	3.864556   
770.500000	3.784332   
771.000000	3.738517   
771.500000	3.799569   
772.000000	3.746820   
772.500000	3.681959   
773.000000	3.611944   
773.500000	3.532935   
774.000000	3.417224   
774.500000	3.308252   
775.000000	3.280009   
775.500000	3.240955   
776.000000	3.232298   
776.500000	3.250228   
777.000000	3.290751   
777.500000	3.282818   
778.000000	3.275847   
778.500000	3.272933   
779.000000	3.236387   
779.500000	3.233400   
780.000000	3.298740   
780.500000	3.387918   
781.000000	3.400504   
781.500000	3.383356   
782.000000	3.363326   
782.500000	3.300166   
783.000000	3.204135   
783.500000	3.145803   
784.000000	3.130864   
784.500000	3.097259   
785.000000	3.052933   
785.500000	3.032445   
786.000000	3.027719   
786.500000	3.033259   
787.000000	3.047411   
787.500000	3.090808   
788.000000	3.120927   
788.500000	3.115899   
789.000000	3.049612   
789.500000	2.956072   
790.000000	2.866309   
790.500000	2.767358   
791.000000	2.708569   
791.500000	2.698870   
792.000000	2.770467   
792.500000	2.860432   
793.000000	2.965764   
793.500000	3.023393   
794.000000	2.992463   
794.500000	2.861107   
795.000000	2.658118   
795.500000	2.488641   
796.000000	2.349972   
796.500000	2.298309   
797.000000	2.322089   
797.500000	2.407435   
798.000000	2.484486   
798.500000	2.497764   
799.000000	2.492996   
799.500000	2.423198   
800.000000	2.342081   
800.500000	2.235705   
801.000000	2.130866   
801.500000	2.068612   
802.000000	2.016146   
802.500000	1.998712   
803.000000	2.020038   
803.500000	2.094567   
804.000000	2.179465   
804.500000	2.218589   
805.000000	2.219552   
805.500000	2.189820   
806.000000	2.124289   
806.500000	2.047602   
807.000000	2.031168   
807.500000	2.041215   
808.000000	2.034647   
808.500000	1.993810   
809.000000	1.963766   
809.500000	1.936768   
810.000000	1.899374   
810.500000	1.913699   
811.000000	1.964701   
811.500000	2.031536   
812.000000	2.030857   
812.500000	1.993311   
813.000000	1.995775   
813.500000	1.981233   
814.000000	1.960625   
814.500000	1.989306   
815.000000	2.029634   
815.500000	2.043044   
816.000000	1.986588   
816.500000	1.956855   
817.000000	1.938213   
817.500000	1.885636   
818.000000	1.872729   
818.500000	1.882560   
819.000000	1.958313   
819.500000	2.035762   
820.000000	2.120536   
820.500000	2.231521   
821.000000	2.337415   
821.500000	2.454769   
822.000000	2.542187   
822.500000	2.656953   
823.000000	2.714692   
823.500000	2.700270   
824.000000	2.652565   
824.500000	2.572985   
825.000000	2.510276   
825.500000	2.490686   
826.000000	2.552474   
826.500000	2.593089   
827.000000	2.580738   
827.500000	2.501545   
828.000000	2.323359   
828.500000	2.114564   
829.000000	1.916218   
829.500000	1.766528   
830.000000	1.643443   
830.500000	1.557350   
831.000000	1.500465   
831.500000	1.397072   
832.000000	1.298836   
832.500000	1.242530   
833.000000	1.166410   
833.500000	1.099237   
834.000000	1.052888   
834.500000	1.027888   
835.000000	0.991018   
835.500000	0.967200   
836.000000	0.998799   
836.500000	1.010788   
837.000000	1.011246   
837.500000	0.979994   
838.000000	0.945606   
838.500000	0.900122   
839.000000	0.853291   
839.500000	0.841218   
840.000000	0.829411   
840.500000	0.821897   
841.000000	0.802304   
841.500000	0.769020   
842.000000	0.710998   
842.500000	0.669998   
843.000000	0.631335   
843.500000	0.613137   
844.000000	0.624356   
844.500000	0.628350   
845.000000	0.601346   
845.500000	0.517304   
846.000000	0.425936   
846.500000	0.314484   
847.000000	0.228593   
847.500000	0.213467   
848.000000	0.243293   
848.500000	0.310571   
849.000000	0.368669   
849.500000	0.401777   
850.000000	0.383912   
850.500000	0.291782   
851.000000	0.199228   
851.500000	0.115595   
852.000000	0.089521   
852.500000	0.114599   
853.000000	0.148508   
853.500000	0.194131   
854.000000	0.189343   
854.500000	0.135172   
855.000000	0.023526   
855.500000	-0.072241  
856.000000	-0.131207  
856.500000	-0.154697  
857.000000	-0.139302  
857.500000	-0.102404  
858.000000	-0.076202  
858.500000	-0.076653  
859.000000	-0.089916  
859.500000	-0.082671  
860.000000	-0.049165  
860.500000	-0.027085  
861.000000	0.004692   
861.500000	0.043081   
862.000000	0.063183   
862.500000	0.046198   
863.000000	0.015925   
863.500000	-0.013532  
864.000000	-0.040753  
864.500000	-0.053747  
865.000000	-0.028517  
865.500000	0.024231   
866.000000	0.056141   
866.500000	0.078415   
867.000000	0.065847   
867.500000	0.033393   
868.000000	-0.011230  
868.500000	-0.027560  
869.000000	-0.019499  
869.500000	-0.016890  
870.000000	-0.019623  
870.500000	-0.044779  
871.000000	-0.089532  
871.500000	-0.137089  
872.000000	-0.156367  
872.500000	-0.152033  
873.000000	-0.150723  
873.500000	-0.161871  
874.000000	-0.185903  
874.500000	-0.223324  
875.000000	-0.251784  
875.500000	-0.238083  
876.000000	-0.201113  
876.500000	-0.138406  
877.000000	-0.075267  
877.500000	-0.026089  
878.000000	-0.008228  
878.500000	0.006487   
879.000000	0.012087   
879.500000	-0.006827  
880.000000	-0.038116  
880.500000	-0.072831  
881.000000	-0.119717  
881.500000	-0.165569  
882.000000	-0.169868  
882.500000	-0.181100  
883.000000	-0.192456  
883.500000	-0.181467  
884.000000	-0.131105  
884.500000	-0.077827  
885.000000	-0.017621  
885.500000	0.061912   
886.000000	0.111907   
886.500000	0.104235   
887.000000	0.083862   
887.500000	0.070239   
888.000000	0.058482   
888.500000	0.072645   
889.000000	0.100536   
889.500000	0.134897   
890.000000	0.123040   
890.500000	0.114009   
891.000000	0.077623   
891.500000	0.030897   
892.000000	-0.016404  
892.500000	-0.068448  
893.000000	-0.112239  
893.500000	-0.151692  
894.000000	-0.150257  
894.500000	-0.148371  
895.000000	-0.137569  
895.500000	-0.129443  
896.000000	-0.097063  
896.500000	-0.088213  

