PE FL                   SPECTRUM    ASCII       PEDS        1.60        
  -1
S0038F~1.SP
24/04/11
16:46:06.00
24/04/11
16:46:06.00
Jan

896.500000
1









LS55
405.00
5.00
5.00
SCAN
1
20
100
100
0
400
0
1
0
1
5
ON
736 405 
1 0 0
#HDR
-1
-1
#GR
NM

0.00002384185791015625
0.0
450.000000
0.500000
894
8
330.520018
-0.704000
#DATA
450.000000	-0.704000  
450.500000	-0.202508  
451.000000	0.148148   
451.500000	0.341244   
452.000000	0.325812   
452.500000	0.209161   
453.000000	0.054226   
453.500000	-0.033823  
454.000000	-0.070218  
454.500000	-0.103239  
455.000000	-0.090584  
455.500000	-0.110636  
456.000000	-0.151808  
456.500000	-0.200135  
457.000000	-0.177551  
457.500000	-0.113341  
458.000000	-0.032387  
458.500000	0.059467   
459.000000	0.142092   
459.500000	0.210567   
460.000000	0.206504   
460.500000	0.189519   
461.000000	0.200922   
461.500000	0.221593   
462.000000	0.210957   
462.500000	0.200545   
463.000000	0.191267   
463.500000	0.120747   
464.000000	0.024434   
464.500000	-0.033627  
465.000000	-0.017246  
465.500000	0.013736   
466.000000	0.063831   
466.500000	0.134176   
467.000000	0.216204   
467.500000	0.261269   
468.000000	0.276287   
468.500000	0.254189   
469.000000	0.232415   
469.500000	0.212319   
470.000000	0.182844   
470.500000	0.204358   
471.000000	0.259504   
471.500000	0.316458   
472.000000	0.329987   
472.500000	0.358688   
473.000000	0.306055   
473.500000	0.193738   
474.000000	0.123469   
474.500000	0.098853   
475.000000	0.127920   
475.500000	0.156905   
476.000000	0.244486   
476.500000	0.277990   
477.000000	0.293916   
477.500000	0.313191   
478.000000	0.314877   
478.500000	0.297730   
479.000000	0.240020   
479.500000	0.181185   
480.000000	0.053012   
480.500000	-0.046434  
481.000000	-0.078410  
481.500000	-0.047578  
482.000000	0.037426   
482.500000	0.159820   
483.000000	0.246656   
483.500000	0.224341   
484.000000	0.151994   
484.500000	0.076575   
485.000000	0.011100   
485.500000	-0.035348  
486.000000	-0.010283  
486.500000	0.083988   
487.000000	0.138400   
487.500000	0.146679   
488.000000	0.127686   
488.500000	0.091504   
489.000000	0.026033   
489.500000	-0.015820  
490.000000	0.015493   
490.500000	0.058623   
491.000000	0.119204   
491.500000	0.173061   
492.000000	0.205417   
492.500000	0.204098   
493.000000	0.198126   
493.500000	0.206233   
494.000000	0.209712   
494.500000	0.237410   
495.000000	0.232341   
495.500000	0.195131   
496.000000	0.138515   
496.500000	0.119894   
497.000000	0.143797   
497.500000	0.178862   
498.000000	0.267844   
498.500000	0.364912   
499.000000	0.460415   
499.500000	0.513591   
500.000000	0.567649   
500.500000	0.621647   
501.000000	0.649705   
501.500000	0.669111   
502.000000	0.679269   
502.500000	0.720461   
503.000000	0.735005   
503.500000	0.761647   
504.000000	0.810105   
504.500000	0.872061   
505.000000	0.905979   
505.500000	0.890235   
506.000000	0.894775   
506.500000	0.889552   
507.000000	0.917395   
507.500000	0.984423   
508.000000	1.100270   
508.500000	1.198077   
509.000000	1.199988   
509.500000	1.152710   
510.000000	1.099448   
510.500000	1.078369   
511.000000	1.072538   
511.500000	1.153332   
512.000000	1.310335   
512.500000	1.436873   
513.000000	1.572402   
513.500000	1.710597   
514.000000	1.864098   
514.500000	1.942903   
515.000000	2.021974   
515.500000	2.122597   
516.000000	2.126543   
516.500000	2.097096   
517.000000	2.105608   
517.500000	2.218923   
518.000000	2.360664   
518.500000	2.518742   
519.000000	2.733510   
519.500000	2.858538   
520.000000	2.855875   
520.500000	2.784330   
521.000000	2.672018   
521.500000	2.560684   
522.000000	2.467782   
522.500000	2.474697   
523.000000	2.587500   
523.500000	2.735341   
524.000000	2.899916   
524.500000	3.003743   
525.000000	3.121196   
525.500000	3.270560   
526.000000	3.447866   
526.500000	3.702846   
527.000000	3.975716   
527.500000	4.278244   
528.000000	4.495315   
528.500000	4.626955   
529.000000	4.687623   
529.500000	4.708320   
530.000000	4.783953   
530.500000	4.892324   
531.000000	5.057595   
531.500000	5.260500   
532.000000	5.489014   
532.500000	5.770176   
533.000000	6.015985   
533.500000	6.288525   
534.000000	6.543040   
534.500000	6.787899   
535.000000	7.053625   
535.500000	7.301805   
536.000000	7.615990   
536.500000	7.891792   
537.000000	8.244376   
537.500000	8.599795   
538.000000	9.016990   
538.500000	9.496159   
539.000000	9.968641   
539.500000	10.469211  
540.000000	10.849790  
540.500000	11.276066  
541.000000	11.612131  
541.500000	11.894846  
542.000000	12.062764  
542.500000	12.197621  
543.000000	12.227972  
543.500000	12.002076  
544.000000	11.727369  
544.500000	11.481118  
545.000000	11.279901  
545.500000	11.081833  
546.000000	10.976608  
546.500000	10.921265  
547.000000	10.749985  
547.500000	10.462803  
548.000000	10.239773  
548.500000	10.107645  
549.000000	9.997747   
549.500000	9.947137   
550.000000	9.976840   
550.500000	9.977755   
551.000000	9.872413   
551.500000	9.737189   
552.000000	9.680001   
552.500000	9.677085   
553.000000	9.716024   
553.500000	9.840155   
554.000000	9.988925   
554.500000	10.169345  
555.000000	10.259749  
555.500000	10.422615  
556.000000	10.636810  
556.500000	10.851346  
557.000000	11.067927  
557.500000	11.257326  
558.000000	11.481580  
558.500000	11.684389  
559.000000	11.995905  
559.500000	12.351038  
560.000000	12.697743  
560.500000	12.931959  
561.000000	13.183000  
561.500000	13.447795  
562.000000	13.686044  
562.500000	14.068439  
563.000000	14.605452  
563.500000	15.298493  
564.000000	15.926777  
564.500000	16.624846  
565.000000	17.322031  
565.500000	17.894235  
566.000000	18.366124  
566.500000	18.738411  
567.000000	19.226153  
567.500000	19.652259  
568.000000	20.195187  
568.500000	20.845081  
569.000000	21.603298  
569.500000	22.422998  
570.000000	23.174448  
570.500000	23.993313  
571.000000	24.710482  
571.500000	25.461096  
572.000000	26.054799  
572.500000	26.703836  
573.000000	27.346423  
573.500000	27.893211  
574.000000	28.424688  
574.500000	28.884228  
575.000000	29.439582  
575.500000	29.856771  
576.000000	30.480161  
576.500000	31.157001  
577.000000	32.003671  
577.500000	32.904224  
578.000000	33.806413  
578.500000	34.690402  
579.000000	35.441089  
579.500000	36.268257  
580.000000	36.987931  
580.500000	37.807996  
581.000000	38.610881  
581.500000	39.380636  
582.000000	40.041936  
582.500000	40.648445  
583.000000	41.342736  
583.500000	42.161905  
584.000000	43.184504  
584.500000	44.376584  
585.000000	45.711024  
585.500000	46.955191  
586.000000	48.021046  
586.500000	48.994012  
587.000000	49.952170  
587.500000	50.855406  
588.000000	51.753851  
588.500000	52.818202  
589.000000	54.053595  
589.500000	55.202009  
590.000000	56.517168  
590.500000	58.160198  
591.000000	59.976588  
591.500000	61.753940  
592.000000	63.521003  
592.500000	65.282851  
593.000000	66.881358  
593.500000	68.361992  
594.000000	70.005081  
594.500000	71.722664  
595.000000	73.330693  
595.500000	74.684949  
596.000000	76.029176  
596.500000	77.469717  
597.000000	78.785261  
597.500000	80.286975  
598.000000	82.099165  
598.500000	84.218855  
599.000000	86.281276  
599.500000	88.559673  
600.000000	91.176185  
600.500000	93.803356  
601.000000	96.413517  
601.500000	98.746680  
602.000000	100.878053 
602.500000	102.440040 
603.000000	104.083153 
603.500000	105.894512 
604.000000	108.142823 
604.500000	110.735703 
605.000000	113.578692 
605.500000	116.529435 
606.000000	118.984372 
606.500000	121.341426 
607.000000	123.487261 
607.500000	125.721218 
608.000000	128.241198 
608.500000	131.049241 
609.000000	134.244423 
609.500000	137.305103 
610.000000	140.341864 
610.500000	143.265159 
611.000000	145.979641 
611.500000	148.472528 
612.000000	150.877792 
612.500000	153.653857 
613.000000	156.670846 
613.500000	159.807712 
614.000000	163.255011 
614.500000	166.789083 
615.000000	170.339948 
615.500000	173.653499 
616.000000	176.848512 
616.500000	179.992554 
617.000000	183.272469 
617.500000	186.485131 
618.000000	189.733319 
618.500000	193.051244 
619.000000	196.426263 
619.500000	199.769179 
620.000000	203.315333 
620.500000	207.492795 
621.000000	211.860346 
621.500000	216.214204 
622.000000	220.338627 
622.500000	224.411942 
623.000000	228.311946 
623.500000	231.920541 
624.000000	235.489263 
624.500000	239.184144 
625.000000	242.724371 
625.500000	245.883601 
626.000000	248.963970 
626.500000	251.860530 
627.000000	255.192231 
627.500000	258.593834 
628.000000	262.251042 
628.500000	265.999968 
629.000000	269.532109 
629.500000	272.982243 
630.000000	276.174588 
630.500000	279.405693 
631.000000	282.330983 
631.500000	285.281632 
632.000000	287.855330 
632.500000	290.243025 
633.000000	292.447473 
633.500000	294.653936 
634.000000	297.229679 
634.500000	299.853467 
635.000000	303.049471 
635.500000	306.450890 
636.000000	310.067666 
636.500000	313.375638 
637.000000	316.131677 
637.500000	318.382460 
638.000000	319.802174 
638.500000	320.681727 
639.000000	321.253775 
639.500000	322.208918 
640.000000	323.728007 
640.500000	325.503762 
641.000000	327.713107 
641.500000	329.613051 
642.000000	330.520018 
642.500000	330.435556 
643.000000	329.828823 
643.500000	329.109343 
644.000000	328.529367 
644.500000	328.782610 
645.000000	329.361799 
645.500000	329.771662 
646.000000	329.372857 
646.500000	328.498198 
647.000000	327.200089 
647.500000	325.565662 
648.000000	324.461081 
648.500000	323.396384 
649.000000	322.625126 
649.500000	321.534669 
650.000000	319.905745 
650.500000	318.026343 
651.000000	315.979287 
651.500000	313.780304 
652.000000	311.010367 
652.500000	308.278205 
653.000000	306.225608 
653.500000	304.373168 
654.000000	302.513792 
654.500000	301.055705 
655.000000	299.719584 
655.500000	297.532155 
656.000000	294.183788 
656.500000	290.924903 
657.000000	287.404864 
657.500000	283.458235 
658.000000	279.976291 
658.500000	277.054853 
659.000000	274.265523 
659.500000	270.852194 
660.000000	267.446714 
660.500000	263.578719 
661.000000	259.008727 
661.500000	254.321228 
662.000000	249.762795 
662.500000	245.708599 
663.000000	241.795265 
663.500000	238.253777 
664.000000	234.455159 
664.500000	230.172864 
665.000000	225.580686 
665.500000	220.732964 
666.000000	216.064265 
666.500000	211.410762 
667.000000	207.057215 
667.500000	202.783788 
668.000000	198.376497 
668.500000	193.908306 
669.000000	189.620189 
669.500000	185.545916 
670.000000	181.336428 
670.500000	177.249211 
671.000000	173.026790 
671.500000	168.376515 
672.000000	163.515766 
672.500000	158.974812 
673.000000	154.642682 
673.500000	150.426751 
674.000000	146.710936 
674.500000	143.348482 
675.000000	139.771146 
675.500000	135.876584 
676.000000	132.118768 
676.500000	128.432667 
677.000000	124.630525 
677.500000	121.266003 
678.000000	118.361252 
678.500000	115.428628 
679.000000	112.363923 
679.500000	109.409723 
680.000000	106.491278 
680.500000	103.303658 
681.000000	100.022658 
681.500000	96.978235  
682.000000	93.953680  
682.500000	90.895756  
683.000000	88.037343  
683.500000	85.521873  
684.000000	83.248942  
684.500000	81.180087  
685.000000	79.216597  
685.500000	77.276133  
686.000000	75.162124  
686.500000	72.879050  
687.000000	70.462187  
687.500000	68.185064  
688.000000	66.080651  
688.500000	64.083185  
689.000000	62.287597  
689.500000	60.577571  
690.000000	58.737645  
690.500000	56.783736  
691.000000	54.854762  
691.500000	53.158955  
692.000000	51.623159  
692.500000	50.249296  
693.000000	49.104350  
693.500000	47.938907  
694.000000	46.645389  
694.500000	45.320439  
695.000000	44.133070  
695.500000	43.096500  
696.000000	42.144461  
696.500000	41.143894  
697.000000	40.083729  
697.500000	38.854560  
698.000000	37.489205  
698.500000	36.182094  
699.000000	35.098771  
699.500000	34.368068  
700.000000	33.669484  
700.500000	33.131539  
701.000000	32.605044  
701.500000	31.887254  
702.000000	30.900410  
702.500000	29.786116  
703.000000	28.923322  
703.500000	28.135660  
704.000000	27.543740  
704.500000	27.058404  
705.000000	26.637408  
705.500000	26.105211  
706.000000	25.380309  
706.500000	24.650100  
707.000000	23.965686  
707.500000	23.373840  
708.000000	22.881410  
708.500000	22.435363  
709.000000	22.064317  
709.500000	21.614907  
710.000000	21.126467  
710.500000	20.650879  
711.000000	20.305287  
711.500000	19.966174  
712.000000	19.551187  
712.500000	19.100775  
713.000000	18.574165  
713.500000	17.999126  
714.000000	17.368623  
714.500000	16.828918  
715.000000	16.455025  
715.500000	16.210491  
716.000000	16.041135  
716.500000	15.866166  
717.000000	15.685927  
717.500000	15.389630  
718.000000	14.976120  
718.500000	14.528326  
719.000000	14.095688  
719.500000	13.638597  
720.000000	13.166823  
720.500000	12.832810  
721.000000	12.582584  
721.500000	12.370135  
722.000000	12.290001  
722.500000	12.282608  
723.000000	12.199671  
723.500000	12.067387  
724.000000	11.957714  
724.500000	11.744710  
725.000000	11.468825  
725.500000	11.339072  
726.000000	11.315428  
726.500000	11.193820  
727.000000	11.017218  
727.500000	10.821048  
728.000000	10.499428  
728.500000	10.090020  
729.000000	9.803710   
729.500000	9.742949   
730.000000	9.744113   
730.500000	9.842703   
731.000000	9.928244   
731.500000	9.906417   
732.000000	9.705602   
732.500000	9.430725   
733.000000	9.086968   
733.500000	8.729087   
734.000000	8.488703   
734.500000	8.325025   
735.000000	8.225948   
735.500000	8.160864   
736.000000	8.165619   
736.500000	8.102476   
737.000000	7.886929   
737.500000	7.635964   
738.000000	7.357532   
738.500000	7.153113   
739.000000	7.003298   
739.500000	6.968294   
740.000000	7.022927   
740.500000	7.043233   
741.000000	7.071452   
741.500000	7.034636   
742.000000	7.030584   
742.500000	6.988476   
743.000000	6.866244   
743.500000	6.772669   
744.000000	6.661070   
744.500000	6.617886   
745.000000	6.581801   
745.500000	6.634677   
746.000000	6.689280   
746.500000	6.707458   
747.000000	6.641651   
747.500000	6.458961   
748.000000	6.204077   
748.500000	5.979499   
749.000000	5.842395   
749.500000	5.767515   
750.000000	5.806944   
750.500000	5.922825   
751.000000	5.975128   
751.500000	5.929382   
752.000000	5.862038   
752.500000	5.767022   
753.000000	5.581877   
753.500000	5.413838   
754.000000	5.307250   
754.500000	5.204228   
755.000000	5.085335   
755.500000	4.998795   
756.000000	4.930575   
756.500000	4.870955   
757.000000	4.801445   
757.500000	4.747250   
758.000000	4.664089   
758.500000	4.599751   
759.000000	4.556448   
759.500000	4.507083   
760.000000	4.518549   
760.500000	4.562909   
761.000000	4.629146   
761.500000	4.687578   
762.000000	4.723526   
762.500000	4.794983   
763.000000	4.819116   
763.500000	4.817786   
764.000000	4.793510   
764.500000	4.744628   
765.000000	4.688649   
765.500000	4.566573   
766.000000	4.438675   
766.500000	4.286435   
767.000000	4.154491   
767.500000	4.108749   
768.000000	4.079161   
768.500000	4.105953   
769.000000	4.123712   
769.500000	4.130692   
770.000000	4.053046   
770.500000	3.913012   
771.000000	3.788014   
771.500000	3.663838   
772.000000	3.558589   
772.500000	3.511051   
773.000000	3.522241   
773.500000	3.523259   
774.000000	3.551779   
774.500000	3.564239   
775.000000	3.559948   
775.500000	3.524597   
776.000000	3.468985   
776.500000	3.406938   
777.000000	3.304625   
777.500000	3.237662   
778.000000	3.203549   
778.500000	3.192675   
779.000000	3.197643   
779.500000	3.215764   
780.000000	3.262565   
780.500000	3.263257   
781.000000	3.207467   
781.500000	3.132873   
782.000000	3.014259   
782.500000	2.871252   
783.000000	2.733241   
783.500000	2.674569   
784.000000	2.711142   
784.500000	2.775282   
785.000000	2.876372   
785.500000	2.968113   
786.000000	3.037732   
786.500000	3.092500   
787.000000	3.110269   
787.500000	3.126007   
788.000000	3.110282   
788.500000	3.071252   
789.000000	3.018693   
789.500000	2.954632   
790.000000	2.930463   
790.500000	2.922068   
791.000000	2.955111   
791.500000	3.016955   
792.000000	3.049001   
792.500000	3.086897   
793.000000	3.065910   
793.500000	2.998927   
794.000000	2.900358   
794.500000	2.791287   
795.000000	2.725450   
795.500000	2.661723   
796.000000	2.653181   
796.500000	2.703333   
797.000000	2.742059   
797.500000	2.763161   
798.000000	2.735482   
798.500000	2.702302   
799.000000	2.638979   
799.500000	2.537476   
800.000000	2.474922   
800.500000	2.442615   
801.000000	2.447897   
801.500000	2.449398   
802.000000	2.457781   
802.500000	2.487573   
803.000000	2.460912   
803.500000	2.398808   
804.000000	2.324046   
804.500000	2.272688   
805.000000	2.244957   
805.500000	2.218272   
806.000000	2.241040   
806.500000	2.258803   
807.000000	2.220144   
807.500000	2.132100   
808.000000	2.013571   
808.500000	1.936090   
809.000000	1.851215   
809.500000	1.874779   
810.000000	1.993000   
810.500000	2.118313   
811.000000	2.197927   
811.500000	2.198209   
812.000000	2.175326   
812.500000	2.047029   
813.000000	1.898163   
813.500000	1.791272   
814.000000	1.677675   
814.500000	1.583057   
815.000000	1.496064   
815.500000	1.502276   
816.000000	1.516476   
816.500000	1.529090   
817.000000	1.581686   
817.500000	1.649363   
818.000000	1.715649   
818.500000	1.778456   
819.000000	1.924168   
819.500000	2.073430   
820.000000	2.144487   
820.500000	2.174860   
821.000000	2.163699   
821.500000	2.128317   
822.000000	2.087066   
822.500000	2.174591   
823.000000	2.337983   
823.500000	2.507421   
824.000000	2.646543   
824.500000	2.706500   
825.000000	2.689387   
825.500000	2.545385   
826.000000	2.374484   
826.500000	2.223226   
827.000000	2.091320   
827.500000	2.011064   
828.000000	1.937975   
828.500000	1.908545   
829.000000	1.820402   
829.500000	1.714951   
830.000000	1.582144   
830.500000	1.451426   
831.000000	1.323807   
831.500000	1.208922   
832.000000	1.179690   
832.500000	1.164048   
833.000000	1.177239   
833.500000	1.187866   
834.000000	1.189807   
834.500000	1.165476   
835.000000	1.150103   
835.500000	1.157794   
836.000000	1.177478   
836.500000	1.201706   
837.000000	1.192282   
837.500000	1.133497   
838.000000	1.006298   
838.500000	0.848873   
839.000000	0.694651   
839.500000	0.620102   
840.000000	0.592857   
840.500000	0.612417   
841.000000	0.645712   
841.500000	0.669094   
842.000000	0.688356   
842.500000	0.701645   
843.000000	0.714851   
843.500000	0.716866   
844.000000	0.694361   
844.500000	0.603578   
845.000000	0.508671   
845.500000	0.397972   
846.000000	0.319959   
846.500000	0.271508   
847.000000	0.318337   
847.500000	0.422352   
848.000000	0.490756   
848.500000	0.522825   
849.000000	0.511057   
849.500000	0.474172   
850.000000	0.392250   
850.500000	0.350432   
851.000000	0.340827   
851.500000	0.332142   
852.000000	0.309421   
852.500000	0.302807   
853.000000	0.277923   
853.500000	0.228395   
854.000000	0.206623   
854.500000	0.198777   
855.000000	0.214575   
855.500000	0.188354   
856.000000	0.167896   
856.500000	0.150304   
857.000000	0.109306   
857.500000	0.083450   
858.000000	0.073038   
858.500000	0.077166   
859.000000	0.063209   
859.500000	0.048630   
860.000000	0.061549   
860.500000	0.047196   
861.000000	0.030628   
861.500000	0.010011   
862.000000	-0.016352  
862.500000	-0.032155  
863.000000	-0.051951  
863.500000	-0.051719  
864.000000	-0.060380  
864.500000	-0.058927  
865.000000	-0.049517  
865.500000	-0.064827  
866.000000	-0.069794  
866.500000	-0.072076  
867.000000	-0.084883  
867.500000	-0.097801  
868.000000	-0.118165  
868.500000	-0.119910  
869.000000	-0.113814  
869.500000	-0.077389  
870.000000	-0.026111  
870.500000	-0.011141  
871.000000	0.038361   
871.500000	0.072573   
872.000000	0.082096   
872.500000	0.091202   
873.000000	0.102643   
873.500000	0.098738   
874.000000	0.028179   
874.500000	-0.010369  
875.000000	-0.022300  
875.500000	-0.051430  
876.000000	-0.063747  
876.500000	-0.038172  
877.000000	0.013252   
877.500000	0.030474   
878.000000	0.047217   
878.500000	0.067246   
879.000000	0.060393   
879.500000	0.028764   
880.000000	0.002393   
880.500000	-0.040564  
881.000000	-0.085239  
881.500000	-0.110925  
882.000000	-0.128766  
882.500000	-0.126606  
883.000000	-0.137513  
883.500000	-0.130756  
884.000000	-0.128003  
884.500000	-0.112821  
885.000000	-0.067918  
885.500000	-0.036358  
886.000000	0.002192   
886.500000	0.013977   
887.000000	-0.009419  
887.500000	-0.046213  
888.000000	-0.087909  
888.500000	-0.099204  
889.000000	-0.109938  
889.500000	-0.081988  
890.000000	-0.040602  
890.500000	-0.019495  
891.000000	-0.011350  
891.500000	-0.022589  
892.000000	-0.008426  
892.500000	-0.008912  
893.000000	-0.000126  
893.500000	-0.010957  
894.000000	-0.026361  
894.500000	-0.015254  
895.000000	-0.010302  
895.500000	0.009666   
896.000000	0.031400   
896.500000	0.049740   

