PE FL                   SPECTRUM    ASCII       PEDS        1.60        
  -1
S003B3~1.SP
24/04/11
16:40:24.00
24/04/11
16:40:24.00
Jan

896.500000
1









LS55
405.00
5.00
5.00
SCAN
1
20
100
100
0
400
0
1
0
1
5
ON
736 405 
1 0 0
#HDR
-1
-1
#GR
NM

0.00002384185791015625
0.0
450.000000
0.500000
894
8
336.319183
-0.225797
#DATA
450.000000	0.068000   
450.500000	0.235649   
451.000000	0.373107   
451.500000	0.444695   
452.000000	0.389189   
452.500000	0.305562   
453.000000	0.185495   
453.500000	0.012434   
454.000000	-0.121356  
454.500000	-0.199293  
455.000000	-0.221656  
455.500000	-0.191322  
456.000000	-0.108710  
456.500000	-0.014486  
457.000000	0.055387   
457.500000	0.091278   
458.000000	0.102964   
458.500000	0.099697   
459.000000	0.110615   
459.500000	0.109189   
460.000000	0.088313   
460.500000	0.073220   
461.000000	0.026836   
461.500000	-0.010723  
462.000000	-0.022126  
462.500000	-0.029192  
463.000000	-0.028215  
463.500000	-0.042115  
464.000000	-0.052215  
464.500000	-0.061465  
465.000000	-0.079278  
465.500000	-0.091354  
466.000000	-0.078330  
466.500000	-0.073795  
467.000000	-0.045586  
467.500000	0.015508   
468.000000	0.122690   
468.500000	0.240458   
469.000000	0.351866   
469.500000	0.462476   
470.000000	0.519623   
470.500000	0.490612   
471.000000	0.379350   
471.500000	0.261988   
472.000000	0.170693   
472.500000	0.125792   
473.000000	0.167473   
473.500000	0.254289   
474.000000	0.317601   
474.500000	0.338152   
475.000000	0.311901   
475.500000	0.244873   
476.000000	0.185942   
476.500000	0.187949   
477.000000	0.243384   
477.500000	0.306306   
478.000000	0.374851   
478.500000	0.406183   
479.000000	0.414330   
479.500000	0.359222   
480.000000	0.316276   
480.500000	0.258473   
481.000000	0.163348   
481.500000	0.087387   
482.000000	0.031589   
482.500000	0.003243   
483.000000	0.017515   
483.500000	0.095257   
484.000000	0.201155   
484.500000	0.276278   
485.000000	0.320330   
485.500000	0.331692   
486.000000	0.281031   
486.500000	0.228246   
487.000000	0.153790   
487.500000	0.119328   
488.000000	0.084458   
488.500000	0.044994   
489.000000	0.039905   
489.500000	0.011736   
490.000000	0.015699   
490.500000	-0.019037  
491.000000	-0.008693  
491.500000	-0.003239  
492.000000	-0.016651  
492.500000	0.010179   
493.000000	0.017194   
493.500000	0.048955   
494.000000	0.067289   
494.500000	0.160727   
495.000000	0.257222   
495.500000	0.326417   
496.000000	0.420669   
496.500000	0.447933   
497.000000	0.446866   
497.500000	0.385573   
498.000000	0.358610   
498.500000	0.350897   
499.000000	0.342883   
499.500000	0.388714   
500.000000	0.421614   
500.500000	0.490345   
501.000000	0.561061   
501.500000	0.645666   
502.000000	0.725430   
502.500000	0.801564   
503.000000	0.836562   
503.500000	0.791920   
504.000000	0.728983   
504.500000	0.681846   
505.000000	0.633985   
505.500000	0.650211   
506.000000	0.734938   
506.500000	0.862421   
507.000000	0.946387   
507.500000	1.020421   
508.000000	1.079324   
508.500000	1.060890   
509.000000	0.995625   
509.500000	0.980120   
510.000000	1.020966   
510.500000	1.090092   
511.000000	1.198471   
511.500000	1.317103   
512.000000	1.399289   
512.500000	1.418669   
513.000000	1.446165   
513.500000	1.483378   
514.000000	1.527220   
514.500000	1.610651   
515.000000	1.674367   
515.500000	1.742829   
516.000000	1.800204   
516.500000	1.880044   
517.000000	1.969176   
517.500000	2.092174   
518.000000	2.280623   
518.500000	2.459085   
519.000000	2.577218   
519.500000	2.687705   
520.000000	2.769434   
520.500000	2.785025   
521.000000	2.763389   
521.500000	2.762489   
522.000000	2.772846   
522.500000	2.758831   
523.000000	2.837139   
523.500000	3.015385   
524.000000	3.166346   
524.500000	3.313753   
525.000000	3.400944   
525.500000	3.445825   
526.000000	3.390113   
526.500000	3.404970   
527.000000	3.536307   
527.500000	3.727565   
528.000000	4.073662   
528.500000	4.467647   
529.000000	4.821115   
529.500000	5.049569   
530.000000	5.195359   
530.500000	5.249141   
531.000000	5.222604   
531.500000	5.257831   
532.000000	5.391326   
532.500000	5.615549   
533.000000	5.847842   
533.500000	6.157382   
534.000000	6.474341   
534.500000	6.743912   
535.000000	6.965942   
535.500000	7.242192   
536.000000	7.634385   
536.500000	8.074309   
537.000000	8.527745   
537.500000	8.919165   
538.000000	9.225901   
538.500000	9.361226   
539.000000	9.500465   
539.500000	9.757254   
540.000000	10.110747  
540.500000	10.485534  
541.000000	10.871656  
541.500000	11.222348  
542.000000	11.368348  
542.500000	11.345510  
543.000000	11.277393  
543.500000	11.283979  
544.000000	11.300860  
544.500000	11.429358  
545.000000	11.538439  
545.500000	11.618953  
546.000000	11.557129  
546.500000	11.425871  
547.000000	11.233204  
547.500000	10.895456  
548.000000	10.620664  
548.500000	10.302747  
549.000000	10.063894  
549.500000	9.889447   
550.000000	9.860901   
550.500000	9.923456   
551.000000	9.925230   
551.500000	10.024428  
552.000000	10.103179  
552.500000	10.088207  
553.000000	10.003170  
553.500000	9.987539   
554.000000	10.047118  
554.500000	10.082263  
555.000000	10.127781  
555.500000	10.229534  
556.000000	10.331961  
556.500000	10.474736  
557.000000	10.684269  
557.500000	10.948747  
558.000000	11.212328  
558.500000	11.480849  
559.000000	11.745582  
559.500000	11.979452  
560.000000	12.283100  
560.500000	12.585864  
561.000000	12.909027  
561.500000	13.239538  
562.000000	13.641241  
562.500000	14.149957  
563.000000	14.648747  
563.500000	15.197447  
564.000000	15.717141  
564.500000	16.169842  
565.000000	16.594142  
565.500000	17.044163  
566.000000	17.653430  
566.500000	18.373580  
567.000000	19.320571  
567.500000	20.381237  
568.000000	21.319205  
568.500000	22.187705  
569.000000	22.817846  
569.500000	23.227179  
570.000000	23.505873  
570.500000	23.777020  
571.000000	24.305270  
571.500000	24.941024  
572.000000	25.913862  
572.500000	26.985994  
573.000000	27.998684  
573.500000	28.958285  
574.000000	29.696916  
574.500000	30.270411  
575.000000	30.773341  
575.500000	31.450007  
576.000000	32.231964  
576.500000	32.995031  
577.000000	33.876458  
577.500000	34.636935  
578.000000	35.202313  
578.500000	35.670602  
579.000000	36.189573  
579.500000	36.745397  
580.000000	37.395768  
580.500000	38.091801  
581.000000	38.731651  
581.500000	39.287907  
582.000000	39.959135  
582.500000	40.832905  
583.000000	41.826515  
583.500000	43.081103  
584.000000	44.451910  
584.500000	45.478936  
585.000000	46.357304  
585.500000	47.206398  
586.000000	48.154452  
586.500000	49.163753  
587.000000	50.300296  
587.500000	51.715189  
588.000000	53.102608  
588.500000	54.344955  
589.000000	55.682959  
589.500000	57.004443  
590.000000	58.380743  
590.500000	59.598640  
591.000000	60.768395  
591.500000	62.042333  
592.000000	63.225693  
592.500000	64.659465  
593.000000	66.208250  
593.500000	68.019454  
594.000000	69.806912  
594.500000	71.287309  
595.000000	72.704614  
595.500000	73.847753  
596.000000	75.078428  
596.500000	76.381144  
597.000000	78.097892  
597.500000	80.167354  
598.000000	82.376487  
598.500000	84.663044  
599.000000	86.713506  
599.500000	88.659398  
600.000000	90.399962  
600.500000	92.359623  
601.000000	94.249638  
601.500000	96.262313  
602.000000	98.431181  
602.500000	100.422567 
603.000000	102.244985 
603.500000	104.054458 
604.000000	106.406231 
604.500000	109.034115 
605.000000	112.083760 
605.500000	115.645302 
606.000000	119.180994 
606.500000	122.204643 
607.000000	124.711799 
607.500000	126.833871 
608.000000	128.627430 
608.500000	130.448282 
609.000000	132.769621 
609.500000	135.515217 
610.000000	138.501820 
610.500000	141.703812 
611.000000	144.986855 
611.500000	148.336552 
612.000000	151.538278 
612.500000	154.780437 
613.000000	157.758345 
613.500000	160.527933 
614.000000	163.045282 
614.500000	165.715933 
615.000000	168.594564 
615.500000	171.849478 
616.000000	175.473584 
616.500000	179.316988 
617.000000	183.072278 
617.500000	186.451018 
618.000000	189.930764 
618.500000	193.050695 
619.000000	196.224129 
619.500000	199.494241 
620.000000	203.150833 
620.500000	206.895430 
621.000000	210.539543 
621.500000	214.790580 
622.000000	218.837825 
622.500000	222.508820 
623.000000	225.937018 
623.500000	229.434378 
624.000000	232.902593 
624.500000	235.967165 
625.000000	239.799363 
625.500000	244.036005 
626.000000	248.084873 
626.500000	252.389244 
627.000000	256.472237 
627.500000	260.421684 
628.000000	263.656200 
628.500000	266.934768 
629.000000	270.570797 
629.500000	273.993615 
630.000000	277.860053 
630.500000	281.477944 
631.000000	285.274333 
631.500000	288.670029 
632.000000	291.849849 
632.500000	294.886974 
633.000000	297.744519 
633.500000	301.057300 
634.000000	303.916888 
634.500000	306.777827 
635.000000	309.160641 
635.500000	311.085506 
636.000000	312.734003 
636.500000	313.995172 
637.000000	315.576892 
637.500000	317.200068 
638.000000	319.443406 
638.500000	321.526109 
639.000000	323.502131 
639.500000	325.397651 
640.000000	326.742521 
640.500000	327.695693 
641.000000	328.746025 
641.500000	330.018582 
642.000000	331.019807 
642.500000	331.675217 
643.000000	332.514502 
643.500000	333.430820 
644.000000	333.939684 
644.500000	334.699317 
645.000000	335.734684 
645.500000	336.319183 
646.000000	336.008910 
646.500000	335.100539 
647.000000	333.830716 
647.500000	331.848168 
648.000000	329.725547 
648.500000	328.319918 
649.000000	326.865432 
649.500000	325.169029 
650.000000	323.340565 
650.500000	322.079031 
651.000000	320.648467 
651.500000	318.674829 
652.000000	316.810936 
652.500000	314.919306 
653.000000	312.860003 
653.500000	310.220302 
654.000000	307.946048 
654.500000	305.594445 
655.000000	303.240096 
655.500000	300.554085 
656.000000	297.724599 
656.500000	294.837586 
657.000000	291.357549 
657.500000	288.046645 
658.000000	284.546176 
658.500000	281.416769 
659.000000	277.999194 
659.500000	274.644473 
660.000000	271.370755 
660.500000	267.921931 
661.000000	264.375300 
661.500000	260.588276 
662.000000	256.606263 
662.500000	252.589233 
663.000000	248.347131 
663.500000	244.019840 
664.000000	239.549901 
664.500000	235.071636 
665.000000	230.508901 
665.500000	225.650031 
666.000000	220.868627 
666.500000	215.960063 
667.000000	211.219549 
667.500000	206.642729 
668.000000	202.247944 
668.500000	198.211567 
669.000000	194.104076 
669.500000	190.266560 
670.000000	186.293387 
670.500000	182.392387 
671.000000	178.205647 
671.500000	173.746072 
672.000000	169.416198 
672.500000	165.028929 
673.000000	160.689875 
673.500000	156.152235 
674.000000	152.051634 
674.500000	148.172627 
675.000000	143.989695 
675.500000	139.875794 
676.000000	135.642278 
676.500000	131.566063 
677.000000	127.552656 
677.500000	124.003647 
678.000000	121.076972 
678.500000	118.346881 
679.000000	115.742346 
679.500000	113.043450 
680.000000	110.113189 
680.500000	106.938985 
681.000000	103.558823 
681.500000	100.409551 
682.000000	97.390740  
682.500000	94.611384  
683.000000	92.059946  
683.500000	89.527389  
684.000000	86.999463  
684.500000	84.448584  
685.000000	81.946803  
685.500000	79.356089  
686.000000	76.782198  
686.500000	74.499697  
687.000000	72.160638  
687.500000	69.879474  
688.000000	67.792233  
688.500000	65.916146  
689.000000	64.195014  
689.500000	62.561849  
690.000000	61.160910  
690.500000	59.719836  
691.000000	58.256760  
691.500000	56.736777  
692.000000	55.146063  
692.500000	53.446721  
693.000000	51.792448  
693.500000	50.320172  
694.000000	48.987959  
694.500000	47.788504  
695.000000	46.643408  
695.500000	45.585651  
696.000000	44.367621  
696.500000	43.139430  
697.000000	41.670460  
697.500000	40.153369  
698.000000	38.658792  
698.500000	37.260051  
699.000000	36.162914  
699.500000	35.230621  
700.000000	34.572658  
700.500000	33.914690  
701.000000	33.341923  
701.500000	32.692627  
702.000000	31.927148  
702.500000	30.946330  
703.000000	29.905090  
703.500000	29.001968  
704.000000	28.105825  
704.500000	27.378897  
705.000000	26.745734  
705.500000	26.344638  
706.000000	25.850755  
706.500000	25.311844  
707.000000	24.588465  
707.500000	23.779246  
708.000000	23.036836  
708.500000	22.270207  
709.000000	21.875764  
709.500000	21.671439  
710.000000	21.561152  
710.500000	21.228135  
711.000000	20.763081  
711.500000	20.177157  
712.000000	19.367424  
712.500000	18.732899  
713.000000	18.308717  
713.500000	18.072302  
714.000000	17.820521  
714.500000	17.596194  
715.000000	17.359564  
715.500000	16.988094  
716.000000	16.661230  
716.500000	16.375467  
717.000000	16.075215  
717.500000	15.701662  
718.000000	15.308549  
718.500000	14.854636  
719.000000	14.474866  
719.500000	14.167413  
720.000000	13.924372  
720.500000	13.793037  
721.000000	13.627515  
721.500000	13.429521  
722.000000	13.102762  
722.500000	12.806788  
723.000000	12.496038  
723.500000	12.166029  
724.000000	11.952333  
724.500000	11.767784  
725.000000	11.586521  
725.500000	11.361111  
726.000000	11.142426  
726.500000	10.897118  
727.000000	10.629680  
727.500000	10.441760  
728.000000	10.218241  
728.500000	9.971346   
729.000000	9.804992   
729.500000	9.655907   
730.000000	9.546653   
730.500000	9.543244   
731.000000	9.603879   
731.500000	9.644762   
732.000000	9.627944   
732.500000	9.555484   
733.000000	9.328699   
733.500000	9.037751   
734.000000	8.791808   
734.500000	8.535565   
735.000000	8.313196   
735.500000	8.191499   
736.000000	8.089931   
736.500000	7.966773   
737.000000	7.855538   
737.500000	7.820335   
738.000000	7.755701   
738.500000	7.670528   
739.000000	7.616992   
739.500000	7.461198   
740.000000	7.251612   
740.500000	7.068441   
741.000000	6.930686   
741.500000	6.895699   
742.000000	6.963337   
742.500000	7.098588   
743.000000	7.133942   
743.500000	7.118371   
744.000000	7.028115   
744.500000	6.876972   
745.000000	6.684814   
745.500000	6.525617   
746.000000	6.391929   
746.500000	6.267949   
747.000000	6.190853   
747.500000	6.118163   
748.000000	6.110428   
748.500000	6.087551   
749.000000	6.071038   
749.500000	5.996910   
750.000000	5.869311   
750.500000	5.762923   
751.000000	5.635009   
751.500000	5.533803   
752.000000	5.441547   
752.500000	5.357899   
753.000000	5.273760   
753.500000	5.152098   
754.000000	5.081844   
754.500000	5.056504   
755.000000	5.014007   
755.500000	5.030539   
756.000000	5.034918   
756.500000	5.081398   
757.000000	5.042243   
757.500000	4.953402   
758.000000	4.865879   
758.500000	4.735936   
759.000000	4.689564   
759.500000	4.672397   
760.000000	4.760187   
760.500000	4.896100   
761.000000	4.969551   
761.500000	4.987771   
762.000000	4.940820   
762.500000	4.790421   
763.000000	4.586124   
763.500000	4.450044   
764.000000	4.393324   
764.500000	4.400359   
765.000000	4.409382   
765.500000	4.451304   
766.000000	4.433606   
766.500000	4.337543   
767.000000	4.241220   
767.500000	4.116708   
768.000000	4.023025   
768.500000	3.887294   
769.000000	3.794443   
769.500000	3.708541   
770.000000	3.605493   
770.500000	3.571625   
771.000000	3.574337   
771.500000	3.640942   
772.000000	3.678925   
772.500000	3.681916   
773.000000	3.626153   
773.500000	3.488645   
774.000000	3.327541   
774.500000	3.275348   
775.000000	3.296105   
775.500000	3.349024   
776.000000	3.477448   
776.500000	3.597022   
777.000000	3.667701   
777.500000	3.593940   
778.000000	3.496890   
778.500000	3.407972   
779.000000	3.316189   
779.500000	3.258727   
780.000000	3.223870   
780.500000	3.224326   
781.000000	3.193977   
781.500000	3.169905   
782.000000	3.173922   
782.500000	3.172461   
783.000000	3.168771   
783.500000	3.131508   
784.000000	3.074179   
784.500000	2.998985   
785.000000	2.934996   
785.500000	2.912521   
786.000000	2.911217   
786.500000	2.947781   
787.000000	3.021354   
787.500000	3.058159   
788.000000	3.040432   
788.500000	3.026938   
789.000000	3.019710   
789.500000	2.977452   
790.000000	2.924543   
790.500000	2.872595   
791.000000	2.806324   
791.500000	2.714541   
792.000000	2.655109   
792.500000	2.651102   
793.000000	2.668595   
793.500000	2.707588   
794.000000	2.754890   
794.500000	2.780116   
795.000000	2.780289   
795.500000	2.748775   
796.000000	2.732007   
796.500000	2.703170   
797.000000	2.656530   
797.500000	2.603432   
798.000000	2.524831   
798.500000	2.459122   
799.000000	2.375589   
799.500000	2.332070   
800.000000	2.310094   
800.500000	2.299302   
801.000000	2.317467   
801.500000	2.331612   
802.000000	2.391627   
802.500000	2.411599   
803.000000	2.432508   
803.500000	2.447400   
804.000000	2.425717   
804.500000	2.372547   
805.000000	2.290165   
805.500000	2.239905   
806.000000	2.163261   
806.500000	2.107085   
807.000000	2.062393   
807.500000	2.031435   
808.000000	1.992814   
808.500000	1.978380   
809.000000	2.028736   
809.500000	2.053335   
810.000000	2.060766   
810.500000	2.011599   
811.000000	1.931187   
811.500000	1.817517   
812.000000	1.736090   
812.500000	1.733035   
813.000000	1.727330   
813.500000	1.779649   
814.000000	1.824755   
814.500000	1.850734   
815.000000	1.807714   
815.500000	1.745059   
816.000000	1.738595   
816.500000	1.701857   
817.000000	1.729751   
817.500000	1.819356   
818.000000	1.929558   
818.500000	2.063992   
819.000000	2.198326   
819.500000	2.337287   
820.000000	2.381443   
820.500000	2.342020   
821.000000	2.316495   
821.500000	2.307625   
822.000000	2.371883   
822.500000	2.518612   
823.000000	2.692385   
823.500000	2.824988   
824.000000	2.848148   
824.500000	2.804035   
825.000000	2.641244   
825.500000	2.419118   
826.000000	2.235808   
826.500000	2.098651   
827.000000	2.054007   
827.500000	2.052688   
828.000000	2.061651   
828.500000	2.066263   
829.000000	1.998970   
829.500000	1.890504   
830.000000	1.730640   
830.500000	1.556194   
831.000000	1.408990   
831.500000	1.305949   
832.000000	1.262296   
832.500000	1.277688   
833.000000	1.339257   
833.500000	1.383332   
834.000000	1.406812   
834.500000	1.407894   
835.000000	1.362717   
835.500000	1.261161   
836.000000	1.151152   
836.500000	1.045606   
837.000000	0.939719   
837.500000	0.845512   
838.000000	0.756851   
838.500000	0.727877   
839.000000	0.717102   
839.500000	0.751619   
840.000000	0.824662   
840.500000	0.895189   
841.000000	0.944860   
841.500000	0.934545   
842.000000	0.899265   
842.500000	0.804714   
843.000000	0.728257   
843.500000	0.679061   
844.000000	0.633972   
844.500000	0.608051   
845.000000	0.568606   
845.500000	0.519871   
846.000000	0.416166   
846.500000	0.312983   
847.000000	0.257415   
847.500000	0.219287   
848.000000	0.219499   
848.500000	0.244543   
849.000000	0.297853   
849.500000	0.346792   
850.000000	0.379194   
850.500000	0.406339   
851.000000	0.409016   
851.500000	0.399584   
852.000000	0.361640   
852.500000	0.292176   
853.000000	0.242742   
853.500000	0.220705   
854.000000	0.225905   
854.500000	0.232024   
855.000000	0.245630   
855.500000	0.240474   
856.000000	0.192580   
856.500000	0.131528   
857.000000	0.108703   
857.500000	0.112692   
858.000000	0.111428   
858.500000	0.106799   
859.000000	0.123975   
859.500000	0.114181   
860.000000	0.069519   
860.500000	0.062638   
861.000000	0.085035   
861.500000	0.092426   
862.000000	0.097730   
862.500000	0.133897   
863.000000	0.140274   
863.500000	0.122682   
864.000000	0.126766   
864.500000	0.145972   
865.000000	0.142389   
865.500000	0.107419   
866.000000	0.059608   
866.500000	-0.007751  
867.000000	-0.099862  
867.500000	-0.186491  
868.000000	-0.225797  
868.500000	-0.224170  
869.000000	-0.170077  
869.500000	-0.116022  
870.000000	-0.076682  
870.500000	-0.050918  
871.000000	-0.061124  
871.500000	-0.073179  
872.000000	-0.079415  
872.500000	-0.049706  
873.000000	-0.030211  
873.500000	-0.019141  
874.000000	-0.006606  
874.500000	-0.013276  
875.000000	-0.024948  
875.500000	-0.064682  
876.000000	-0.089521  
876.500000	-0.099493  
877.000000	-0.100994  
877.500000	-0.086298  
878.000000	-0.056428  
878.500000	-0.016571  
879.000000	-0.010892  
879.500000	-0.029261  
880.000000	-0.063081  
880.500000	-0.084116  
881.000000	-0.108846  
881.500000	-0.109192  
882.000000	-0.089671  
882.500000	-0.096949  
883.000000	-0.122222  
883.500000	-0.152411  
884.000000	-0.139283  
884.500000	-0.121630  
885.000000	-0.066337  
885.500000	0.020734   
886.000000	0.105480   
886.500000	0.140521   
887.000000	0.144196   
887.500000	0.152250   
888.000000	0.120128   
888.500000	0.065007   
889.000000	0.040170   
889.500000	0.032669   
890.000000	-0.009061  
890.500000	-0.017640  
891.000000	0.015883   
891.500000	0.061205   
892.000000	0.071076   
892.500000	0.075862   
893.000000	0.091126   
893.500000	0.056074   
894.000000	0.030435   
894.500000	0.012630   
895.000000	0.002547   
895.500000	-0.023634  
896.000000	-0.063922  
896.500000	-0.100968  

